    HOUR (UT)   FLARE FACTOR    SKY TESTER    SUN TESTER
   11.67888927   -1.00000000   -1.00000000   -1.00000000
   11.81111145   -1.00000000   -1.00000000   -1.00000000
   11.89777756   -1.00000000   -1.00000000   -1.00000000
   11.96305561  218.68600464    1.05999994    2.42000008
   11.96694374  229.37600708    1.05999994    2.44000006
   11.97027779  229.75700378    1.05999994    2.44000006
   11.97333336  212.97999573    1.03999996    2.44000006
   11.97666645  217.94599915    1.01999998    2.44000006
   11.98333359  217.94599915    1.01999998    2.46000004
   11.98750019  211.33099365    1.01999998    2.44000006
   11.99055576  216.03100586    1.01999998    2.46000004
   11.99388885  200.03399658    1.01999998    2.46000004
   11.99638939  206.74200439    1.01999998    2.46000004
   11.99777794  199.90299988    1.01999998    2.46000004
   12.00083351  204.38099670    1.01999998    2.46000004
   12.00416660  228.27499390    1.00000000    2.46000004
   12.00749969  213.52799988    1.01999998    2.46000004
   12.01055527  218.30299377    1.00000000    2.46000004
   12.01388931  227.13999939    1.00000000    2.46000004
   12.01694393  218.53799438    1.00000000    2.46000004
   12.02027798  207.07600403    1.00000000    2.46000004
   12.02611065  207.07600403    1.00000000    2.46000004
   12.03027725  209.69500732    0.98000002    2.46000004
   12.03361130  207.91499329    1.00000000    2.46000004
   12.03666687  223.87699890    0.98000002    2.48000002
   12.04000092  216.05299377    0.95999998    2.48000002
   12.04333401  219.08599854    0.95999998    2.46000004
   12.04638958  207.15699768    0.95999998    2.48000002
   12.04972267  214.65800476    0.95999998    2.48000002
   12.05305576  210.16999817    0.94000000    2.48000002
   12.05611134  223.65400696    0.94000000    2.46000004
   12.05944443  214.00900269    0.94000000    2.48000002
   12.06250000  214.48800659    0.94000000    2.48000002
   12.06305599  233.10899353    0.92000002    2.48000002
   12.06888866  233.10899353    0.92000002    2.48000002
   12.07305527  212.68099976    0.92000002    2.48000002
   12.07638836  217.53199768    0.92000002    2.48000002
   12.07972240  218.53300476    0.92000002    2.48000002
   12.08277798  202.56100464    0.89999998    2.48000002
   12.08611107  203.19799805    0.89999998    2.48000002
   12.08916664  196.44900513    0.89999998    2.48000002
   12.09249973  209.36300659    0.89999998    2.50000000
   12.09583282  194.77999878    0.88000000    2.50000000
   12.09638882  204.84399414    0.88000000    2.48000002
   12.09944439  199.57499695    0.88000000    2.50000000
   12.10277843  191.04100037    0.88000000    2.48000002
   12.10583401  202.85299683    0.88000000    2.50000000
   12.11194515  202.85299683    0.88000000    2.50000000
   12.11611176  210.73800659    0.88000000    2.50000000
   12.11916637  208.44799805    0.88000000    2.50000000
   12.12250042  199.12100220    0.88000000    2.51999998
   12.12555599  196.04800415    0.86000001    2.50000000
   12.12888908  199.98100281    0.88000000    2.50000000
   12.12972260  202.27900696    0.88000000    2.50000000
   12.13249969  192.59599304    0.86000001    2.50000000
   12.13583279  197.96499634    0.86000001    2.50000000
   12.13888836  200.86000061    0.86000001    2.50000000
   12.14222240  198.51699829    0.86000001    2.50000000
   12.14555550  203.08299255    0.86000001    2.50000000
   12.14861107  195.10200500    0.86000001    2.50000000
   12.15472221  195.10200500    0.86000001    2.51999998
   12.15888882  213.71200562    0.86000001    2.51999998
   12.16194439  209.49299622    0.83999997    2.51999998
   12.16305542  207.77499390    0.86000001    2.51999998
   12.16555500  207.01100159    0.83999997    2.51999998
   12.16888905  212.19099426    0.86000001    2.51999998
   12.17194462  203.68600464    0.86000001    2.51999998
   12.17527771  220.79200745    0.86000001    2.51999998
   12.17861176  210.03300476    0.83999997    2.51999998
   12.18166733  209.54299927    0.83999997    2.51999998
   12.18500042  203.13600159    0.83999997    2.51999998
   12.18833351  217.41700745    0.83999997    2.53999996
   12.19138908  210.01699829    0.83999997    2.51999998
   12.19750023  210.01699829    0.83999997    2.51999998
   12.20166683  210.73599243    0.83999997    2.53999996
   12.20499992  206.54400635    0.86000001    2.51999998
   12.20805550  206.70399475    0.83999997    2.53999996
   12.21138859  232.19599915    0.83999997    2.53999996
   12.21472168  232.01899719    0.83999997    2.53999996
   12.21777725  207.36799622    0.83999997    2.53999996
   12.22111034  187.22399902    0.83999997    2.53999996
   12.22444439  206.23800659    0.81999999    2.53999996
   12.22749996  211.30599976    0.81999999    2.53999996
   12.22972202  210.31599426    0.81999999    2.53999996
   12.23111057  199.41000366    0.83999997    2.53999996
   12.23444462  218.37500000    0.81999999    2.53999996
   12.24027824  218.37500000    0.81999999    2.53999996
   12.24444485  224.35899353    0.81999999    2.55999994
   12.24777794  219.90499878    0.81999999    2.53999996
   12.25083351  218.98300171    0.81999999    2.53999996
   12.25416660  223.86399841    0.81999999    2.53999996
   12.25749969  221.23399353    0.81999999    2.55999994
   12.26055527  203.22999573    0.80000001    2.55999994
   12.26305580  213.03399658    0.80000001    2.55999994
   12.26416683  217.53300476    0.80000001    2.55999994
   12.26749992  220.06300354    0.80000001    2.55999994
   12.27055550  211.37100220    0.80000001    2.55999994
   12.27388859  203.35800171    0.80000001    2.55999994
   12.27722168  213.14300537    0.80000001    2.55999994
   12.28333378  213.14300537    0.80000001    2.55999994
   12.28750038  223.66700745    0.80000001    2.55999994
   12.29055595  225.93800354    0.80000001    2.55999994
   12.29388905  236.98500061    0.80000001    2.55999994
   12.29638958  228.53100586    0.80000001    2.55999994
   12.29750061  215.32400513    0.80000001    2.55999994
   12.30083370  219.23399353    0.80000001    2.55999994
   12.30388927  224.32000732    0.79000002    2.55999994
   12.30722237  212.81700134    0.79000002    2.55999994
   12.31055546  217.35600281    0.80000001    2.55999994
   12.31361103  213.30999756    0.80000001    2.55999994
   12.31694412  207.94200134    0.80000001    2.57999992
   12.32027817  216.99899292    0.80000001    2.55999994
   12.32611084  216.99899292    0.80000001    2.57999992
   12.33027744  214.41600037    0.81999999    2.55999994
   12.33333302  215.52000427    0.81999999    2.55999994
   12.33666611  212.90600586    0.81999999    2.55999994
   12.34000015  187.99299622    0.80000001    2.57999992
   12.34305477  208.28599548    0.80000001    2.57999992
   12.34638882  204.69099426    0.80000001    2.57999992
   12.34944439  200.55099487    0.80000001    2.57999992
   12.35277843  210.42399597    0.80000001    2.57999992
   12.35611153  211.38099670    0.80000001    2.57999992
   12.35916710  212.90800476    0.80000001    2.57999992
   12.36250019  210.92100525    0.80000001    2.57999992
   12.36333370  206.38900757    0.80000001    2.57999992
   12.36888885  206.38900757    0.80000001    2.59999990
   12.37305546  202.90299988    0.79000002    2.57999992
   12.37638855  206.56500244    0.79000002    2.57999992
   12.37944412  211.67300415    0.79000002    2.59999990
   12.38277817  219.52699280    0.76999998    2.57999992
   12.38583279  224.70199585    0.76999998    2.57999992
   12.38916683  204.73800659    0.79000002    2.57999992
   12.39249992  211.45599365    0.79000002    2.59999990
   12.39555550  222.47099304    0.76999998    2.57999992
   12.39666653  227.32699585    0.76999998    2.57999992
   12.39916611  217.39100647    0.76999998    2.59999990
   12.40249920  222.55099487    0.76999998    2.59999990
   12.40555477  207.57299805    0.76999998    2.59999990
   12.41166592  207.57299805    0.75000000    2.59999990
   12.41583252  200.73699951    0.75000000    2.59999990
   12.41916656  216.61799622    0.75000000    2.59999990
   12.42222214  224.42599487    0.75000000    2.59999990
   12.42555618  220.54899597    0.75000000    2.59999990
   12.42888927  214.63600159    0.75000000    2.59999990
   12.43000031  213.74000549    0.75000000    2.59999990
   12.43249989  220.77499390    0.75000000    2.59999990
   12.43583298  216.95500183    0.75000000    2.59999990
   12.43888855  217.40800476    0.75000000    2.59999990
   12.44222260  202.91600037    0.75000000    2.59999990
   12.44555569  211.35800171    0.75000000    2.59999990
   12.44861126  220.97300720    0.73000002    2.59999990
   12.45472240  220.97300720    0.73000002    2.59999990
   12.45861053  216.27799988    0.73000002    2.61999989
   12.46194458  213.44700623    0.73000002    2.61999989
   12.46333313  210.02600098    0.73000002    2.61999989
   12.46555519  215.93499756    0.73000002    2.61999989
   12.46888828  209.07299805    0.73000002    2.61999989
   12.47222137  216.85699463    0.75000000    2.61999989
   12.47527695  188.51499939    0.73000002    2.61999989
   12.47861099  213.18699646    0.75000000    2.61999989
   12.48166656  207.81599426    0.73000002    2.61999989
   12.48500061  214.98599243    0.73000002    2.61999989
   12.48833370  218.78199768    0.75000000    2.61999989
   12.49138927  219.52900696    0.75000000    2.61999989
   12.49750042  219.52900696    0.75000000    2.61999989
   12.50166702  215.13600159    0.73000002    2.61999989
   12.50472260  212.15600586    0.73000002    2.61999989
   12.50805569  206.84300232    0.73000002    2.64000010
   12.51138878  226.55599976    0.73000002    2.61999989
   12.51444435  222.29499817    0.73000002    2.61999989
   12.51777744  216.52900696    0.75000000    2.61999989
   12.52083302  227.27999878    0.75000000    2.61999989
   12.52416611  232.51899719    0.75000000    2.64000010
   12.52750015  204.99699402    0.73000002    2.64000010
   12.52999973  216.36000061    0.75000000    2.64000010
   12.53111076  217.41200256    0.75000000    2.64000010
   12.53444481  212.51100159    0.75000000    2.61999989
   12.54027843  212.51100159    0.73000002    2.64000010
   12.54444504  236.32600403    0.75000000    2.61999989
   12.54777813  213.98399353    0.75000000    2.64000010
   12.55083370  188.73199463    0.75000000    2.64000010
   12.55416679  222.11799622    0.75000000    2.64000010
   12.55749989  210.44700623    0.75000000    2.64000010
   12.56055546  200.61000061    0.75000000    2.64000010
   12.56333351  216.34399414    0.75000000    2.64000010
   12.56416702  215.26600647    0.75000000    2.64000010
   12.56750011  229.38999939    0.75000000    2.64000010
   12.57083321  230.54699707    0.75000000    2.64000010
   12.57388878  213.04400635    0.75000000    2.64000010
   12.57722187  206.57899475    0.75000000    2.64000010
   12.58305550  206.57899475    0.75000000    2.64000010
   12.58722210  224.25000000    0.75000000    2.64000010
   12.59055519  208.61999512    0.76999998    2.64000010
   12.59361076  218.77499390    0.76999998    2.64000010
   12.59666634  220.16299438    0.76999998    2.64000010
   12.59722233  203.34899902    0.76999998    2.64000010
   12.60055637  211.69599915    0.79000002    2.66000009
   12.60388947  201.44299316    0.76999998    2.64000010
   12.60694504  205.03500366    0.76999998    2.64000010
   12.61027813  214.95300293    0.76999998    2.66000009
   12.61333370  223.06700134    0.79000002    2.64000010
   12.61666679  236.80799866    0.79000002    2.66000009
   12.61999989  215.52000427    0.79000002    2.64000010
   12.62611103  215.52000427    0.79000002    2.66000009
   12.63000011  225.85200500    0.79000002    2.64000010
   12.63333321  201.95700073    0.79000002    2.66000009
   12.63666630  194.87300110    0.79000002    2.66000009
   12.63972187  208.90899658    0.79000002    2.64000010
   12.64305496  204.53700256    0.79000002    2.64000010
   12.64638901  208.07800293    0.79000002    2.66000009
   12.64944458  216.47599792    0.79000002    2.67000008
   12.65277767  212.48100281    0.79000002    2.66000009
   12.65583324  217.27600098    0.79000002    2.66000009
   12.65916634  198.16499329    0.79000002    2.66000009
   12.66249943  201.36999512    0.79000002    2.66000009
   12.66333294  202.77999878    0.79000002    2.66000009
   12.66888905  202.77999878    0.79000002    2.66000009
   12.67305565  190.86000061    0.79000002    2.66000009
   12.67611122  198.10600281    0.79000002    2.66000009
   12.67944431  201.73800659    0.79000002    2.67000008
   12.68277836  193.34500122    0.79000002    2.66000009
   12.68583298  213.72900391    0.79000002    2.66000009
   12.68916702  185.26899719    0.79000002    2.67000008
   12.69250011  210.77099609    0.79000002    2.67000008
   12.69555569  211.21600342    0.79000002    2.67000008
   12.69666672  194.16200256    0.79000002    2.66000009
   12.69916630  196.32600403    0.79000002    2.67000008
   12.70249939  181.19599915    0.76999998    2.67000008
   12.70583344  220.16799927    0.76999998    2.66000009
   12.71166611  220.16799927    0.76999998    2.66000009
   12.71583271  189.90899658    0.76999998    2.67000008
   12.71888828  211.53799438    0.76999998    2.67000008
   12.72222137  224.35699463    0.76999998    2.67000008
   12.72555542  212.63900757    0.79000002    2.67000008
   12.72861099  201.60200500    0.76999998    2.67000008
   12.72999954  221.27000427    0.79000002    2.67000008
   12.73222160  197.16400146    0.80000001    2.66000009
   12.73555565  214.81199646    0.81999999    2.67000008
   12.73888874  203.17100525    0.86000001    2.67000008
   12.74194431  204.95100403    0.95999998    2.66000009
   12.74527836  216.80799866    0.98000002    2.67000008
   12.74861145  204.34500122    0.98000002    2.67000008
   12.75444412  204.34500122    1.09000003    2.67000008
   12.75861073  210.16600037    1.05999994    2.67000008
   12.76194477  200.93099976    1.05999994    2.67000008
   12.76333332  204.46200562    1.05999994    2.67000008
   12.76555538  211.76699829    1.07000005    2.67000008
   12.76888847  207.85099792    1.09000003    2.67000008
   12.77222157  209.06599426    1.09000003    2.67000008
   12.77527714  212.73899841    1.11000001    2.67000008
   12.77861118  198.14399719    1.09000003    2.67000008
   12.78194427  198.38000488    1.09000003    2.67000008
   12.78500080  192.28100586    1.07000005    2.67000008
   12.78833389  207.92900085    1.05999994    2.67000008
   12.79166698  201.61500549    1.05999994    2.69000006
   12.79722309  201.61500549    1.03999996    2.67000008
   12.80138874  188.13900757    1.00000000    2.67000008
   12.80472279  196.70799255    1.00000000    2.67000008
   12.80805588  205.21299744    1.00000000    2.67000008
   12.81111145  203.57299805    1.01999998    2.69000006
   12.81444454  184.56900024    1.05999994    2.69000006
   12.81777763  186.37800598    1.03999996    2.67000008
   12.82083321  190.78399658    1.03999996    2.67000008
   12.82416630  216.57099915    1.01999998    2.69000006
   12.82722187  194.91600037    1.01999998    2.69000006
   12.82999992  207.76300049    1.05999994    2.69000006
   12.83083344  203.15800476    1.05999994    2.69000006
   12.83416653  209.51199341    1.07000005    2.69000006
   12.84027767  209.51199341    1.07000005    2.69000006
   12.84444427  203.41099548    1.05999994    2.67000008
   12.84749985  198.07299805    0.98000002    2.69000006
   12.85083389  192.99200439    0.98000002    2.69000006
   12.85388947  191.33099365    1.00000000    2.69000006
   12.85722256  207.95799255    0.95999998    2.69000006
   12.86055565  189.44099426    0.95999998    2.69000006
   12.86333370  211.50799561    0.95999998    2.69000006
   12.86416721  203.86300659    0.95999998    2.69000006
   12.86750031  208.58900452    0.98000002    2.69000006
   12.87083340  196.51600647    1.00000000    2.69000006
   12.87388897  195.58200073    1.01999998    2.69000006
   12.87722206  181.76199341    1.01999998    2.69000006
   12.88305569  181.76199341    1.01999998    2.69000006
   12.88722229  191.83399963    1.01999998    2.69000006
   12.89055538  188.14700317    1.01999998    2.69000006
   12.89361095  191.89199829    1.00000000    2.69000006
   12.89666653  199.07200623    1.01999998    2.71000004
   12.89722252  202.05400085    1.01999998    2.71000004
   12.90055561  212.56399536    1.01999998    2.69000006
   12.90388870  200.65499878    1.03999996    2.69000006
   12.90694427  215.30000305    1.01999998    2.69000006
   12.91027737  192.03999329    1.03999996    2.69000006
   12.91361046  183.94099426    1.03999996    2.69000006
   12.91666698  207.28500366    1.05999994    2.69000006
   12.92000008  207.10400391    1.05999994    2.69000006
   12.92583370  207.10400391    1.07000005    2.69000006
   12.93000031  192.45199585    1.05999994    2.69000006
   12.93333340  195.83700562    1.05999994    2.71000004
   12.93638897  177.82499695    1.07000005    2.71000004
   12.93972206  191.75199890    1.07000005    2.71000004
   12.94305515  197.28100586    1.07000005    2.69000006
   12.94611073  194.88999939    1.05999994    2.69000006
   12.94944477  188.30299377    1.05999994    2.69000006
   12.95277786  197.81900024    1.01999998    2.69000006
   12.95583344  203.66400146    1.00000000    2.71000004
   12.95916653  191.27200317    0.98000002    2.71000004
   12.96222210  175.63299561    0.95999998    2.69000006
   12.96333313  170.19500732    0.95999998    2.69000006
   12.98388958  170.19500732    0.94000000    2.71000004
   12.98805618  189.68200684    0.94000000    2.71000004
   12.99138927  195.58099365    0.94000000    2.71000004
   12.99444485  193.87300110    0.92000002    2.71000004
   12.99666691  194.71200562    0.92000002    2.71000004
   12.99833393  179.53500366    0.94000000    2.71000004
   13.00138855  203.33399963    0.94000000    2.71000004
   13.00472260  172.93800354    0.94000000    2.71000004
   13.00805569  183.36399841    0.94000000    2.71000004
   13.01111126  186.46800232    0.94000000    2.73000002
   13.01444435  195.82499695    0.92000002    2.71000004
   13.01749992  171.57499695    0.94000000    2.71000004
   13.02083302  178.22399902    0.94000000    2.71000004
   13.02666664  178.22399902    0.94000000    2.71000004
   13.03083324  170.13499451    0.94000000    2.71000004
   13.03416729  201.43899536    0.95999998    2.71000004
   13.03722286  182.95599365    0.94000000    2.73000002
   13.04055595  201.05400085    0.94000000    2.71000004
   13.04361153  192.91900635    0.94000000    2.71000004
   13.04694462  181.54299927    0.94000000    2.71000004
   13.05027771  191.11399841    0.94000000    2.71000004
   13.05333328  195.81900024    0.94000000    2.71000004
   13.05666733  181.99499512    0.95999998    2.71000004
   13.06000042  183.94700623    0.95999998    2.73000002
   13.06305599  183.41000366    0.95999998    2.73000002
   13.06361103  191.45100403    0.95999998    2.73000002
   13.06944466  191.45100403    0.95999998    2.73000002
   13.07361126  184.34700012    0.98000002    2.71000004
   13.07694435  190.66700745    0.98000002    2.71000004
   13.07999992  175.38499451    1.00000000    2.71000004
   13.08333302  180.55099487    1.00000000    2.71000004
   13.08666611  171.33000183    1.00000000    2.73000002
   13.08972168  179.81900024    0.98000002    2.71000004
   13.09305477  189.05999756    1.00000000    2.71000004
   13.09611034  181.22599792    1.00000000    2.73000002
   13.09694386  178.22399902    1.00000000    2.73000002
   13.10000038  170.95599365    1.00000000    2.73000002
   13.10305595  184.35400391    1.01999998    2.71000004
   13.10638905  197.38099670    1.01999998    2.71000004
   13.11250019  197.38099670    1.00000000    2.71000004
   13.11638927  186.93699646    1.01999998    2.73000002
   13.11972237  169.81100464    1.01999998    2.73000002
   13.12305546  182.49699402    1.01999998    2.73000002
   13.12611103  181.50000000    1.01999998    2.71000004
   13.12944412  178.26899719    1.01999998    2.71000004
   13.13027763  186.64799500    1.01999998    2.71000004
   13.13305569  189.25500488    1.01999998    2.73000002
   13.13611126  189.45599365    1.01999998    2.73000002
   13.13944435  174.92100525    1.01999998    2.73000002
   13.14277744  176.59399414    1.01999998    2.71000004
   13.14583302  186.46299744    1.03999996    2.73000002
   13.14916611  191.44400024    1.03999996    2.73000002
   13.15527725  191.44400024    1.03999996    2.73000002
   13.15944386  207.76600647    1.03999996    2.73000002
   13.16249943  179.55700684    1.03999996    2.73000002
   13.16361046  192.00799561    1.03999996    2.75000000
   13.16638851  176.58399963    1.03999996    2.73000002
   13.16944504  173.82099915    1.03999996    2.75000000
   13.17277813  183.74899292    1.05999994    2.73000002
   13.17611122  186.46600342    1.05999994    2.73000002
   13.17916679  176.30000305    1.05999994    2.73000002
   13.18249989  186.82000732    1.07000005    2.73000002
   13.18583298  186.33299255    1.07000005    2.73000002
   13.18888855  181.04800415    1.07000005    2.73000002
   13.19222260  168.19299316    1.07000005    2.73000002
   13.19805527  168.19299316    1.07000005    2.73000002
   13.20222187  189.04299927    1.07000005    2.73000002
   13.20527744  178.05799866    1.09000003    2.73000002
   13.20861053  167.80900574    1.09000003    2.73000002
   13.21194458  190.66900635    1.09000003    2.73000002
   13.21500015  171.29600525    1.09000003    2.75000000
   13.21833324  180.52400208    1.09000003    2.73000002
   13.22166634  188.29899597    1.09000003    2.73000002
   13.22472191  194.20799255    1.09000003    2.73000002
   13.22805500  187.63299561    1.09000003    2.75000000
   13.23027706  175.20599365    1.09000003    2.73000002
   13.23166656  173.62100220    1.09000003    2.73000002
   13.23500061  169.78500366    1.09000003    2.71000004
   13.24083328  169.78500366    1.09000003    2.73000002
   13.24499989  183.74400330    1.09000003    2.75000000
   13.24833393  181.58500671    1.09000003    2.73000002
   13.25138855  177.62500000    1.11000001    2.75000000
   13.25472260  160.83999634    1.11000001    2.75000000
   13.25805569  190.20700073    1.11000001    2.75000000
   13.26111126  172.74800110    1.11000001    2.75000000
   13.26361084  173.02999878    1.11000001    2.75000000
   13.26472187  180.72399902    1.11000001    2.73000002
   13.26805496  178.95799255    1.11000001    2.73000002
   13.27111053  179.85899353    1.11000001    2.73000002
   13.27444458  172.34899902    1.11000001    2.75000000
   13.27777767  178.47200012    1.11000001    2.75000000
   13.28361130  178.47200012    1.11000001    2.73000002
   13.28777790  180.52999878    1.13000000    2.75000000
   13.29111195  175.58500671    1.13000000    2.75000000
   13.29444504  155.56500244    1.13000000    2.73000002
   13.29694462  178.67300415    1.14999998    2.75000000
   13.29805565  168.20599365    1.14999998    2.75000000
   13.30138874  163.36500549    1.14999998    2.75000000
   13.30444431  159.34100342    1.13000000    2.75000000
   13.30777836  177.19400024    1.13000000    2.73000002
   13.31111145  171.89399719    1.13000000    2.75000000
   13.31416702  166.45599365    1.13000000    2.75000000
   13.31750011  174.21299744    1.14999998    2.75000000
   13.32055569  170.41000366    1.14999998    2.75000000
   13.32666683  170.41000366    1.13000000    2.75000000
   13.33083344  183.54899597    1.11000001    2.75000000
   13.33388901  185.82299805    1.11000001    2.75000000
   13.33722210  170.89900208    1.11000001    2.75000000
   13.34055519  158.54299927    1.11000001    2.75000000
   13.34361076  173.66999817    1.11000001    2.75000000
   13.34694386  169.17100525    1.11000001    2.75000000
   13.35000038  172.49299622    1.11000001    2.75000000
   13.35333347  182.90800476    1.13000000    2.75000000
   13.35666752  174.25500488    1.13000000    2.73000002
   13.35972214  180.65199280    1.13000000    2.75000000
   13.36305618  165.38400269    1.13000000    2.75000000
   13.36361122  158.73100281    1.14999998    2.75000000
   13.36944485  158.73100281    1.13000000    2.75000000
   13.37361145  166.58299255    1.13000000    2.75000000
   13.37666702  148.33200073    1.13000000    2.75000000
   13.38000011  173.13099670    1.14999998    2.75000000
   13.38333321  151.41799927    1.16999996    2.75000000
   13.38638878  162.91600037    1.16999996    2.75000000
   13.38972187  172.91900635    1.16999996    2.75000000
   13.39305496  159.91299438    1.19000006    2.75000000
   13.39611053  167.29100037    1.21000004    2.75000000
   13.39694405  168.29600525    1.19000006    2.75000000
   13.39972210  163.94400024    1.19000006    2.75000000
   13.40305519  160.13999939    1.19000006    2.75000000
   13.40611076  160.82800293    1.19000006    2.75000000
   13.41222191  160.82800293    1.19000006    2.76999998
   13.41638851  167.76899719    1.19000006    2.75000000
   13.41972256  170.59599304    1.16999996    2.75000000
   13.42277813  171.05099487    1.16999996    2.75000000
   13.42611122  164.65600586    1.16999996    2.75000000
   13.42944431  161.45300293    1.16999996    2.75000000
   13.43027782  162.04800415    1.16999996    2.75000000
   13.43305588  159.13099670    1.16999996    2.75000000
   13.43638897  164.42399597    1.16999996    2.75000000
   13.43944454  160.21299744    1.16999996    2.75000000
   13.44305515  151.18899536    1.16999996    2.75000000
   13.44611073  147.36399841    1.16999996    2.75000000
   13.44944477  162.64700317    1.16999996    2.75000000
   13.45499992  162.64700317    1.16999996    2.75000000
   13.45916653  172.15899658    1.14999998    2.75000000
   13.46249962  158.36700439    1.13000000    2.76999998
   13.46361065  159.03399658    1.13000000    2.76999998
   13.46611118  165.36500549    1.14999998    2.75000000
   13.46944427  162.97399902    1.14999998    2.75000000
   13.47249985  155.58200073    1.13000000    2.75000000
   13.47583294  160.59800720    1.14999998    2.75000000
   13.47916603  174.70899963    1.14999998    2.76999998
   13.48222160  160.46200562    1.14999998    2.76999998
   13.48555565  169.45799255    1.16999996    2.75000000
   13.48888874  161.20399475    1.16999996    2.76999998
   13.49194431  155.98500061    1.16999996    2.76999998
   13.49805546  155.98500061    1.14999998    2.75000000
   13.50222206  156.87600708    1.14999998    2.75000000
   13.50527763  160.03100586    1.16999996    2.76999998
   13.50861073  154.72799683    1.16999996    2.76999998
   13.51194477  150.97700500    1.14999998    2.76999998
   13.51500034  152.35400391    1.14999998    2.75000000
   13.51833344  161.27600098    1.14999998    2.76999998
   13.52138901  158.65600586    1.16999996    2.76999998
   13.52472210  170.87100220    1.16999996    2.75000000
   13.52805519  157.90400696    1.16999996    2.75000000
   13.53027725  156.61599731    1.16999996    2.76999998
   13.53166676  160.30200195    1.19000006    2.76999998
   13.53500080  157.07000732    1.19000006    2.76999998
   13.54083347  157.07000732    1.19000006    2.76999998
   13.54500008  159.08599854    1.19000006    2.76999998
   13.54833412  147.02099609    1.19000006    2.76999998
   13.55138874  159.61599731    1.16999996    2.76999998
   13.55472279  159.69999695    1.16999996    2.76999998
   13.55777836  161.35800171    1.14999998    2.76999998
   13.56111145  157.37899780    1.14999998    2.76999998
   13.56361103  158.81900024    1.14999998    2.76999998
   13.56472206  167.28199768    1.14999998    2.76999998
   13.56805515  144.34300232    1.13000000    2.76999998
   13.57111073  155.78399658    1.14999998    2.78999996
   13.57444477  150.15800476    1.13000000    2.76999998
   13.57777786  160.45899963    1.14999998    2.76999998
   13.58361053  160.45899963    1.13000000    2.76999998
   13.58777714  154.11199951    1.13000000    2.78999996
   13.59111118  143.21000671    1.13000000    2.76999998
   13.59416676  145.87100220    1.11000001    2.76999998
   13.59694386  135.55200195    1.11000001    2.76999998
   13.59777737  142.88900757    1.11000001    2.76999998
   13.60111141  151.61500549    1.11000001    2.76999998
   13.60416698  152.44400024    1.11000001    2.76999998
   13.60750008  152.99699402    1.09000003    2.78999996
   13.61083412  155.70799255    1.09000003    2.78999996
   13.61388969  146.14399719    1.09000003    2.78999996
   13.61722279  155.02200317    1.07000005    2.78999996
   13.62055588  146.38000488    1.07000005    2.78999996
   13.62638855  146.38000488    1.09000003    2.78999996
   13.63055611  157.06199646    1.07000005    2.78999996
   13.63388920  137.04699707    1.09000003    2.78999996
   13.63722229  151.34800720    1.07000005    2.78999996
   13.64027786  151.21499634    1.07000005    2.78999996
   13.64361095  147.59700012    1.07000005    2.78999996
   13.64694405  134.90699768    1.07000005    2.78999996
   13.64999962  138.61399841    1.07000005    2.78999996
   13.65333271  147.92199707    1.09000003    2.76999998
   13.65666676  142.00000000    1.09000003    2.78999996
   13.65972137  140.55599976    1.09000003    2.76999998
   13.66305542  152.14799500    1.09000003    2.78999996
   13.66361046  149.27499390    1.09000003    2.76999998
   13.66944504  149.27499390    1.09000003    2.78999996
   13.67333412  157.07299805    1.09000003    2.78999996
   13.67666721  149.82499695    1.09000003    2.78999996
   13.68000031  163.39399719    1.09000003    2.78999996
   13.68305588  147.11399841    1.09000003    2.78999996
   13.68638897  144.88499451    1.09000003    2.78999996
   13.68972206  148.76199341    1.09000003    2.78999996
   13.69277763  142.20300293    1.09000003    2.78999996
   13.69611073  147.14700317    1.09000003    2.78999996
   13.69722271  155.06300354    1.09000003    2.78999996
   13.69972229  152.66600037    1.09000003    2.78999996
   13.70305538  157.21499634    1.09000003    2.78999996
   13.70611095  150.39900208    1.09000003    2.78999996
   13.71222210  150.39900208    1.09000003    2.78999996
   13.71638870  142.67300415    1.09000003    2.78999996
   13.71944427  132.98100281    1.09000003    2.78999996
   13.72277737  144.39100647    1.09000003    2.78999996
   13.72611046  140.78599548    1.07000005    2.80999994
   13.72916603  137.19099426    1.07000005    2.80999994
   13.73055553  137.31799316    1.07000005    2.80999994
   13.73277760  140.41900635    1.07000005    2.78999996
   13.73611164  132.35499573    1.07000005    2.78999996
   13.73944473  138.55900574    1.07000005    2.78999996
   13.74250031  151.25799561    1.07000005    2.78999996
   13.74583340  145.66200256    1.07000005    2.78999996
   13.74916649  142.32600403    1.05999994    2.78999996
   13.75500011  142.32600403    1.07000005    2.78999996
   13.75916672  150.04699707    1.05999994    2.78999996
   13.76249981  147.49000549    1.05999994    2.78999996
   13.76388931  151.13600159    1.05999994    2.78999996
   13.76611137  149.27699280    1.05999994    2.78999996
   13.76944447  149.48599243    1.05999994    2.78999996
   13.77277756  151.86700439    1.05999994    2.78999996
   13.77583313  149.03799438    1.05999994    2.78999996
   13.77916622  132.80900574    1.03999996    2.80999994
   13.78222179  151.18600464    1.03999996    2.78999996
   13.78555584  142.17900085    1.03999996    2.78999996
   13.78888893  155.60699463    1.03999996    2.78999996
   13.79194450  146.83999634    1.03999996    2.78999996
   13.79777813  146.83999634    1.03999996    2.80999994
   13.80194473  153.65899658    1.03999996    2.78999996
   13.80527782  143.01499939    1.03999996    2.78999996
   13.80833340  137.42399597    1.03999996    2.80999994
   13.81166649  151.43400574    1.03999996    2.78999996
   13.81500053  149.95199585    1.05999994    2.80999994
   13.81805515  146.05999756    1.05999994    2.76999998
   13.82138920  142.15499878    1.05999994    2.82999992
   13.82472229  146.22599792    1.05999994    2.78999996
   13.82777786  141.78700256    1.05999994    2.78999996
   13.83055592  138.01800537    1.05999994    2.76999998
   13.83138847  143.78500366    1.05999994    2.78999996
   13.83472157  147.49499512    1.05999994    2.80999994
   13.84083271  147.49499512    1.05999994    2.80999994
   13.84499931  152.07000732    1.05999994    2.80999994
   13.84805489  135.49299622    1.07000005    2.80999994
   13.85138893  134.97900391    1.07000005    2.80999994
   13.85444450  152.80799866    1.09000003    2.80999994
   13.85777855  153.05400085    1.09000003    2.80999994
   13.86111164  152.97000122    1.30999994    2.80999994
   13.86388969  146.60299683    1.25000000    2.80999994
   13.86472225  168.17399597    1.25000000    2.80999994
   13.86805534  154.73699951    1.30999994    2.78999996
   13.87138939  150.33000183    1.30999994    2.78999996
   13.87444496  149.99200439    1.19000006    2.80999994
   13.87777805  145.79200745    1.25000000    2.80999994
   13.88361073  145.79200745    1.16999996    2.80999994
   13.88777733  162.65499878    1.25000000    2.80999994
   13.89083290  147.80599976    1.21000004    2.80999994
   13.89416695  164.19700623    1.21000004    2.80999994
   13.89722252  172.26499939    1.19000006    2.80999994
   13.89777756  162.78300476    1.16999996    2.80999994
   13.90111065  168.69099426    1.16999996    2.80999994
   13.90416622  193.55099487    1.21000004    2.80999994
   13.90749931  177.42900085    1.23000002    2.80999994
   13.91083336  179.32800293    1.16999996    2.80999994
   13.91388893  156.50700378    1.16999996    2.78999996
   13.91722298  176.01800537    1.16999996    2.82999992
   13.92055607  191.41999817    1.14999998    2.80999994
   13.92638874  191.41999817    1.14999998    2.82999992
   13.93055630  172.26300049    1.19000006    2.80999994
   13.93388939  179.14399719    1.14999998    2.80999994
   13.93694496  161.23599243    1.21000004    2.78999996
   13.94027805  176.46400452    1.21000004    2.80999994
   13.94333363  212.74600220    1.14999998    2.80999994
   13.94666672  164.91799927    1.14999998    2.80999994
   13.94999981  165.29400635    1.13000000    2.80999994
   13.95305538  172.72200012    1.11000001    2.80999994
   13.95638847  171.47900391    1.11000001    2.80999994
   13.95972157  193.88499451    1.11000001    2.80999994
   13.96277714  181.16700745    1.11000001    2.84999990
   13.96388912  181.34399414    1.09000003    2.80999994
   13.96916580  181.34399414    1.11000001    2.80999994
   13.97333336  184.93499756    1.07000005    2.80999994
   13.97666645  170.98899841    1.05999994    2.82999992
   13.97972202  171.23300171    1.05999994    2.80999994
   14.00027752  181.78399658    1.03999996    2.80999994
   14.00305557  180.87399292    1.03999996    2.82999992
   14.00638866  167.81900024    1.03999996    2.82999992
   14.01222229  167.81900024    1.03999996    2.80999994
   14.01638889  166.73599243    1.01999998    2.80999994
   14.01972198  166.19999695    1.01999998    2.80999994
   14.02277756  176.62300110    1.01999998    2.82999992
   14.02611065  162.03500366    1.01999998    2.80999994
   14.02944374  166.84399414    1.01999998    2.82999992
   14.03277779  173.51300049    1.01999998    2.82999992
   14.03333378  170.86500549    1.01999998    2.82999992
   14.03638935  163.93899536    1.01999998    2.80999994
   14.03972244  171.87899780    1.01999998    2.82999992
   14.04277802  160.99299622    1.01999998    2.82999992
   14.04611111  156.77600098    1.03999996    2.82999992
   14.04916668  167.95199585    1.01999998    2.80999994
   14.05527782  167.95199585    1.01999998    2.82999992
   14.05916691  164.92300415    1.01999998    2.82999992
   14.06250000  158.78900146    1.01999998    2.82999992
   14.06583309  160.17599487    1.01999998    2.80999994
   14.06694412  161.20899963    1.01999998    2.80999994
   14.06944466  160.58399963    1.03999996    2.82999992
   14.07250023  178.25900269    1.01999998    2.82999992
   14.07583332  162.55499268    1.01999998    2.82999992
   14.07888889  169.52999878    1.01999998    2.82999992
   14.08222198  167.43699646    1.03999996    2.82999992
   14.08555508  164.40800476    1.01999998    2.82999992
   14.08861065  156.88299561    1.03999996    2.82999992
   14.09194374  158.96699524    1.05999994    2.82999992
   14.09805489  158.96699524    1.03999996    2.82999992
   14.10222244  148.09300232    1.03999996    2.82999992
   14.10527802  159.19099426    1.05999994    2.82999992
   14.10861111  149.10899353    1.05999994    2.82999992
   14.11166668  157.85600281    1.05999994    2.82999992
   14.11500072  139.25700378    1.05999994    2.82999992
   14.11833382  155.17700195    1.05999994    2.82999992
   14.12138939  164.04699707    1.05999994    2.80999994
   14.12472248  152.14300537    1.05999994    2.82999992
   14.12805557  147.09500122    1.03999996    2.82999992
   14.13111115  150.17100525    1.05999994    2.80999994
   14.13361073  164.73800659    1.03999996    2.80999994
   14.13500023  134.51600647    1.03999996    2.80999994
   14.14083290  134.51600647    1.03999996    2.82999992
   14.14499950  146.75100708    1.03999996    2.82999992
   14.14833355  149.22500610    1.03999996    2.82999992
   14.15138817  154.53999329    1.03999996    2.82999992
   14.15472221  158.52699280    1.03999996    2.82999992
   14.15777779  141.24899292    1.01999998    2.82999992
   14.16111088  156.45700073    1.01999998    2.84999990
   14.16444397  135.05799866    1.00000000    2.82999992
   14.16694450  145.88900757    1.01999998    2.82999992
   14.16805553  146.62300110    1.00000000    2.82999992
   14.17111111  140.35800171    1.01999998    2.82999992
   14.17444515  141.96200562    1.00000000    2.82999992
   14.17777824  151.97799683    1.00000000    2.82999992
   14.18361092  151.97799683    1.00000000    2.82999992
   14.18777752  141.08399963    1.00000000    2.82999992
   14.19111156  147.47900391    1.00000000    2.84999990
   14.19416714  150.79600525    1.00000000    2.80999994
   14.19750023  154.49400330    1.00000000    2.82999992
   14.20055580  145.37100220    1.00000000    2.82999992
   14.20138836  142.92900085    1.00000000    2.82999992
   14.20444393  138.64399719    0.98000002    2.82999992
   14.20777798  151.09399414    1.00000000    2.82999992
   14.21083355  149.94299316    0.98000002    2.82999992
   14.21416664  133.85099792    0.98000002    2.82999992
   14.21749973  146.83599854    0.98000002    2.82999992
   14.22055531  151.98199463    0.98000002    2.82999992
   14.22638798  151.98199463    0.98000002    2.84999990
   14.23055553  156.68800354    0.98000002    2.82999992
   14.23388958  158.08700562    0.98000002    2.82999992
   14.23444462  156.82600403    0.98000002    2.82999992
   14.23750019  157.07499695    0.95999998    2.82999992
   14.24083328  156.85400391    0.95999998    2.82999992
   14.24388885  145.91099548    0.98000002    2.82999992
   14.24722290  148.22999573    0.95999998    2.82999992
   14.25055599  144.11799622    0.98000002    2.82999992
   14.25361156  155.35699463    0.95999998    2.84999990
   14.25694466  160.10200500    0.95999998    2.82999992
   14.26027775  163.35899353    0.95999998    2.82999992
   14.26333332  150.90600586    0.95999998    2.82999992
   14.26944447  150.90600586    0.95999998    2.82999992
   14.27361107  146.74499512    0.94000000    2.82999992
   14.27666664  157.32400513    0.95999998    2.82999992
   14.27999973  167.58799744    0.95999998    2.82999992
   14.28305531  159.46099854    0.95999998    2.82999992
   14.28638935  147.19900513    0.94000000    2.84999990
   14.28972244  166.13800049    0.95999998    2.84999990
   14.29277802  179.07499695    0.95999998    2.82999992
   14.29611111  188.93499756    0.95999998    2.84999990
   14.29944515  209.97799683    0.95999998    2.82999992
   14.30055618  203.66700745    0.95999998    2.82999992
   14.30305576  197.33000183    0.95999998    2.84999990
   14.30611134  211.19700623    0.98000002    2.84999990
   14.31222248  211.19700623    0.98000002    2.84999990
   14.31638908  283.23800659    1.00000000    2.84999990
   14.31944466  262.43301392    0.98000002    2.82999992
   14.32277775  250.94799805    0.98000002    2.84999990
   14.32611084  242.22900391    0.98000002    2.84999990
   14.32916641  237.28300476    0.98000002    2.82999992
   14.33249950  239.98699951    0.98000002    2.84999990
   14.33388901  246.29100037    0.98000002    2.84999990
   14.33611107  234.33900452    0.98000002    2.84999990
   14.33916664  243.44099426    0.98000002    2.84999990
   14.34249973  232.46600342    0.98000002    2.84999990
   14.34555531  244.36999512    0.98000002    2.82999992
   14.34888840  163.18699646    0.98000002    2.82999992
   14.35500050  163.18699646    0.98000002    2.84999990
   14.35916710  210.40199280    1.00000000    2.84999990
   14.36250019  237.25900269    1.00000000    2.84999990
   14.36555576  233.78300476    0.98000002    2.84999990
   14.36750031  229.88499451    0.98000002    2.84999990
   14.36944485  238.68899536    1.00000000    2.84999990
   14.37250042  232.57000732    1.00000000    2.82999992
   14.37583351  236.44000244    1.00000000    2.84999990
   14.37888908  249.43200684    1.01999998    2.84999990
   14.38222218  211.13299561    1.00000000    2.84999990
   14.38555527  232.85899353    1.01999998    2.84999990
   14.38861084  219.29299927    1.00000000    2.84999990
   14.39194393  196.63699341    1.00000000    2.84999990
   14.39777756  196.63699341    0.98000002    2.84999990
   14.40194416  200.85099792    1.00000000    2.84999990
   14.40527725  222.55400085    1.00000000    2.84999990
   14.40861034  214.41799927    1.00000000    2.82999992
   14.41166592  219.43600464    1.00000000    2.84999990
   14.41499996  205.77299500    1.00000000    2.84999990
   14.41805553  177.79100037    1.00000000    2.84999990
   14.42138958  187.17300415    1.00000000    2.84999990
   14.42472267  197.62899780    0.98000002    2.84999990
   14.42777824  176.50700378    1.00000000    2.84999990
   14.43111134  188.10400391    1.00000000    2.84999990
   14.43416691  170.50199890    0.98000002    2.84999990
   14.43500042  191.23699951    0.98000002    2.84999990
   14.44083309  191.23699951    0.98000002    2.84999990
   14.44499969  168.57000732    0.98000002    2.84999990
   14.44805527  158.25799561    0.95999998    2.84999990
   14.45138836  212.39199829    0.95999998    2.84999990
   14.45444393  192.14199829    0.95999998    2.84999990
   14.45777798  182.78599548    0.95999998    2.84999990
   14.46111107  160.67599487    0.94000000    2.84999990
   14.46416664  171.23899841    0.95999998    2.84999990
   14.46749973  181.05799866    0.95999998    2.86999989
   14.46805477  189.04899597    0.95999998    2.86999989
   14.47111034  168.64700317    0.94000000    2.84999990
   14.47444439  177.83900452    0.95999998    2.84999990
   14.47749996  177.34399414    0.95999998    2.84999990
   14.48361111  177.34399414    0.92000002    2.84999990
   14.48777771  170.74499512    0.94000000    2.82999992
   14.49083328  148.98199463    0.94000000    2.84999990
   14.49416733  161.93200684    0.94000000    2.82999992
   14.49750042  162.72500610    0.95999998    2.84999990
   14.50055599  175.37100220    0.95999998    2.84999990
   14.50111103  169.02200317    0.95999998    2.84999990
   14.50444412  165.04299927    0.95999998    2.84999990
   14.50749969  159.91299438    0.95999998    2.84999990
   14.51083374  172.69700623    0.95999998    2.84999990
   14.51416683  166.98800659    0.95999998    2.84999990
   14.51722240  140.07000732    0.95999998    2.84999990
   14.52055550  166.83399963    0.94000000    2.84999990
   14.52638817  166.83399963    0.94000000    2.84999990
   14.53055573  166.25199890    0.94000000    2.84999990
   14.53388977  169.55000305    0.92000002    2.84999990
   14.53444481  165.72399902    0.92000002    2.84999990
   14.53750038  179.64199829    0.92000002    2.86999989
   14.54055595  169.84399414    0.92000002    2.84999990
   14.54388905  164.24899292    0.92000002    2.84999990
   14.54722309  157.61000061    0.92000002    2.86999989
   14.55027771  151.87899780    0.92000002    2.84999990
   14.55361176  152.05299377    0.92000002    2.86999989
   14.55694485  159.89500427    0.92000002    2.86999989
   14.56000042  158.83500671    0.92000002    2.84999990
   14.56333351  167.91700745    0.92000002    2.84999990
   14.56916618  167.91700745    0.92000002    2.84999990
   14.57333374  145.76600647    0.92000002    2.84999990
   14.57666683  163.90299988    0.89999998    2.86999989
   14.57972240  148.16999817    0.89999998    2.84999990
   14.58305550  161.03900146    0.89999998    2.84999990
   14.58638859  147.68499756    0.89999998    2.86999989
   14.58944416  151.03599548    0.88000000    2.86999989
   14.59277725  161.85400391    0.88000000    2.84999990
   14.59611034  157.13400269    0.88000000    2.86999989
   14.59916592  142.68400574    0.86000001    2.86999989
   14.60111141  161.76800537    0.86000001    2.84999990
   14.60305595  144.98800659    0.86000001    2.86999989
   14.60638905  158.80599976    0.86000001    2.86999989
   14.61222267  158.80599976    0.88000000    2.86999989
   14.61611176  160.89100647    0.88000000    2.86999989
   14.61944485  151.29100037    0.86000001    2.84999990
   14.62277794  133.99299622    0.86000001    2.86999989
   14.62583351  144.23399353    0.86000001    2.84999990
   14.62916660  152.15299988    0.86000001    2.86999989
   14.63249969  157.69200134    0.88000000    2.84999990
   14.63444424  137.19599915    0.86000001    2.86999989
   14.63611126  161.08399963    0.88000000    2.86999989
   14.63944435  143.13600159    0.86000001    2.86999989
   14.64249992  144.90699768    0.86000001    2.86999989
   14.64583302  154.11099243    0.86000001    2.86999989
   14.64916611  156.40299988    0.86000001    2.89000010
   14.65499973  156.40299988    0.86000001    2.86999989
   14.65916634  144.62100220    0.86000001    2.86999989
   14.66222191  146.47099304    0.86000001    2.86999989
   14.66555500  144.27400208    0.83999997    2.89000010
   14.66777802  152.01199341    0.86000001    2.86999989
   14.66916656  145.16200256    0.86000001    2.86999989
   14.67250061  141.01800537    0.86000001    2.86999989
   14.67555618  158.11999512    0.86000001    2.86999989
   14.67888927  157.44200134    0.86000001    2.86999989
   14.68222237  146.12899780    0.88000000    2.86999989
   14.68527794  155.92300415    0.92000002    2.86999989
   14.68861103  156.52799988    0.86000001    2.86999989
   14.69166660  154.54800415    0.86000001    2.86999989
   14.69777775  154.54800415    0.86000001    2.84999990
   14.70194435  144.99699402    0.86000001    2.84999990
   14.70527744  148.32200623    0.86000001    2.86999989
   14.70833302  140.05400085    0.86000001    2.86999989
   14.71166611  155.96800232    0.83999997    2.86999989
   14.71472168  169.14900208    0.83999997    2.86999989
   14.71805477  140.36099243    0.83999997    2.86999989
   14.72138882  162.01400757    0.83999997    2.86999989
   14.72444439  163.13400269    0.83999997    2.86999989
   14.72777748  153.48300171    0.81999999    2.86999989
   14.73111057  153.03300476    0.83999997    2.86999989
   14.73416710  148.46000671    0.83999997    2.86999989
   14.73472214  138.90100098    0.83999997    2.86999989
   14.74055576  138.90100098    0.81999999    2.86999989
   14.74472237  148.79400635    0.81999999    2.86999989
   14.74805546  148.94000244    0.81999999    2.86999989
   14.75111103  155.44200134    0.81999999    2.84999990
   14.75444412  156.61000061    0.81999999    2.84999990
   14.75777817  145.29899597    0.81999999    2.84999990
   14.76111126  159.34500122    0.83999997    2.86999989
   14.76416683  143.19299316    0.81999999    2.86999989
   14.76749992  160.53399658    0.83999997    2.86999989
   14.76805496  151.66999817    0.83999997    2.86999989
   14.77111053  157.73599243    0.83999997    2.86999989
   14.77416611  155.05400085    0.81999999    2.89000010
   14.77750015  158.67100525    0.81999999    2.86999989
   14.78361130  158.67100525    0.81999999    2.86999989
   14.78750038  140.74699402    0.83999997    2.86999989
   14.79083347  163.18499756    0.83999997    2.86999989
   14.79416752  155.75100708    0.81999999    2.86999989
   14.79722309  149.88999939    0.83999997    2.86999989
   14.80055618  157.56300354    0.81999999    2.86999989
   14.80138874  151.10600281    0.81999999    2.86999989
   14.80416679  148.94900513    0.80000001    2.86999989
   14.80749989  143.70399475    0.81999999    2.86999989
   14.81055546  146.11799622    0.80000001    2.86999989
   14.81388950  133.76199341    0.80000001    2.86999989
   14.81694412  144.20799255    0.80000001    2.86999989
   14.82027817  149.35200500    0.80000001    2.86999989
   14.82638836  149.35200500    0.79000002    2.89000010
   14.83055592  154.97999573    0.79000002    2.86999989
   14.83361053  150.34100342    0.79000002    2.84999990
   14.83472157  151.73599243    0.79000002    2.84999990
   14.83749962  145.16799927    0.79000002    2.86999989
   14.84083271  152.97900391    0.79000002    2.86999989
   14.84388828  146.06599426    0.79000002    2.89000010
   14.84722233  147.60800171    0.76999998    2.89000010
   14.85027790  152.48300171    0.76999998    2.86999989
   14.85361195  150.27699280    0.76999998    2.86999989
   14.85694504  154.71699524    0.75000000    2.86999989
   14.86000061  153.65299988    0.76999998    2.86999989
   14.86333370  131.09800720    0.75000000    2.86999989
   14.86916637  131.09800720    0.76999998    2.86999989
   14.87333393  154.53900146    0.76999998    2.86999989
   14.87666702  146.23300171    0.76999998    2.86999989
   14.87972260  149.21200562    0.79000002    2.86999989
   14.88305569  151.92799377    0.79000002    2.86999989
   14.88611126  156.40100098    0.76999998    2.86999989
   14.88944435  153.83500671    0.76999998    2.86999989
   14.89277744  159.98899841    0.75000000    2.86999989
   14.89583302  156.63200378    0.75000000    2.86999989
   14.89916611  161.51499939    0.75000000    2.86999989
   14.90138817  151.05200195    0.75000000    2.86999989
   14.90277767  145.35699463    0.75000000    2.86999989
   14.90611076  142.49899292    0.73000002    2.89000010
   14.91194439  142.49899292    0.70999998    2.86999989
   14.91611099  133.03100586    0.70999998    2.86999989
   14.91944504  166.49000549    0.70999998    2.89000010
   14.92277813  137.51699829    0.73000002    2.89000010
   14.92583370  139.19400024    0.70999998    2.89000010
   14.92916679  151.65600586    0.73000002    2.86999989
   14.93222237  156.14399719    0.73000002    2.86999989
   14.93472195  141.90899658    0.73000002    2.86999989
   14.93611145  146.25399780    0.75000000    2.86999989
   14.93944454  146.88299561    0.73000002    2.86999989
   14.94250011  146.61399841    0.75000000    2.86999989
   14.94583321  144.53900146    0.75000000    2.86999989
   14.94888878  149.70300293    0.75000000    2.89000010
   15.05166721   -1.00000000   -1.00000000   -1.00000000
   15.16499996   -1.00000000   -1.00000000   -1.00000000
   15.29805565   -1.00000000   -1.00000000   -1.00000000
   15.39527798   -1.00000000   -1.00000000   -1.00000000
   15.49027824   -1.00000000   -1.00000000   -1.00000000
   15.59138870   -1.00000000   -1.00000000   -1.00000000
   15.68000031   -1.00000000   -1.00000000   -1.00000000
   15.70833302  139.44799805    0.79000002    2.91000009
   15.71249962  134.88400269    0.81999999    2.91000009
   15.71583271  135.44500732    1.05999994    2.89000010
   15.71888828  142.59800720    1.05999994    2.86999989
   15.72222137  133.86700439    0.76999998    2.89000010
   15.72861099  133.86700439    0.73000002    2.91000009
   15.73277760  143.77200317    0.75000000    2.91000009
   15.73611164  148.49000549    0.73000002    2.91000009
   15.73916721  176.54600525    0.70999998    2.91000009
   15.74166679  147.55900574    0.69000000    2.91000009
   15.74305534  158.58900452    0.70999998    2.91000009
   15.74611092  183.70899963    0.69000000    2.91000009
   15.74944496  146.62899780    0.67000002    2.91000009
   15.75277805  171.26899719    0.64999998    2.91000009
   15.75583363  160.95500183    0.64999998    2.91000009
   15.75916672  172.60299683    0.67000002    2.89000010
   15.76249981  154.49800110    0.67000002    2.91000009
   15.76555538  177.41900635    0.67000002    2.91000009
   15.77138901  177.41900635    0.67000002    2.91000009
   15.77555561  162.19700623    0.69000000    2.91000009
   15.77888870  144.23599243    0.67000002    2.91000009
   15.78194427  155.36900330    0.69000000    2.93000007
   15.78527832  149.64799500    0.70999998    2.91000009
   15.78861141  155.87899780    0.70999998    2.91000009
   15.79166698  155.97500610    0.70999998    2.91000009
   15.79500008  157.96000671    0.70999998    2.89000010
   15.79833412  133.42500305    0.70999998    2.89000010
   15.80138874  148.77900696    0.70999998    2.89000010
   15.80472279  158.77900696    0.70999998    2.89000010
   15.80805588  141.88999939    0.70999998    2.91000009
   15.80833340  144.92700195    0.70999998    2.91000009
   15.81444454  144.92700195    0.76999998    2.91000009
   15.81833363  152.94500732    0.83999997    2.91000009
   15.82166672  171.01600647    0.83999997    2.89000010
   15.82499981  160.79400635    0.81999999    2.89000010
   15.82805538  134.24200439    0.81999999    2.89000010
   15.83138847  149.66799927    0.81999999    2.89000010
   15.83472157  141.64799500    0.81999999    2.89000010
   15.83777714  154.22399902    0.81999999    2.91000009
   15.84111118  132.18699646    0.81999999    2.89000010
   15.84194374  148.31300354    0.81999999    2.89000010
   15.84472179  147.99200439    0.81999999    2.89000010
   15.84805489  150.63900757    0.81999999    2.91000009
   15.85111141  142.21400452    0.81999999    2.91000009
   15.85722256  142.21400452    0.83999997    2.91000009
   15.86138916  173.70599365    0.81999999    2.91000009
   15.86444473  149.26400757    0.80000001    2.91000009
   15.86777782  139.81300354    0.81999999    2.89000010
   15.87111092  137.27799988    0.83999997    2.89000010
   15.87444496  133.35200500    0.86000001    2.89000010
   15.87527752  149.60299683    0.86000001    2.89000010
   15.87777805  143.13499451    0.86000001    2.89000010
   15.88111115  146.31799316    0.83999997    2.89000010
   15.88416672  139.77200317    0.83999997    2.89000010
   15.88749981  141.66600037    0.83999997    2.89000010
   15.89083290  152.73300171    0.81999999    2.89000010
   15.89388847  140.43299866    0.80000001    2.91000009
   15.89999962  140.43299866    0.80000001    2.91000009
   15.90416622  137.55700684    0.79000002    2.91000009
   15.90749931  145.21699524    0.76999998    2.91000009
   15.90861034  146.39900208    0.79000002    2.89000010
   15.91083336  142.76100159    0.76999998    2.91000009
   15.91416645  129.68800354    0.76999998    2.91000009
   15.91722298  131.57000732    0.79000002    2.91000009
   15.92055607  145.35699463    0.76999998    2.91000009
   15.92388916  141.41000366    0.75000000    2.91000009
   15.92694473  139.40600586    0.76999998    2.91000009
   15.93027782  140.73899841    0.76999998    2.91000009
   15.93361092  155.01100159    0.83999997    2.89000010
   15.93666649  134.09199524    0.81999999    2.89000010
   15.94277763  134.09199524    0.83999997    2.89000010
   15.94694424  136.29800415    0.86000001    2.89000010
   15.95027733  134.89300537    0.88000000    2.89000010
   15.95361137  139.41000366    0.88000000    2.91000009
   15.95666695  139.29800415    0.88000000    2.91000009
   15.96000004  135.33999634    0.88000000    2.91000009
   15.96305561  132.09700012    0.88000000    2.91000009
   15.96638870  136.13299561    0.86000001    2.91000009
   15.96972179  138.32499695    0.86000001    2.91000009
   15.97277737  136.89199829    0.86000001    2.89000010
   15.97527695  139.51800537    0.86000001    2.89000010
   15.97638798  135.01100159    0.86000001    2.89000010
   15.97972202  137.86900330    0.83999997    2.89000010
   15.98583317  137.86900330    0.83999997    2.89000010
   15.99000072  134.73800659    0.81999999    2.91000009
   15.99305534  135.09300232    0.81999999    2.89000010
   15.99638939  136.39799500    0.81999999    2.89000010
   15.99944496  135.26300049    0.81999999    2.89000010
   16.00277710  143.60400391    0.81999999    2.89000010
   16.00611115  140.53700256    0.80000001    2.91000009
   16.00861168  137.61300659    0.80000001    2.89000010
   16.00972176  137.87300110    0.80000001    2.91000009
   16.01305580  129.35299683    0.80000001    2.91000009
   16.01638794  131.65499878    0.79000002    2.91000009
   16.01944351  141.39799500    0.79000002    2.91000009
   16.02277756  135.97599792    0.79000002    2.91000009
   16.02861023  135.97599792    0.79000002    2.91000009
   16.03277779  139.87899780    0.79000002    2.91000009
   16.03583336  137.56500244    0.79000002    2.93000007
   16.03916550  143.13999939    0.80000001    2.91000009
   16.04194450  135.13200378    0.80000001    2.91000009
   16.04277802  128.72200012    0.80000001    2.91000009
   16.04611015  137.27499390    0.80000001    2.89000010
   16.04944420  123.18599701    0.80000001    2.91000009
   16.05249977  139.33299255    0.81999999    2.91000009
   16.05583191  137.82699585    0.80000001    2.91000009
   16.05888748  150.53900146    0.80000001    2.91000009
   16.06222153  145.54499817    0.81999999    2.91000009
   16.06555557  149.92500305    0.80000001    2.91000009
   16.07139015  149.92500305    0.81999999    2.91000009
   16.07555580  138.07099915    0.81999999    2.91000009
   16.07888985  138.28399658    0.81999999    2.91000009
   16.08194542  136.33099365    0.81999999    2.89000010
   16.08527756  128.80299377    0.81999999    2.89000010
   16.08861160  138.73300171    0.81999999    2.91000009
   16.09166718  135.24600220    0.81999999    2.89000010
   16.09500122  121.14800262    0.81999999    2.89000010
   16.09805679  132.28399658    0.81999999    2.91000009
   16.10138893  134.84500122    0.83999997    2.91000009
   16.10472298  133.94599915    0.83999997    2.89000010
   16.10805511  130.48699951    0.81999999    2.91000009
   16.10861206  143.92900085    0.81999999    2.91000009
   16.11416626  143.92900085    0.81999999    2.91000009
   16.11833382  140.96899414    0.81999999    2.91000009
   16.12166595  130.53300476    0.81999999    2.91000009
   16.12500000  137.39500427    0.80000001    2.91000009
   16.12805557  135.55400085    0.81999999    2.91000009
   16.13138962  133.43400574    0.81999999    2.91000009
   16.13444519  135.07400513    0.83999997    2.91000009
   16.13777733  136.38900757    0.83999997    2.91000009
   16.14111137  141.42300415    0.83999997    2.91000009
   16.14194489  142.28900146    0.83999997    2.89000010
   16.14472198  152.46000671    0.83999997    2.91000009
   16.14777756  141.11900330    0.83999997    2.91000009
   16.15111160  128.92900085    0.81999999    2.91000009
   16.15722275  128.92900085    0.83999997    2.91000009
   16.16138840  134.67599487    0.83999997    2.89000010
   16.16444397  129.84300232    0.83999997    2.91000009
   16.16777802  141.72700500    0.83999997    2.91000009
   16.17083359  141.00000000    0.83999997    2.91000009
   16.17416573  141.01699829    0.83999997    2.91000009
   16.17527771  141.20399475    0.86000001    2.91000009
   16.17805481  137.82699585    0.86000001    2.91000009
   16.18111038  152.53700256    0.88000000    2.91000009
   16.18444443  139.57899475    0.92000002    2.89000010
   16.18750000  125.83100128    0.92000002    2.91000009
   16.19083214  128.31700134    0.92000002    2.91000009
   16.19416618  127.63099670    0.92000002    2.91000009
   16.20000076  127.63099670    0.92000002    2.91000009
   16.20416832  130.09500122    0.89999998    2.91000009
   16.20722389  125.22499847    0.89999998    2.91000009
   16.20861244  131.45500183    0.89999998    2.91000009
   16.21111107  135.26499939    0.89999998    2.91000009
   16.21416664  128.47399902    0.89999998    2.91000009
   16.21750069  138.16000366    0.89999998    2.91000009
   16.22055626  130.42100525    0.92000002    2.89000010
   16.22389030  138.70300293    0.94000000    2.89000010
   16.22722244  139.44299316    0.94000000    2.91000009
   16.23027802  139.88800049    0.95999998    2.89000010
   16.23361206  140.70599365    0.95999998    2.89000010
   16.23694420  132.37199402    0.95999998    2.91000009
   16.24277878  132.37199402    0.95999998    2.91000009
   16.24694443  151.70700073    0.98000002    2.91000009
   16.25027847  130.31399536    0.98000002    2.91000009
   16.25333405  149.41700745    0.98000002    2.89000010
   16.25666618  158.56900024    0.98000002    2.89000010
   16.25972176  135.68299866    0.98000002    2.89000010
   16.26305580  154.17300415    1.00000000    2.89000010
   16.26638794  155.85400391    0.98000002    2.89000010
   16.26944351  156.03300476    0.98000002    2.89000010
   16.27277756  146.94700623    0.98000002    2.91000009
   16.27527809  143.65400696    0.98000002    2.89000010
   16.27638817  162.08799744    0.98000002    2.89000010
   16.27944374  151.34399414    0.95999998    2.91000009
   16.28555489  151.34399414    0.95999998    2.89000010
   16.28972244  148.67999268    0.95999998    2.89000010
   16.29305458  142.93299866    0.95999998    2.89000010
   16.29611015  139.12399292    0.98000002    2.91000009
   16.29944420  128.26899719    1.01999998    2.89000010
   16.30277634  140.54499817    1.00000000    2.89000010
   16.30583191  152.23500061    0.98000002    2.91000009
   16.30861092  146.02699280    0.95999998    2.91000009
   16.30972099  145.04200745    0.94000000    2.91000009
   16.31277657  146.52900696    0.94000000    2.89000010
   16.31611061  141.94000244    0.94000000    2.91000009
   16.31944466  131.36799622    0.94000000    2.91000009
   16.32250023  132.50999451    0.94000000    2.91000009
   16.32861137  132.50999451    0.95999998    2.91000009
   16.33250046  131.04600525    0.94000000    2.89000010
   16.33583450  136.50599670    0.94000000    2.91000009
   16.33916664  152.85000610    0.92000002    2.89000010
   16.34194565  156.39700317    0.92000002    2.91000009
   16.34277916  143.75500488    0.92000002    2.91000009
   16.34583473  142.61300659    0.92000002    2.91000009
   16.34916687  154.65400696    0.92000002    2.91000009
   16.35250092  154.64500427    0.89999998    2.91000009
   16.35555649  158.51699829    0.94000000    2.91000009
   16.35888863  141.93400574    0.89999998    2.91000009
   16.36194420  129.76300049    0.89999998    2.91000009
   16.36527824  163.61399841    0.88000000    2.91000009
   16.37138939  163.61399841    0.83999997    2.91000009
   16.37555504  150.55799866    0.81999999    2.91000009
   16.37861061  144.64399719    0.81999999    2.91000009
   16.38194466  154.60400391    0.83999997    2.91000009
   16.38527679  140.85000610    0.83999997    2.93000007
   16.38833237  168.99200439    0.83999997    2.93000007
   16.39166641  162.83000183    0.83999997    2.91000009
   16.39500046  154.10400391    0.83999997    2.91000009
   16.39805603  170.25799561    0.83999997    2.91000009
   16.40138817  169.93299866    0.83999997    2.91000009
   16.40472221  150.72399902    0.83999997    2.91000009
   16.40777779  142.44799805    0.86000001    2.91000009
   16.40861130  171.36500549    0.83999997    2.89000010
   16.41416550  171.36500549    0.86000001    2.91000009
   16.41833305  160.46000671    0.86000001    2.91000009
   16.42166519  137.95799255    0.86000001    2.91000009
   16.42472076  166.68499756    0.86000001    2.91000009
   16.42805481  176.10000610    0.94000000    2.91000009
   16.43138885  179.37500000    0.95999998    2.91000009
   16.43444443  192.28500366    1.03999996    2.89000010
   16.43777657  187.79800415    1.01999998    2.91000009
   16.44111061  175.00199890    1.03999996    2.89000010
   16.44194412  180.05499268    1.03999996    2.89000010
   16.44472122  174.93400574    1.01999998    2.89000010
   16.44777679  183.90499878    1.01999998    2.91000009
   16.45111275  174.31700134    1.01999998    2.89000010
   16.45694542  174.31700134    1.01999998    2.89000010
   16.46111107  178.34599304    0.98000002    2.91000009
   16.46444511  169.83299255    0.98000002    2.91000009
   16.46777916  191.52900696    0.98000002    2.89000010
   16.47083473  194.52099609    0.95999998    2.89000010
   16.47416687  206.96400452    0.95999998    2.89000010
   16.47527885  196.34100342    0.95999998    2.91000009
   16.47805595  208.30700684    0.95999998    2.91000009
   16.48111153  209.98899841    0.98000002    2.89000010
   16.48444557  175.21499634    0.98000002    2.89000010
   16.48777771  219.45599365    0.98000002    2.91000009
   16.49083328  184.40299988    0.95999998    2.89000010
   16.49416733  203.44599915    0.98000002    2.91000009
   16.50000000  203.44599915    1.00000000    2.91000009
   16.50388908  201.61399841    1.00000000    2.91000009
   16.50722313  201.17599487    0.98000002    2.89000010
   16.50861168  200.16200256    0.95999998    2.91000009
   16.51083374  177.33599854    0.98000002    2.91000009
   16.51388931  197.67300415    0.98000002    2.91000009
   16.51722145  193.78300476    0.95999998    2.91000009
   16.52055550  211.33700562    0.94000000    2.89000010
   16.52361107  199.68400574    0.98000002    2.89000010
   16.52694511  219.04899597    0.98000002    2.91000009
   16.53027725  191.97300720    0.98000002    2.91000009
   16.53333282  214.33999634    0.98000002    2.89000010
   16.53666687  212.15800476    1.00000000    2.91000009
   16.54277802  212.15800476    0.98000002    2.89000010
   16.54694366  177.44200134    1.01999998    2.89000010
   16.55027771  199.03500366    1.01999998    2.89000010
   16.55360985  205.52600098    1.00000000    2.91000009
   16.55666542  209.12500000    1.01999998    2.91000009
   16.55999947  203.86199951    0.98000002    2.89000010
   16.56333351  190.39700317    0.98000002    2.91000009
   16.56666756  189.92700195    1.00000000    2.91000009
   16.57000160  181.36300659    0.98000002    2.91000009
   16.57305717  196.89700317    0.98000002    2.89000010
   16.57527924  192.16000366    1.00000000    2.91000009
   16.57694626  221.11999512    1.00000000    2.91000009
   16.58000183  186.06799316    1.00000000    2.91000009
   16.58555603  186.06799316    1.01999998    2.91000009
   16.58972359  203.55700684    1.01999998    2.91000009
   16.59305573  178.59100342    1.01999998    2.91000009
   16.59611130  197.29699707    1.00000000    2.91000009
   16.59944534  198.49299622    1.01999998    2.91000009
   16.60250092  199.37199402    1.00000000    2.91000009
   16.60583305  211.97000122    1.01999998    2.89000010
   16.60861206  201.33099365    1.01999998    2.91000009
   16.60944557  189.36099243    1.01999998    2.91000009
   16.61250114  209.03100586    1.03999996    2.89000010
   16.61583328  197.00500488    1.05999994    2.91000009
   16.61916733  183.30200195    1.07000005    2.91000009
   16.62222290  181.70599365    1.09000003    2.91000009
   16.62833405  181.70599365    1.09000003    2.89000010
   16.63249969  186.94400024    1.09000003    2.91000009
   16.63583374  201.93600464    1.07000005    2.91000009
   16.63916588  178.43699646    1.07000005    2.91000009
   16.64194489  193.58000183    1.09000003    2.91000009
   16.64277840  192.28500366    1.09000003    2.91000009
   16.64583397  185.76499939    1.07000005    2.91000009
   16.64916611  186.66400146    1.09000003    2.89000010
   16.65250015  196.29200745    1.09000003    2.91000009
   16.65555573  181.10499573    1.11000001    2.89000010
   16.65888786  180.69099426    1.14999998    2.89000010
   16.66222191  180.99400330    1.14999998    2.89000010
   16.66527748  176.30299377    1.14999998    2.89000010
   16.67138863  176.30299377    1.11000001    2.89000010
   16.67527771  180.25500488    1.07000005    2.91000009
   16.67860985  158.79299927    1.05999994    2.89000010
   16.68194389  162.08500671    1.07000005    2.91000009
   16.68499947  168.74499512    1.07000005    2.91000009
   16.68833160  176.91900635    1.07000005    2.89000010
   16.69166565  179.94099426    1.07000005    2.89000010
   16.69472122  182.10600281    1.03999996    2.91000009
   16.69805527  175.36900330    1.01999998    2.91000009
   16.70138931  175.56799316    1.01999998    2.91000009
   16.70444489  172.75300598    1.01999998    2.91000009
   16.70777893  173.76600647    1.01999998    2.89000010
   16.70861244  171.61500549    1.01999998    2.89000010
   16.72944450  171.61500549    0.98000002    2.91000009
   16.73361206  159.35400391    0.98000002    2.91000009
   16.73666763  168.62100220    1.00000000    2.91000009
   16.73999977  156.51499939    1.00000000    2.91000009
   16.74194527  152.04299927    1.00000000    2.91000009
   16.74361229  158.08099365    1.01999998    2.91000009
   16.74666786  142.88299561    1.03999996    2.89000010
   16.75000000  159.79299927    1.05999994    2.91000009
   16.75333405  141.20500183    1.07000005    2.89000010
   16.75638962  150.61799622    1.07000005    2.89000010
   16.75972176  155.09100342    1.05999994    2.91000009
   16.76305580  161.12100220    1.05999994    2.89000010
   16.76611137  155.45399475    1.05999994    2.89000010
   16.77222252  155.45399475    1.01999998    2.89000010
   16.77638817  157.37600708    1.00000000    2.91000009
   16.77944374  170.85899353    1.00000000    2.89000010
   16.78277779  162.02499390    0.98000002    2.91000009
   16.78610992  160.58500671    1.00000000    2.91000009
   16.78916550  144.82000732    1.01999998    2.91000009
   16.79249954  153.75799561    1.16999996    2.89000010
   16.79555511  161.73300171    1.14999998    2.91000009
   16.79888916  150.99699402    1.11000001    2.91000009
   16.80222130  158.21299744    1.11000001    2.89000010
   16.80527687  151.19299316    1.11000001    2.91000009
   16.80861092  166.07499695    1.00000000    2.91000009
   16.80916595  152.48699951    1.00000000    2.91000009
   16.81499863  152.48699951    1.00000000    2.91000009
   16.81916809  153.21499634    1.00000000    2.91000009
   16.82250023  156.83500671    0.95999998    2.91000009
   16.82555580  152.56199646    0.95999998    2.91000009
   16.82888985  143.48500061    0.94000000    2.91000009
   16.83194542  144.00000000    0.94000000    2.91000009
   16.83527756  150.87100220    0.89999998    2.89000010
   16.83861160  159.01800537    0.89999998    2.91000009
   16.84166718  147.96899414    0.88000000    2.91000009
   16.84250069  158.56199646    0.88000000    2.91000009
   16.84555626  160.39500427    0.88000000    2.91000009
   16.84861183  158.60400391    0.83999997    2.91000009
   16.85194397  137.94799805    0.81999999    2.91000009
   16.85777855  137.94799805    0.81999999    2.93000007
   16.86194420  146.85899353    0.80000001    2.93000007
   16.86527824  144.29600525    0.80000001    2.91000009
   16.86833382  150.39100647    0.81999999    2.91000009
   16.87166595  148.58299255    0.86000001    2.91000009
   16.87500000  150.43899536    0.86000001    2.91000009
   16.87583351  144.30599976    0.89999998    2.91000009
   16.87861061  147.59199524    0.89999998    2.91000009
   16.88166618  146.16499329    0.89999998    2.91000009
   16.88500023  145.99499512    0.89999998    2.91000009
   16.88833237  158.03700256    0.89999998    2.91000009
   16.89138794  151.65499878    0.89999998    2.94000006
   16.89472198  145.75000000    0.89999998    2.91000009
   16.90055466  145.75000000    0.89999998    2.91000009
   16.90472221  153.78999329    0.89999998    2.91000009
   16.90805435  154.47000122    0.89999998    2.91000009
   16.90916634  148.99099731    0.89999998    2.91000009
   16.91166687  162.94999695    0.88000000    2.91000009
   16.91472244  154.78799438    0.88000000    2.91000009
   16.91805458  147.63400269    0.86000001    2.91000009
   16.92111015  144.49400330    0.83999997    2.91000009
   16.92444420  152.12500000    0.83999997    2.91000009
   16.92777634  144.31300354    0.86000001    2.91000009
   16.93083191  157.41099548    0.88000000    2.91000009
   16.93416595  155.07899475    0.89999998    2.91000009
   16.93750000  147.23699951    0.89999998    2.91000009
   16.94361115  147.23699951    0.88000000    2.91000009
   16.94777679  161.96600342    0.88000000    2.91000009
   16.95083427  146.99499512    0.89999998    2.91000009
   16.95416832  152.29400635    0.88000000    2.91000009
   16.95750046  143.90899658    0.86000001    2.91000009
   16.96055603  135.43800354    0.81999999    2.91000009
   16.96389008  139.92999268    0.81999999    2.91000009
   16.96694565  141.94000244    0.79000002    2.91000009
   16.97027779  135.75599670    0.80000001    2.93000007
   16.97361183  136.70500183    0.81999999    2.91000009
   16.97583389  137.97099304    0.81999999    2.91000009
   16.97722244  136.63800049    0.81999999    2.91000009
   16.98027802  158.55900574    0.81999999    2.91000009
   16.98638916  158.55900574    0.80000001    2.91000009
   16.99055672  147.74000549    0.79000002    2.93000007
   16.99388885  140.30900574    0.79000002    2.93000007
   16.99694443  138.94799805    0.76999998    2.93000007
   17.00027847  150.89799500    0.75000000    2.91000009
   17.00333405  147.31500244    0.75000000    2.93000007
   17.00666618  137.32299805    0.75000000    2.91000009
   17.00916672  139.16700745    0.75000000    2.93000007
   17.01055527  140.01300049    0.75000000    2.93000007
   17.01361084  145.28399658    0.75000000    2.93000007
   17.01694489  146.12199402    0.75000000    2.91000009
   17.02000046  161.28300476    0.79000002    2.91000009
   17.02333260  150.95799255    0.80000001    2.91000009
   17.02916718  150.95799255    0.81999999    2.91000009
   17.03333282  147.75000000    0.83999997    2.91000009
   17.03666687  146.63099670    0.83999997    2.91000009
   17.03972244  141.64500427    0.83999997    2.91000009
   17.04249954  149.82800293    0.83999997    2.91000009
   17.04361153  146.25000000    0.86000001    2.91000009
   17.04666710  142.37100220    0.83999997    2.91000009
   17.04999924  141.67500305    0.83999997    2.91000009
   17.05333328  149.42199707    0.83999997    2.91000009
   17.05638885  157.36199951    0.83999997    2.91000009
   17.05972099  155.64799500    0.86000001    2.91000009
   17.06305504  156.02699280    0.83999997    2.91000009
   17.06611061  154.01100159    0.83999997    2.91000009
   17.07194519  154.01100159    0.81999999    2.91000009
   17.07611275  147.91299438    0.81999999    2.91000009
   17.07944489  162.57099915    0.81999999    2.91000009
   17.08277893  147.27299500    0.89999998    2.91000009
   17.08583450  161.02699280    0.89999998    2.91000009
   17.08916664  149.96699524    0.89999998    2.91000009
   17.09250069  153.35400391    0.89999998    2.91000009
   17.09555626  152.39300537    0.95999998    2.91000009
   17.09889030  168.27600098    0.95999998    2.91000009
   17.10194397  160.68499756    0.95999998    2.91000009
   17.10527802  151.46000671    0.95999998    2.91000009
   17.10861206  149.75799561    0.95999998    2.91000009
   17.10916710  142.45199585    0.94000000    2.89000010
   17.11499977  142.45199585    0.89999998    2.91000009
   17.11916733  144.36799622    0.88000000    2.91000009
   17.12222290  153.75799561    0.88000000    2.91000009
   17.12555504  147.13299561    0.86000001    2.91000009
   17.12888908  149.70700073    0.81999999    2.91000009
   17.13194466  148.53900146    0.81999999    2.91000009
   17.13527679  176.71499634    0.81999999    2.91000009
   17.13833237  146.39399719    0.81999999    2.91000009
   17.14166641  154.46800232    0.81999999    2.91000009
   17.14249992  157.49499512    0.81999999    2.91000009
   17.14555550  152.10200500    0.81999999    2.91000009
   17.14888954  152.77200317    0.81999999    2.91000009
   17.15194321  156.53599548    0.86000001    2.91000009
   17.15777779  156.53599548    0.89999998    2.91000009
   17.16194344  144.47500610    0.89999998    2.91000009
   17.16527748  136.10600281    0.95999998    2.91000009
   17.16833305  151.70799255    1.00000000    2.91000009
   17.17166519  167.45599365    1.00000000    2.91000009
   17.17472076  154.88600159    1.01999998    2.91000009
   17.17583275  159.41499329    1.01999998    2.91000009
   17.17860985  149.27600098    1.01999998    2.91000009
   17.18166542  152.71400452    1.00000000    2.91000009
   17.18499947  150.95399475    0.98000002    2.89000010
   17.18805504  156.08500671    1.00000000    2.89000010
   17.19138718  159.67100525    0.98000002    2.91000009
   17.19472122  148.45399475    0.98000002    2.89000010
   17.20055580  148.45399475    0.95999998    2.91000009
   17.20472336  151.84899902    0.94000000    2.91000009
   17.20805550  153.19900513    0.94000000    2.91000009
   17.20916748  149.97300720    0.94000000    2.91000009
   17.21166801  160.73100281    0.94000000    2.91000009
   17.21472359  153.43200684    0.94000000    2.91000009
   17.21805573  151.55799866    0.94000000    2.91000009
   17.22138977  149.17399597    0.94000000    2.91000009
   17.22444534  151.44299316    0.94000000    2.91000009
   17.22777748  142.75500488    0.92000002    2.91000009
   17.23111153  152.94599915    0.94000000    2.91000009
   17.23416710  147.16000366    0.89999998    2.91000009
   17.23750114  124.95899963    0.92000002    2.89000010
   17.24333382  124.95899963    0.88000000    2.91000009
   17.24749947  145.39599609    0.86000001    2.91000009
   17.25083351  136.43600464    0.81999999    2.91000009
   17.25388908  142.21400452    0.81999999    2.91000009
   17.25722313  136.36300659    0.83999997    2.91000009
   17.26055527  133.77000427    0.86000001    2.91000009
   17.26361084  138.49899292    0.89999998    2.91000009
   17.26694489  144.69799805    0.89999998    2.89000010
   17.27027702  162.19400024    0.89999998    2.89000010
   17.27333260  143.64399719    0.89999998    2.89000010
   17.27583313  150.82299805    0.92000002    2.91000009
   17.27722168  156.19200134    0.92000002    2.91000009
   17.28027725  151.38400269    0.92000002    2.91000009
   17.28638840  151.38400269    0.89999998    2.91000009
   17.29055595  151.36799622    0.89999998    2.91000009
   17.29361153  150.64399719    0.89999998    2.91000009
   17.29694366  149.42700195    0.88000000    2.91000009
   17.29999924  147.73399353    0.86000001    2.91000009
   17.30333328  144.33799744    0.83999997    2.91000009
   17.30666542  147.02000427    0.83999997    2.91000009
   17.30916595  150.17199707    0.83999997    2.91000009
   17.31027794  137.06500244    0.83999997    2.91000009
   17.31361008  143.35299683    0.83999997    2.91000009
   17.31666756  142.40499878    0.83999997    2.91000009
   17.32000160  158.28300476    0.81999999    2.91000009
   17.32333374  145.53300476    0.81999999    2.91000009
   17.32916832  145.53300476    0.81999999    2.91000009
   17.33333397  146.22999573    0.81999999    2.91000009
   17.33638954  148.39100647    0.83999997    2.91000009
   17.33972359  148.77600098    0.81999999    2.91000009
   17.34250069  140.10699463    0.83999997    2.91000009
   17.34333420  138.53399658    0.83999997    2.91000009
   17.34638977  148.07200623    0.81999999    2.91000009
   17.34972191  152.46099854    0.81999999    2.91000009
   17.35305595  146.10099792    0.81999999    2.91000009
   17.35611153  148.09700012    0.81999999    2.91000009
   17.35944557  129.07200623    0.81999999    2.91000009
   17.36277771  139.71699524    0.81999999    2.91000009
   17.36583328  139.10400391    0.81999999    2.91000009
   17.37194443  139.10400391    0.79000002    2.91000009
   17.37611198  142.12300110    0.79000002    2.91000009
   17.37944412  145.85400391    0.75000000    2.91000009
   17.38249969  143.63200378    0.73000002    2.93000007
   17.38583374  132.47900391    0.73000002    2.93000007
   17.38916588  130.83200073    0.75000000    2.91000009
   17.39222145  139.22300720    0.80000001    2.93000007
   17.39555550  134.65699768    0.86000001    2.91000009
   17.39861107  143.72900391    0.88000000    2.93000007
   17.40194321  135.20700073    0.88000000    2.91000009
   17.40527725  139.63600159    0.88000000    2.91000009
   17.40833282  146.62600708    0.88000000    2.91000009
   17.40916634  149.73100281    0.89999998    2.91000009
   17.41472244  149.73100281    0.89999998    2.91000009
   17.41888809  147.35600281    0.89999998    2.91000009
   17.42222214  148.79100037    0.92000002    2.91000009
   17.42555428  137.96400452    0.92000002    2.91000009
   17.42860985  141.22300720    0.92000002    2.91000009
   17.43194389  136.82299805    0.92000002    2.91000009
   17.43499947  138.33299255    0.94000000    2.89000010
   17.43833160  137.29800415    0.92000002    2.91000009
   17.44166565  141.61500549    0.92000002    2.91000009
   17.44249916  138.97799683    0.92000002    2.91000009
   17.44527626  133.31300354    0.92000002    2.91000009
   17.44833183  138.89199829    0.92000002    2.91000009
   17.45166779  149.09700012    0.94000000    2.91000009
   17.45777893  149.09700012    0.95999998    2.91000009
   17.46194458  131.45500183    0.98000002    2.91000009
   17.46500015  124.39700317    0.98000002    2.91000009
   17.46833420  116.81300354    0.98000002    2.91000009
   17.47138977  137.83299255    0.98000002    2.91000009
   17.47472191  143.00100708    1.00000000    2.89000010
   17.47583389  137.38499451    0.98000002    2.91000009
   17.47833443  141.11500549    0.98000002    2.91000009
   17.48166656  127.14199829    0.98000002    2.91000009
   17.48472214  129.82099915    0.98000002    2.91000009
   17.48805618  121.47200012    1.00000000    2.91000009
   17.49111176  134.38499451    1.00000000    2.91000009
   17.49444389  138.67399597    1.00000000    2.89000010
   17.50055504  138.67399597    0.98000002    2.91000009
   17.50472260  149.25900269    1.00000000    2.91000009
   17.50777817  131.25399780    0.98000002    2.91000009
   17.50916672  147.41099548    0.98000002    2.91000009
   17.51166725  139.42500305    0.95999998    2.89000010
   17.51472282  144.23100281    0.94000000    2.91000009
   17.51805496  144.57299805    0.92000002    2.91000009
   17.52138901  128.02000427    0.89999998    2.91000009
   17.52444458  135.02600098    0.89999998    2.91000009
   17.52777672  139.75700378    0.89999998    2.91000009
   17.53111076  138.86199951    0.88000000    2.91000009
   17.53416634  131.01800537    0.88000000    2.91000009
   17.53750038  132.91799927    0.86000001    2.91000009
   17.54333305  132.91799927    0.88000000    2.91000009
   17.54749870  132.77400208    0.86000001    2.91000009
   17.55083275  131.60099792    0.86000001    2.91000009
   17.55388832  113.05899811    0.86000001    2.91000009
   17.55722237  128.43299866    0.83999997    2.91000009
   17.56055450  132.69299316    0.86000001    2.91000009
   17.56361008  143.38099670    0.83999997    2.91000009
   17.56694603  137.12199402    0.81999999    2.91000009
   17.57000160  136.34300232    0.81999999    2.91000009
   17.57333374  127.16100311    0.81999999    2.93000007
   17.57583427  132.20700073    0.80000001    2.91000009
   17.57694626  129.42900085    0.80000001    2.91000009
   17.58000183  135.84700012    0.80000001    2.91000009
   17.58611107  135.84700012    0.79000002    2.91000009
   17.59027863  134.81799316    0.79000002    2.91000009
   17.59361267  135.23399353    0.76999998    2.91000009
   17.59694481  139.09300232    0.76999998    2.91000009
   17.60000038  130.57899475    0.75000000    2.93000007
   17.60333443  128.02699280    0.75000000    2.91000009
   17.60666656  129.70500183    0.75000000    2.93000007
   17.60916710  129.76800537    0.75000000    2.93000007
   17.61027908  132.11399841    0.73000002    2.91000009
   17.61361122  130.95799255    0.73000002    2.91000009
   17.61666679  134.54899597    0.73000002    2.91000009
   17.62000084  134.55099487    0.75000000    2.91000009
   17.62305641  134.71899414    0.75000000    2.91000009
   17.62916756  134.71899414    0.75000000    2.93000007
   17.63333321  130.66099548    0.75000000    2.91000009
   17.63638878  133.40899658    0.75000000    2.91000009
   17.63972282  130.39700317    0.75000000    2.91000009
   17.64249992  135.44099426    0.76999998    2.91000009
   17.64333344  137.49499512    0.75000000    2.91000009
   17.64666748  131.36900330    0.76999998    2.91000009
   17.64972115  142.61000061    0.76999998    2.91000009
   17.65305519  132.66400146    0.79000002    2.91000009
   17.65611076  127.35500336    0.79000002    2.91000009
   17.65944481  132.10499573    0.79000002    2.91000009
   17.66277695  130.17900085    0.79000002    2.91000009
   17.66583252  129.64799500    0.79000002    2.91000009
   17.67194366  129.64799500    0.79000002    2.91000009
   17.67611122  129.30499268    0.79000002    2.91000009
   17.67916679  136.13000488    0.79000002    2.91000009
   17.68249893  136.45599365    0.79000002    2.93000007
   17.68583298  136.73699951    0.79000002    2.93000007
   17.68888855  135.23800659    0.75000000    2.91000009
   17.69222069  133.75900269    0.75000000    2.91000009
   17.69527626  129.06900024    0.73000002    2.91000009
   17.69861031  129.65100098    0.75000000    2.91000009
   17.70194435  131.37399292    0.75000000    2.91000009
   17.70499992  136.29600525    0.76999998    2.91000009
   17.70833397  126.43099976    0.75000000    2.91000009
   17.70916748  128.94099426    0.75000000    2.91000009
   17.71472359  128.94099426    0.75000000    2.93000007
   17.71888924  125.37599945    0.75000000    2.93000007
   17.72222328  133.49800110    0.75000000    2.91000009
   17.72527885  134.81399536    0.75000000    2.91000009
   17.74305534  127.67600250    0.70999998    2.91000009
   17.74527740  129.70399475    0.73000002    2.93000007
   17.74861145  132.67599487    0.70999998    2.91000009
   17.75194359  132.19099426    0.70999998    2.91000009
   17.75777817  132.19099426    0.70999998    2.91000009
   17.76194382  130.67100525    0.70999998    2.91000009
   17.76499939  140.09199524    0.70999998    2.91000009
   17.76833344  137.49600220    0.70999998    2.91000009
   17.77166557  143.20500183    0.70999998    2.91000009
   17.77472115  143.91700745    0.70999998    2.91000009
   17.77611160  135.55599976    0.70999998    2.91000009
   17.77861023  147.63000488    0.70999998    2.91000009
   17.78194427  132.31599426    0.70999998    2.91000009
   17.78499985  128.66200256    0.70999998    2.93000007
   17.78833199  128.99600220    0.70999998    2.93000007
   17.79166603  121.76100159    0.69000000    2.91000009
   17.79472160  130.65600586    0.69000000    2.91000009
   17.80055428  130.65600586    0.69000000    2.91000009
   17.80472183  133.65800476    0.69000000    2.93000007
   17.80805397  136.30999756    0.69000000    2.93000007
   17.80944443  126.62699890    0.67000002    2.91000009
   17.81166649  122.49400330    0.69000000    2.93000007
   17.81499863  126.28399658    0.69000000    2.93000007
   17.81805611  127.50499725    0.69000000    2.93000007
   17.82139015  127.23000336    0.69000000    2.93000007
   17.82472229  130.68200684    0.69000000    2.91000009
   17.82777786  127.81300354    0.69000000    2.91000009
   17.83111191  139.55299377    0.69000000    2.93000007
   17.83444595  137.87699890    0.70999998    2.93000007
   17.83750153  129.65899658    0.70999998    2.91000009
   17.84361267  129.65899658    0.70999998    2.91000009
   17.84777832  128.53599548    0.70999998    2.91000009
   17.85083389  123.57499695    0.73000002    2.93000007
   17.85416794  119.74700165    0.70999998    2.93000007
   17.85722351  125.06600189    0.70999998    2.93000007
   17.86055565  130.68600464    0.70999998    2.93000007
   17.86388969  130.28700256    0.70999998    2.91000009
   17.86694527  127.10700226    0.70999998    2.93000007
   17.87027740  111.00700378    0.73000002    2.93000007
   17.87361145  126.73300171    0.70999998    2.93000007
   17.87611198  124.01000214    0.70999998    2.93000007
   17.87722206  117.86399841    0.70999998    2.91000009
   17.88055611  129.32299805    0.70999998    2.91000009
   17.88638878  129.32299805    0.70999998    2.91000009
   17.89055634  114.24500275    0.69000000    2.93000007
   17.89361191  130.91499329    0.69000000    2.93000007
   17.89694405  138.61500549    0.67000002    2.91000009
   17.90027809  122.54299927    0.69000000    2.91000009
   17.90333366  128.99800110    0.67000002    2.93000007
   17.90666580  125.37100220    0.67000002    2.93000007
   17.90944481  128.46800232    0.67000002    2.91000009
   17.91027832  116.94000244    0.67000002    2.91000009
   17.91361046  119.10800171    0.69000000    2.91000009
   17.91694450  122.66300201    0.69000000    2.91000009
   17.92000008  115.69400024    0.67000002    2.93000007
   17.92333221  126.84200287    0.69000000    2.93000007
   17.92916679  126.84200287    0.69000000    2.93000007
   17.93333244  132.70500183    0.70999998    2.91000009
   17.93638802  128.53700256    0.69000000    2.91000009
   17.93972206  122.75800323    0.69000000    2.91000009
   17.94277763  129.89199829    0.69000000    2.91000009
   17.94333267  130.68499756    0.69000000    2.91000009
   17.94666672  117.04100037    0.69000000    2.91000009
   17.94972038  118.85299683    0.69000000    2.91000009
   17.95305634  117.33999634    0.70999998    2.91000009
   17.95639038  126.80999756    0.70999998    2.91000009
   17.95944595  127.25199890    0.70999998    2.91000009
   17.96277809  131.87399292    0.70999998    2.91000009
   17.96583366  118.33399963    0.73000002    2.91000009
   17.97194481  118.33399963    0.73000002    2.91000009
   17.97611237  120.75499725    0.73000002    2.93000007
   17.97666740  127.77700043    0.73000002    2.93000007
   17.98000145  126.48699951    0.70999998    2.91000009
   17.98305511  117.87200165    0.70999998    2.91000009
   17.98638916  129.87500000    0.70999998    2.91000009
   17.98944473  128.88499451    0.73000002    2.91000009
   17.99277878  133.35000610    0.70999998    2.91000009
   17.99611092  139.19099426    0.73000002    2.91000009
   17.99944496  125.82900238    0.73000002    2.91000009
   18.00250053  129.80599976    0.75000000    2.91000009
   18.00583267  131.30099487    0.75000000    2.93000007
   18.00916672  128.68499756    0.73000002    2.91000009
   18.00944519  136.66000366    0.73000002    2.91000009
   18.01499939  136.66000366    0.73000002    2.93000007
   18.01888847  118.20700073    0.75000000    2.91000009
   18.02222252  127.23899841    0.73000002    2.91000009
   18.02555466  111.53299713    0.75000000    2.89000010
   18.02861023  125.65000153    0.75000000    2.91000009
   18.03194427  129.30499268    0.76999998    2.91000009
   18.03527641  117.56199646    0.76999998    2.93000007
   18.03833199  114.35500336    0.75000000    2.91000009
   18.04166603  125.66600037    0.75000000    2.91000009
   18.04277802  128.79800415    0.75000000    2.91000009
   18.04527664  119.34300232    0.75000000    2.91000009
   18.04861069  133.03700256    0.79000002    2.91000009
   18.05166626  126.29199982    0.86000001    2.91000009
   18.05777740  126.29199982    0.75000000    2.91000009
   18.06194305  122.96700287    0.69000000    2.91000009
   18.06499863  121.46399689    0.69000000    2.91000009
   18.06833458  130.01100159    0.67000002    2.91000009
   18.07166672  124.06500244    0.69000000    2.93000007
   18.07472229  127.23000336    0.69000000    2.93000007
   18.07638931  125.89700317    0.69000000    2.91000009
   18.07833481  127.15499878    0.69000000    2.93000007
   18.08166695  131.72599792    0.69000000    2.89000010
   18.08500099  124.87000275    0.69000000    2.93000007
   18.08805656  129.08000183    0.69000000    2.91000009
   18.09138870  123.62999725    0.67000002    2.91000009
   18.09444427  125.76999664    0.67000002    2.93000007
   18.10055542  125.76999664    0.67000002    2.91000009
   18.10472298  126.65899658    0.67000002    2.91000009
   18.10777855  129.85800171    0.67000002    2.93000007
   18.10944557  131.31500244    0.69000000    2.91000009
   18.11138916  114.77400208    0.69000000    2.91000009
   18.11472321  123.18800354    0.67000002    2.91000009
   18.11777878   93.46410370    0.69000000    2.91000009
   18.12111092  127.72799683    0.67000002    2.93000007
   18.12444496  131.45500183    0.70999998    2.91000009
   18.12750053  131.95599365    0.70999998    2.91000009
   18.13083267  134.04400635    0.70999998    2.93000007
   18.13416672  129.06500244    0.73000002    2.91000009
   18.13722229  131.92700195    0.70999998    2.91000009
   18.14333344  131.92700195    0.73000002    2.91000009
   18.14749908  128.12100220    0.73000002    2.91000009
   18.15083313  131.30700684    0.73000002    2.91000009
   18.15388870  129.93499756    0.73000002    2.91000009
   18.15722275  136.38600159    0.73000002    2.91000009
   18.16055489  124.77400208    0.73000002    2.91000009
   18.16361046  130.52200317    0.75000000    2.91000009
   18.16694450  118.37899780    0.75000000    2.91000009
   18.17027664  132.76199341    0.75000000    2.91000009
   18.17333221  132.09599304    0.75000000    2.91000009
   18.17638779  129.78399658    0.75000000    2.91000009
   18.17694473  118.20200348    0.73000002    2.91000009
   18.18027687  138.42900085    0.73000002    2.91000009
   18.18610954  138.42900085    0.73000002    2.91000009
   18.19027710  133.82600403    0.73000002    2.91000009
   18.19361115  121.57599640    0.75000000    2.91000009
   18.19694328  125.95200348    0.73000002    2.89000010
   18.20000076  131.68400574    0.73000002    2.89000010
   18.20388985  126.78199768    0.73000002    2.91000009
   18.20722389  128.18699646    0.73000002    2.91000009
   18.20972252  127.72100067    0.73000002    2.91000009
   18.21083450  137.50700378    0.73000002    2.93000007
   18.21416664  126.60099792    0.73000002    2.91000009
   18.21722221  126.75399780    0.73000002    2.91000009
   18.22055626  137.00900269    0.73000002    2.91000009
   18.22389030  131.87399292    0.73000002    2.91000009
   18.22916794  131.87399292    0.73000002    2.91000009
   18.23333359  144.09700012    0.73000002    2.91000009
   18.23638916  136.97500610    0.73000002    2.91000009
   18.23972321  138.46899414    0.73000002    2.91000009
   18.24305534  142.89700317    0.73000002    2.91000009
   18.24333382  142.30599976    0.73000002    2.89000010
   18.24666786  144.34899902    0.73000002    2.91000009
   18.25000000  128.88600159    0.73000002    2.91000009
   18.25305557  134.85400391    0.75000000    2.93000007
   18.25638962  145.17799377    0.73000002    2.93000007
   18.25944519  143.88499451    0.75000000    2.91000009
   18.26277733  130.69799805    0.73000002    2.91000009
   18.26611137  135.26800537    0.73000002    2.91000009
   18.27194405  135.26800537    0.73000002    2.91000009
   18.27611160  134.53399658    0.73000002    2.91000009
   18.27666664  143.14100647    0.73000002    2.91000009
   18.27972221  143.25599670    0.73000002    2.91000009
   18.28305435  144.46899414    0.73000002    2.91000009
   18.28638840  130.72000122    0.73000002    2.89000010
   18.28944397  136.63299561    0.73000002    2.91000009
   18.29277802  131.28599548    0.73000002    2.91000009
   18.29611015  136.51800537    0.75000000    2.91000009
   18.29916573  152.30000305    0.73000002    2.89000010
   18.30249977  135.82299805    0.75000000    2.91000009
   18.30555534  132.75900269    0.73000002    2.91000009
   18.30888748  141.65600586    0.73000002    2.91000009
   18.30999947  147.55499268    0.73000002    2.91000009
   18.31472206  147.55499268    0.73000002    2.89000010
   18.31888962  134.94900513    0.70999998    2.91000009
   18.32222366  140.84800720    0.70999998    2.91000009
   18.32527924  137.72799683    0.70999998    2.91000009
   18.32861137  128.49400330    0.70999998    2.91000009
   18.33194542  127.22699738    0.70999998    2.91000009
   18.33500099  132.16299438    0.69000000    2.91000009
   18.33833313  145.94599915    0.69000000    2.93000007
   18.34166718  130.67100525    0.69000000    2.91000009
   18.34333420  123.50900269    0.69000000    2.91000009
   18.34500122  143.23399353    0.70999998    2.91000009
   18.34833336  147.92700195    0.69000000    2.91000009
   18.35166740  142.43400574    0.69000000    2.91000009
   18.35750008  142.43400574    0.69000000    2.91000009
   18.36166763  139.41099548    0.69000000    2.89000010
   18.36499977  138.40499878    0.69000000    2.91000009
   18.36833382  121.69400024    0.69000000    2.91000009
   18.37138939  130.95199585    0.69000000    2.91000009
   18.37472153  142.04200745    0.69000000    2.91000009
   18.37666702  130.90199280    0.69000000    2.91000009
   18.37861061  136.16200256    0.69000000    2.91000009
   18.38166618  144.67599487    0.69000000    2.91000009
   18.38500023  136.57899475    0.69000000    2.91000009
   18.38805580  129.71099854    0.69000000    2.91000009
   18.39138794  143.52000427    0.69000000    2.91000009
   18.39472198  141.45399475    0.70999998    2.93000007
   18.40055466  141.45399475    0.69000000    2.91000009
   18.40472221  139.23699951    0.69000000    2.91000009
   18.40777779  138.78199768    0.69000000    2.91000009
   18.40999985  137.45899963    0.69000000    2.91000009
   18.41166687  137.60200500    0.69000000    2.91000009
   18.41472244  125.54399872    0.69000000    2.91000009
   18.41805458  124.37699890    0.69000000    2.91000009
   18.42138863  134.65299988    0.69000000    2.91000009
   18.42444420  143.29499817    0.70999998    2.91000009
   18.42777634  139.67500305    0.69000000    2.91000009
   18.43083191  141.53300476    0.69000000    2.91000009
   18.43416595  143.49200439    0.69000000    2.91000009
   18.43750000  135.51600647    0.70999998    2.91000009
   18.44333267  135.51600647    0.73000002    2.89000010
   18.44749832  118.65000153    0.73000002    2.91000009
   18.45055580  131.03199768    0.73000002    2.91000009
   18.45388985  136.20100403    0.73000002    2.89000010
   18.45722389  135.80200195    0.73000002    2.91000009
   18.46027946  133.66700745    0.75000000    2.91000009
   18.46361160  139.09700012    0.75000000    2.91000009
   18.46694565  139.32699585    0.73000002    2.89000010
   18.47000122  134.92300415    0.73000002    2.91000009
   18.47333336  127.16300201    0.73000002    2.91000009
   18.47666740  130.30099487    0.73000002    2.89000010
   18.47722244  127.93399811    0.73000002    2.89000010
   18.48027802  125.79399872    0.70999998    2.89000010
   18.48611069  125.79399872    0.70999998    2.91000009
   18.49027824  140.05900574    0.70999998    2.91000009
   18.49361229  139.45199585    0.70999998    2.89000010
   18.49666786  143.07000732    0.73000002    2.91000009
   18.50000000  139.39100647    0.73000002    2.91000009
   18.50333405  137.99699402    0.73000002    2.91000009
   18.50638962  134.78799438    0.75000000    2.91000009
   18.50972176  130.77299500    0.75000000    2.91000009
   18.51055527  132.19400024    0.75000000    2.91000009
   18.51333427  136.33299255    0.75000000    2.91000009
   18.51666641  137.49600220    0.75000000    2.89000010
   18.52000046  132.99899292    0.75000000    2.89000010
   18.52305603  135.08099365    0.75000000    2.91000009
   18.52888870  135.08099365    0.75000000    2.91000009
   18.53305435  136.53900146    0.76999998    2.91000009
   18.53638840  139.59599304    0.76999998    2.91000009
   18.53972244  136.72700500    0.76999998    2.91000009
   18.54277802  140.99200439    0.76999998    2.91000009
   18.54388809  135.46600342    0.79000002    2.89000010
   18.54638863  135.52799988    0.79000002    2.91000009
   18.54972076  132.03700256    0.79000002    2.89000010
   18.55305481  145.79800415    0.76999998    2.91000009
   18.55611038  138.92900085    0.79000002    2.89000010
   18.55944443  137.70100403    0.76999998    2.91000009
   18.56250000  137.77099609    0.76999998    2.89000010
   18.56583214  135.31199646    0.76999998    2.89000010
   18.57194519  135.31199646    0.79000002    2.91000009
   18.57611275  131.67399597    0.79000002    2.89000010
   18.57722282  133.42500305    0.79000002    2.89000010
   18.57944489  128.67700195    0.80000001    2.89000010
   18.58277893  124.26799774    0.80000001    2.89000010
   18.58611107  138.85200500    0.81999999    2.89000010
   18.58916664  134.05299377    0.81999999    2.91000009
   18.59250069  131.84199524    0.81999999    2.89000010
   18.59555626  137.16999817    0.81999999    2.89000010
   18.59889030  130.19599915    0.81999999    2.89000010
   18.60222244  123.24700165    0.83999997    2.89000010
   18.60527802  133.55999756    0.81999999    2.91000009
   18.60861206  134.96600342    0.81999999    2.89000010
   18.61055565  123.57499695    0.81999999    2.89000010
   18.61472321  123.57499695    0.80000001    2.89000010
   18.61888885  147.45599365    0.81999999    2.91000009
   18.62194443  145.39300537    0.80000001    2.89000010
   18.62527847  130.77999878    0.81999999    2.89000010
   18.62861061  145.88900757    0.81999999    2.89000010
   18.63166618  131.58500671    0.81999999    2.89000010
   18.63500023  132.21200562    0.83999997    2.89000010
   18.63805580  122.02600098    0.81999999    2.89000010
   18.64138794  126.66799927    0.83999997    2.89000010
   18.64388847  139.78300476    0.81999999    2.89000010
   18.64500046  139.71299744    0.81999999    2.89000010
   18.64833260  137.34700012    0.83999997    2.89000010
   18.65166664  132.58200073    0.86000001    2.89000010
   18.65749931  132.58200073    0.88000000    2.89000010
   18.66166687  130.81700134    0.88000000    2.89000010
   18.66499901  129.10299683    0.88000000    2.89000010
   18.66805458  131.96000671    0.88000000    2.91000009
   18.67138863  123.60399628    0.89999998    2.89000010
   18.67472076  117.37500000    0.88000000    2.89000010
   18.67722130  123.41400146    0.89999998    2.89000010
   18.67805481  121.41100311    0.89999998    2.89000010
   18.68138885  119.32099915    0.92000002    2.91000009
   18.68472099  118.93399811    0.89999998    2.91000009
   18.68777657  126.96800232    0.83999997    2.89000010
   18.69111061  129.72599792    0.80000001    2.89000010
   18.69416618  132.90499878    0.80000001    2.91000009
   18.70027924  132.90499878    0.80000001    2.89000010
   18.70444489  139.10899353    0.79000002    2.89000010
   18.70777893  117.40599823    0.79000002    2.89000010
   18.71055603  122.43000031    0.79000002    2.86999989
   18.71138954  134.91400146    0.79000002    2.86999989
   18.71472359  125.53600311    0.79000002    2.89000010
   18.71805573  129.74699402    0.79000002    2.91000009
   18.72111130  133.50799561    0.79000002    2.89000010
   18.72444534  129.95599365    0.79000002    2.89000010
   18.72777748  132.07699585    0.79000002    2.89000010
   18.73083305  130.75500488    0.80000001    2.89000010
   18.73416710  120.44300079    0.80000001    2.89000010
   18.73722267  132.26699829    0.80000001    2.89000010
   18.74333382  132.26699829    0.80000001    2.91000009
   18.76166725  132.10499573    0.79000002    2.91000009
   18.76472282  139.85699463    0.76999998    2.89000010
   18.76805496  137.49400330    0.79000002    2.91000009
   18.77138901  124.40399933    0.76999998    2.89000010
   18.77444458  137.02900696    0.79000002    2.89000010
   18.77777672  125.14099884    0.79000002    2.89000010
   18.78111076  122.89600372    0.79000002    2.89000010
   18.78638840  122.89600372    0.79000002    2.91000009
   18.79055595  119.31099701    0.79000002    2.89000010
   18.79361153  124.02400208    0.79000002    2.89000010
   18.79472160  128.64999390    0.79000002    2.91000009
   18.79749870  124.78800201    0.79000002    2.91000009
   18.80055428  129.85800171    0.79000002    2.89000010
   18.80388832  130.88099670    0.79000002    2.89000010
   18.80694389  136.11000061    0.79000002    2.89000010
   18.81027794  132.41700745    0.79000002    2.89000010
   18.81361008  131.31500244    0.79000002    2.91000009
   18.81666756  127.79000092    0.79000002    2.89000010
   18.82000160  134.88999939    0.79000002    2.91000009
   18.82333374  136.30700684    0.79000002    2.89000010
   18.82916832  136.30700684    0.79000002    2.89000010
   18.83333397  127.79599762    0.76999998    2.89000010
   18.83666801  131.52099609    0.79000002    2.89000010
   18.83972359  138.34300232    0.76999998    2.89000010
   18.84305573  138.16799927    0.76999998    2.89000010
   18.84611130  127.16699982    0.79000002    2.91000009
   18.84944534  136.37500000    0.76999998    2.89000010
   18.85277748  128.42300415    0.79000002    2.89000010
   18.85583305  128.72200012    0.76999998    2.89000010
   18.85916710  134.89999390    0.79000002    2.89000010
   18.86138916  132.93499756    0.76999998    2.91000009
   18.86305618  121.40399933    0.76999998    2.91000009
   18.86611176  137.22999573    0.79000002    2.89000010
   18.87194443  137.22999573    0.79000002    2.89000010
   18.87611198  136.12600708    0.79000002    2.89000010
   18.87944412  146.29699707    0.79000002    2.89000010
   18.88249969  140.22999573    0.79000002    2.89000010
   18.88583374  127.63999939    0.79000002    2.89000010
   18.88916588  126.48600006    0.79000002    2.89000010
   18.89222145  129.06100464    0.79000002    2.89000010
   18.89472198  125.52200317    0.79000002    2.91000009
   18.89611053  125.87500000    0.80000001    2.89000010
   18.89916611  129.28700256    0.80000001    2.86999989
   18.90250015  126.81800079    0.79000002    2.89000010
   18.90555573  131.65400696    0.80000001    2.89000010
   18.90888786  129.83700562    0.80000001    2.89000010
   18.91499901  129.83700562    0.80000001    2.89000010
   18.91888809  121.53199768    0.80000001    2.89000010
   18.92222214  120.82700348    0.81999999    2.89000010
   18.92555428  125.40000153    0.81999999    2.86999989
   18.92805481  130.21299744    0.81999999    2.86999989
   18.92916679  130.70100403    0.81999999    2.86999989
   18.93222237  140.50999451    0.81999999    2.86999989
   18.93555450  137.02400208    0.81999999    2.89000010
   18.93861008  139.91900635    0.86000001    2.89000010
   18.94194412  137.43499756    0.86000001    2.89000010
   18.94527626  133.28599548    0.86000001    2.86999989
   18.94833183  141.67199707    0.86000001    2.89000010
   18.95166779  134.84500122    0.86000001    2.89000010
   18.95777893  134.84500122    0.89999998    2.89000010
   18.96194458  141.53999329    0.92000002    2.89000010
   18.96500015  127.56999969    0.92000002    2.89000010
   18.96833420  126.23699951    0.94000000    2.89000010
   18.97166634  131.43200684    0.94000000    2.86999989
   18.97472191  133.15699768    0.95999998    2.86999989
   18.97805595  137.09500122    0.95999998    2.86999989
   18.98111153  135.34500122    0.95999998    2.86999989
   18.98444557  140.30700684    0.98000002    2.86999989
   18.98777771  140.14500427    1.00000000    2.86999989
   18.99083328  133.00500488    1.00000000    2.86999989
   18.99416733  142.85600281    1.00000000    2.86999989
   18.99472237  135.23699951    1.00000000    2.86999989
   19.00055504  135.23699951    1.01999998    2.86999989
   19.00472260  132.92399597    1.03999996    2.86999989
   19.00805473  132.75999451    1.03999996    2.86999989
   19.01111031  132.19999695    1.01999998    2.86999989
   19.01444435  129.22300720    1.03999996    2.86999989
   19.01777840  130.98899841    1.03999996    2.86999989
   19.02083397  129.80700684    1.03999996    2.86999989
   19.02416611  132.40800476    1.03999996    2.86999989
   19.02722168  132.60099792    1.03999996    2.89000010
   19.02805519  141.37500000    1.03999996    2.89000010
   19.03111076  119.85199738    1.03999996    2.89000010
   19.03416634  127.64900208    1.03999996    2.86999989
   19.03750038  128.42599487    1.05999994    2.86999989
   19.04333305  128.42599487    1.05999994    2.86999989
   19.04749870  132.06700134    1.09000003    2.86999989
   19.05083275  125.08300018    1.09000003    2.86999989
   19.05416679  136.25900269    1.07000005    2.86999989
   19.05722237  136.58599854    1.05999994    2.89000010
   19.06055450  134.12500000    1.05999994    2.86999989
   19.06138802  125.92600250    1.03999996    2.86999989
   19.06416512  116.40000153    1.01999998    2.86999989
   19.06722260  138.49200439    1.01999998    2.89000010
   19.07055664  122.82900238    1.00000000    2.86999989
   19.07361221  136.47200012    1.01999998    2.86999989
   19.07694626  126.39800262    1.00000000    2.89000010
   19.08027840  136.01800537    0.98000002    2.86999989
   19.08638954  136.01800537    0.98000002    2.86999989
   19.09027863  132.44400024    0.98000002    2.89000010
   19.09361267  122.45700073    0.95999998    2.86999989
   19.09472275  123.25700378    0.95999998    2.86999989
   19.09749985  128.32699585    0.95999998    2.86999989
   19.10055542  128.84300232    0.95999998    2.89000010
   19.10388947  134.70199585    0.95999998    2.89000010
   19.10722351  142.81599426    0.95999998    2.86999989
   19.11027908  131.35400391    0.95999998    2.86999989
   19.11361122  132.97500610    0.95999998    2.86999989
   19.11666679  140.70300293    0.95999998    2.86999989
   19.12000084  138.39999390    0.95999998    2.86999989
   19.12333298  133.35899353    0.95999998    2.86999989
   19.12916756  133.35899353    0.94000000    2.86999989
   19.13333321  127.25399780    0.95999998    2.86999989
   19.13638878  128.83099365    0.94000000    2.86999989
   19.13972282  136.07000732    0.95999998    2.86999989
   19.14305496  121.27700043    0.95999998    2.89000010
   19.14611053  130.56300354    0.95999998    2.86999989
   19.14944458  140.54400635    0.95999998    2.86999989
   19.15250015  136.03399658    0.95999998    2.86999989
   19.15583229  120.04900360    0.95999998    2.86999989
   19.15916634  137.97399902    0.95999998    2.86999989
   19.16138840  133.21800232    0.95999998    2.86999989
   19.16277695  130.91600037    0.98000002    2.86999989
   19.16583252  143.67900085    0.98000002    2.86999989
   19.17194366  143.67900085    1.01999998    2.86999989
   19.17611122  152.92900085    1.01999998    2.86999989
   19.17916679  135.00000000    1.03999996    2.86999989
   19.18249893  128.13299561    1.05999994    2.86999989
   19.18583298  136.48699951    1.05999994    2.86999989
   19.18888855  133.08200073    1.05999994    2.84999990
   19.19222069  146.17300415    1.09000003    2.86999989
   19.19472122  136.28399658    1.09000003    2.86999989
   19.19610977  145.92100525    1.09000003    2.84999990
   19.19916534  131.39300537    1.09000003    2.86999989
   19.20250130  130.43299866    1.09000003    2.84999990
   19.20583344  136.02999878    1.09000003    2.86999989
   19.20888901  122.28500366    1.09000003    2.86999989
   19.21472359  122.28500366    1.13000000    2.86999989
   19.21888924  135.30799866    1.13000000    2.84999990
   19.22222328  129.37699890    1.14999998    2.84999990
   19.22527885  126.93299866    1.16999996    2.84999990
   19.22805595  141.59700012    1.14999998    2.84999990
   19.22916794  132.24899292    1.14999998    2.86999989
   19.23222351  133.77000427    1.16999996    2.86999989
   19.23555565  132.15699768    1.16999996    2.84999990
   19.23888969  130.82600403    1.14999998    2.86999989
   19.24194527  123.76300049    1.14999998    2.84999990
   19.24527740  124.70099640    1.19000006    2.84999990
   19.24833298  122.48699951    1.21000004    2.86999989
   19.25166702  127.04199982    1.21000004    2.84999990
   19.25749969  127.04199982    1.21000004    2.84999990
   19.26166725  113.24900055    1.21000004    2.84999990
   19.26499939  132.13699341    1.21000004    2.84999990
   19.26833344  122.35500336    1.21000004    2.84999990
   19.27138901  137.27400208    1.21000004    2.84999990
   19.27472115  136.40199280    1.21000004    2.84999990
   19.27805519  140.37300110    1.21000004    2.84999990
   19.28111076  120.29000092    1.19000006    2.86999989
   19.28444481  129.37399292    1.19000006    2.86999989
   19.28777695  132.20100403    1.19000006    2.84999990
   19.29083252  129.02299500    1.19000006    2.84999990
   19.29416656  141.07400513    1.19000006    2.84999990
   19.29472160  134.27499390    1.19000006    2.84999990
   19.30055428  134.27499390    1.19000006    2.84999990
   19.30472183  128.54100037    1.16999996    2.84999990
   19.30777740  136.80499268    1.16999996    2.84999990
   19.31110954  135.99000549    1.16999996    2.84999990
   19.31416512  145.49699402    1.16999996    2.84999990
   19.31750107  132.02099609    1.16999996    2.84999990
   19.32083511  133.92999268    1.16999996    2.84999990
   19.32389069  139.88900757    1.14999998    2.84999990
   19.32722282  137.69999695    1.14999998    2.84999990
   19.32805634  135.03100586    1.14999998    2.84999990
   19.33083344  129.89599609    1.14999998    2.84999990
   19.33388901  126.62500000    1.14999998    2.84999990
   19.33722305  119.42900085    1.14999998    2.84999990
   19.34333420  119.42900085    1.13000000    2.84999990
   19.34749985  123.32399750    1.14999998    2.84999990
   19.35055542  122.97000122    1.13000000    2.86999989
   19.35388947  132.69700623    1.13000000    2.84999990
   19.35722351  123.81400299    1.13000000    2.84999990
   19.36027908  116.10299683    1.14999998    2.86999989
   19.36138916  121.88500214    1.13000000    2.84999990
   19.36416626  126.84799957    1.13000000    2.86999989
   19.36722183  128.59399414    1.16999996    2.84999990
   19.37055588  128.91200256    1.14999998    2.84999990
   19.37388992  131.25799561    1.16999996    2.84999990
   19.37694550  125.85900116    1.16999996    2.84999990
   19.38027763  125.30899811    1.19000006    2.84999990
   19.38611031  125.30899811    1.21000004    2.84999990
   19.39027786  138.53399658    1.21000004    2.84999990
   19.39361191  127.68499756    1.21000004    2.84999990
   19.39472198  127.66000366    1.21000004    2.84999990
   19.39722252  124.26399994    1.21000004    2.84999990
   19.40027809  148.16099548    1.19000006    2.84999990
   19.40361023  135.67300415    1.19000006    2.84999990
   19.40694427  137.31100464    1.19000006    2.84999990
   19.41027832  131.38200378    1.19000006    2.84999990
   19.41333389  134.09199524    1.19000006    2.84999990
   19.41666603  117.97100067    1.19000006    2.84999990
   19.41972160  128.30200195    1.19000006    2.84999990
   19.42305565  127.76699829    1.19000006    2.84999990
   19.42888832  127.76699829    1.19000006    2.84999990
   19.43305397  126.01899719    1.19000006    2.84999990
   19.43638802  122.98200226    1.19000006    2.84999990
   19.43972206  130.94400024    1.19000006    2.84999990
   19.44277763  126.05799866    1.19000006    2.84999990
   19.44610977  130.33799744    1.19000006    2.84999990
   19.44916534  127.52400208    1.19000006    2.84999990
   19.45250130  123.66400146    1.21000004    2.84999990
   19.45583344  122.98600006    1.21000004    2.84999990
   19.45888901  124.47200012    1.21000004    2.84999990
   19.46138954  138.47200012    1.21000004    2.84999990
   19.46277809  129.49000549    1.21000004    2.84999990
   19.46583366  136.97799683    1.21000004    2.84999990
   19.47194481  136.97799683    1.21000004    2.84999990
   19.47611237  136.28799438    1.25000000    2.84999990
   19.47916794  131.63699341    1.25000000    2.84999990
   19.48250008  140.65899658    1.25000000    2.84999990
   19.48555565  141.37800598    1.25000000    2.84999990
   19.48888969  132.82000732    1.25000000    2.84999990
   19.49222183  135.89399719    1.25000000    2.82999992
   19.49472237  136.42900085    1.26999998    2.82999992
   19.49583435  132.56399536    1.26999998    2.84999990
   19.49888992  133.24699402    1.26999998    2.84999990
   19.50222206  128.26499939    1.26999998    2.84999990
   19.50555611  126.30500031    1.26999998    2.84999990
   19.50861168  128.74800110    1.28999996    2.84999990
   19.51472282  128.74800110    1.28999996    2.84999990
   19.51888847  128.90699768    1.30999994    2.84999990
   19.52194405  131.86399841    1.28999996    2.84999990
   19.52527809  133.22500610    1.28999996    2.84999990
   19.52805519  125.98899841    1.28999996    2.82999992
   19.52888870  130.54699707    1.30999994    2.84999990
   19.53194427  128.66799927    1.28999996    2.84999990
   19.53527641  129.33200073    1.30999994    2.84999990
   19.53861046  139.95799255    1.28999996    2.82999992
   19.54166603  131.01400757    1.30999994    2.84999990
   19.54500008  128.82099915    1.28999996    2.84999990
   19.54833221  127.52799988    1.30999994    2.82999992
   19.55138779  126.73699951    1.30999994    2.84999990
   19.55749893  126.73699951    1.28999996    2.82999992
   19.56166649  129.41900635    1.30999994    2.84999990
   19.56499863  122.09600067    1.30999994    2.84999990
   19.56805611  126.71600342    1.30999994    2.84999990
   19.57139015  127.98600006    1.30999994    2.84999990
   19.57472229  118.03199768    1.28999996    2.84999990
   19.57777786  129.81500244    1.30999994    2.84999990
   19.58111191  124.93099976    1.28999996    2.84999990
   19.58416748  123.70899963    1.28999996    2.84999990
   19.58750153  125.55100250    1.28999996    2.84999990
   19.59083366  123.55899811    1.28999996    2.84999990
   19.59388924  124.78600311    1.28999996    2.82999992
   19.59472275  126.25499725    1.28999996    2.82999992
   19.60027885  126.25499725    1.33000004    2.82999992
   19.60444450  127.25499725    1.33000004    2.84999990
   19.60777855  131.02299500    1.33000004    2.84999990
   19.61111069  130.19299316    1.33000004    2.84999990
   19.61416626  133.58999634    1.33000004    2.84999990
   19.61750031  126.99500275    1.33000004    2.84999990
   19.62083435  113.65599823    1.33000004    2.84999990
   19.62388992  115.34100342    1.34000003    2.82999992
   19.62722206  123.39700317    1.34000003    2.82999992
   19.62805557  130.30799866    1.34000003    2.82999992
   19.63083267  123.87200165    1.34000003    2.82999992
   19.63416672  127.04699707    1.36000001    2.82999992
   19.63722229  136.09800720    1.36000001    2.84999990
   19.64333344  136.09800720    1.36000001    2.82999992
   19.64749908  132.88800049    1.36000001    2.82999992
   19.65055466  134.54499817    1.36000001    2.82999992
   19.65388870  131.24600220    1.36000001    2.84999990
   19.65694427  129.27299500    1.36000001    2.82999992
   19.66027832  132.65800476    1.36000001    2.84999990
   19.66138840  122.45500183    1.36000001    2.84999990
   19.66388893  124.88600159    1.36000001    2.84999990
   19.66722107  123.77799988    1.36000001    2.82999992
   19.67027664  129.75300598    1.36000001    2.82999992
   19.67361069  129.68600464    1.38000000    2.82999992
   19.67666626  127.82900238    1.38000000    2.82999992
   19.68000031  126.78299713    1.38000000    2.82999992
   19.68610954  126.78299713    1.39999998    2.80999994
   19.69027710  125.33300018    1.41999996    2.82999992
   19.69333267  147.70700073    1.44000006    2.82999992
   19.69472122  128.74099731    1.44000006    2.82999992
   19.69722176  138.29600525    1.44000006    2.82999992
   19.70083427  131.00100708    1.46000004    2.82999992
   19.70388985  126.41999817    1.48000002    2.82999992
   19.70722389  134.53900146    1.48000002    2.82999992
   19.71055603  127.17600250    1.50000000    2.82999992
   19.71361160  132.94299316    1.50000000    2.82999992
   19.71694565  115.14299774    1.51999998    2.82999992
   19.72027779  126.70800018    1.51999998    2.82999992
   19.72333336  127.15499878    1.51999998    2.82999992
   19.72888947  127.15499878    1.51999998    2.82999992
   19.73305511  119.68099976    1.55999994    2.80999994
   19.73638916  123.63800049    1.58000004    2.80999994
   19.73944473  130.37600708    1.58000004    2.82999992
   19.74277878  126.01899719    1.61000001    2.82999992
   19.74583435  126.34300232    1.61000001    2.82999992
   19.74916649  134.23300171    1.63000000    2.80999994
   19.75250053  124.95300293    1.64999998    2.82999992
   19.75555611  129.62399292    1.64999998    2.80999994
   19.75888824  126.72399902    1.64999998    2.82999992
   19.76138878  133.95100403    1.66999996    2.82999992
   19.78222275  133.95100403    1.71000004    2.80999994
   19.78638840  124.95899963    1.71000004    2.80999994
   19.78944397  124.36699677    1.71000004    2.80999994
   19.79277802  123.23000336    1.76999998    2.80999994
   19.79472160  116.17700195    1.76999998    2.80999994
   19.79638863  117.07099915    1.76999998    2.80999994
   19.79972076  126.14299774    1.76999998    2.80999994
   19.80305481  126.91500092    1.78999996    2.82999992
   19.80611038  131.42199707    1.85000002    2.80999994
   19.80944443  117.43900299    1.86000001    2.80999994
   19.81250000  111.10500336    1.88000000    2.80999994
   19.81583214  127.44799805    1.89999998    2.80999994
   19.81916809  128.27499390    1.88000000    2.80999994
   19.82472229  128.27499390    1.89999998    2.80999994
   19.82888985  121.87599945    1.89999998    2.80999994
   19.83222389  128.57400513    1.91999996    2.80999994
   19.83555603  123.35900116    1.89999998    2.80999994
   19.83861160  117.42500305    1.89999998    2.80999994
   19.84194565  124.15200043    1.91999996    2.80999994
   19.84527779  120.65100098    1.91999996    2.78999996
   19.84833336  125.71900177    1.94000006    2.80999994
   19.85166740  123.78399658    1.94000006    2.80999994
   19.85499954  130.69000244    1.96000004    2.78999996
   19.85805511  127.99199677    2.00000000    2.78999996
   19.86138916  137.26100159    2.00000000    2.78999996
   19.86194420  123.18900299    2.00000000    2.78999996
   19.86777878  123.18900299    2.03999996    2.78999996
   19.87194443  130.05999756    2.07999992    2.78999996
   19.87500000  122.18499756    2.09999990    2.78999996
   19.87833405  122.57700348    2.09999990    2.78999996
   19.88166618  126.94699860    2.09999990    2.78999996
   19.88472176  129.42100525    2.11999989    2.78999996
   19.88805580  128.52499390    2.11999989    2.78999996
   19.89138794  119.75900269    2.11999989    2.78999996
   19.89444351  138.26199341    2.11999989    2.78999996
   19.89527702  137.02999878    2.13000011    2.78999996
   19.89805603  132.81100464    2.13000011    2.78999996
   19.90138817  129.82299805    2.13000011    2.78999996
   19.90472221  131.17700195    2.11999989    2.78999996
   19.91055489  131.17700195    2.11999989    2.78999996
   19.91472244  118.08599854    2.11999989    2.78999996
   19.91777802  133.97300720    2.11999989    2.78999996
   19.92111015  125.70200348    2.11999989    2.78999996
   19.92444420  122.67700195    2.11999989    2.78999996
   19.92749977  126.22599792    2.11999989    2.78999996
   19.92860985  120.33699799    2.09999990    2.78999996
   19.93111038  124.05400085    2.09999990    2.78999996
   19.93444443  123.21199799    2.11999989    2.78999996
   19.93777657  129.49499512    2.11999989    2.78999996
   19.94083214  129.23399353    2.11999989    2.78999996
   19.94416618  132.37300110    2.11999989    2.78999996
   19.94749832  130.70500183    2.13000011    2.78999996
   19.95333481  130.70500183    2.13000011    2.78999996
   19.95750046  122.67299652    2.11999989    2.78999996
   19.96083450  110.24299622    2.13000011    2.78999996
   19.96194458  117.80799866    2.11999989    2.78999996
   19.96444511  124.42700195    2.13000011    2.78999996
   19.96750069  125.98799896    2.13000011    2.78999996
   19.97083473  119.63500214    2.13000011    2.78999996
   19.97389030  122.67099762    2.13000011    2.78999996
   19.97722244  118.06099701    2.13000011    2.78999996
   19.98055649  122.25199890    2.13000011    2.78999996
   19.98361206  119.72899628    2.13000011    2.76999998
   19.98694420  118.20600128    2.15000010    2.78999996
   19.99027824  127.21600342    2.13000011    2.78999996
   19.99611092  127.21600342    2.15000010    2.78999996
   20.00027847  115.27999878    2.15000010    2.78999996
   20.00361061  125.56199646    2.15000010    2.78999996
   20.00694466  121.02700043    2.15000010    2.78999996
   20.01000023  127.31199646    2.15000010    2.78999996
   20.01333427  126.61799622    2.13000011    2.76999998
   20.01666641  127.33200073    2.13000011    2.78999996
   20.01972198  138.80200195    2.15000010    2.78999996
   20.02305603  126.11900330    2.15000010    2.78999996
   20.02611160  129.36599731    2.15000010    2.78999996
   20.02861023  126.77100372    2.17000008    2.78999996
   20.03000069  118.18399811    2.15000010    2.76999998
   20.03305435  133.26899719    2.17000008    2.78999996
   20.03916550  133.26899719    2.17000008    2.78999996
   20.04333305  127.57599640    2.17000008    2.78999996
   20.04638863  129.42300415    2.17000008    2.78999996
   20.04972076  123.01699829    2.19000006    2.78999996
   20.05277634  119.00299835    2.19000006    2.78999996
   20.05611038  121.38700104    2.19000006    2.76999998
   20.05944443  118.77300262    2.21000004    2.78999996
   20.06194305  122.13700104    2.25000000    2.76999998
   20.06305504  126.01799774    2.25000000    2.76999998
   20.06611061  122.33699799    2.32999992    2.76999998
   20.06944466  119.55799866    2.26999998    2.76999998
   20.07250023  123.59300232    2.28999996    2.76999998
   20.07583427  122.51100159    2.30999994    2.76999998
   20.08194542  122.51100159    2.25000000    2.78999996
   20.08611107  124.10600281    2.28999996    2.76999998
   20.08916664  138.83799744    2.25000000    2.76999998
   20.09250069  119.31500244    2.26999998    2.76999998
   20.09527779  121.40000153    2.26999998    2.76999998
   20.09638977  125.96199799    2.26999998    2.76999998
   20.09944534  111.11299896    2.28999996    2.78999996
   20.10277748  116.74199677    2.30999994    2.76999998
   20.10583305  128.15600586    2.30999994    2.76999998
   20.10916710  114.38899994    2.30999994    2.76999998
   20.11250114  126.12699890    2.30999994    2.76999998
   20.11555672  118.68499756    2.36999989    2.76999998
   20.11888885  116.24800110    2.36999989    2.76999998
   20.12472153  116.24800110    2.32999992    2.76999998
   20.12888908  127.72499847    2.34999990    2.76999998
   20.13222313  130.90600586    2.39000010    2.78999996
   20.13527679  145.72999573    2.36999989    2.76999998
   20.13861084  132.71499634    2.36999989    2.76999998
   20.14194489  134.59300232    2.40000010    2.76999998
   20.14500046  123.99800110    2.42000008    2.76999998
   20.14833260  136.64300537    2.40000010    2.76999998
   20.15138817  137.21099854    2.39000010    2.78999996
   20.15472221  136.43800354    2.36999989    2.76999998
   20.15805435  128.60899353    2.36999989    2.78999996
   20.16110992  138.76199341    2.36999989    2.76999998
   20.16194344  150.52999878    2.36999989    2.76999998
   20.16749954  150.52999878    2.36999989    2.76999998
   20.17166519  166.42199707    2.36999989    2.76999998
   20.17499924  157.05299377    2.36999989    2.76999998
   20.17833328  153.81300354    2.40000010    2.76999998
   20.18138885  144.22000122    2.40000010    2.76999998
   20.18472099  146.03999329    2.42000008    2.76999998
   20.18777657  164.77600098    2.42000008    2.75000000
   20.19111061  152.68299866    2.42000008    2.76999998
   20.19444275  164.65199280    2.44000006    2.76999998
   20.19527626  151.47999573    2.44000006    2.75000000
   20.19805527  141.44900513    2.44000006    2.76999998
   20.20111275  136.93200684    2.44000006    2.76999998
   20.20444489  158.64500427    2.44000006    2.75000000
   20.21055603  158.64500427    2.44000006    2.76999998
   20.21472359  152.96899414    2.46000004    2.76999998
   20.21777916  166.06700134    2.46000004    2.76999998
   20.22111130  151.34700012    2.46000004    2.75000000
   20.22416687  153.64900208    2.46000004    2.76999998
   20.22750092  165.84100342    2.46000004    2.75000000
   20.22861099  150.07200623    2.48000002    2.75000000
   20.23139000  168.62800598    2.48000002    2.75000000
   20.23444557  168.53999329    2.48000002    2.75000000
   20.23777771  171.92100525    2.46000004    2.75000000
   20.24111176  169.46600342    2.46000004    2.76999998
   20.24416733  161.33299255    2.48000002    2.75000000
   20.24749947  169.33999634    2.48000002    2.75000000
   20.25333405  169.33999634    2.50000000    2.75000000
   20.25749969  153.03799438    2.51999998    2.75000000
   20.26055527  161.44500732    2.51999998    2.75000000
   20.26194382  151.71899414    2.55999994    2.75000000
   20.26444435  165.32800293    2.53999996    2.75000000
   20.26749992  172.31799316    2.57999992    2.75000000
   20.27083397  166.21699524    2.59999990    2.75000000
   20.27416611  157.44500732    2.61999989    2.75000000
   20.27722168  152.22700500    2.64000010    2.75000000
   20.28055573  174.80999756    2.64000010    2.75000000
   20.28361130  144.45199585    2.64000010    2.75000000
   20.28694344  156.70700073    2.64000010    2.75000000
   20.29027748  161.79600525    2.66000009    2.75000000
   20.29611015  161.79600525    2.67000008    2.75000000
   20.30027771  153.95700073    2.69000006    2.75000000
   20.30360985  162.47200012    2.69000006    2.75000000
   20.30666542  144.22099304    2.71000004    2.73000002
   20.30999947  151.24800110    2.73000002    2.75000000
   20.31333351  148.49800110    2.73000002    2.75000000
   20.31638718  147.46099854    2.73000002    2.73000002
   20.31972313  147.77699280    2.75000000    2.73000002
   20.32277870  147.79400635    2.75000000    2.73000002
   20.32611275  148.43099976    2.76999998    2.75000000
   20.32861137  147.01899719    2.78999996    2.73000002
   20.33000183  149.26199341    2.78999996    2.75000000
   20.33305550  159.24600220    2.80999994    2.75000000
   20.33889008  159.24600220    2.82999992    2.73000002
   20.34305573  142.62500000    2.84999990    2.73000002
   20.34638977  139.16999817    2.82999992    2.73000002
   20.34972191  143.20199585    2.78999996    2.73000002
   20.35277748  141.79100037    2.78999996    2.73000002
   20.35611153  160.62899780    2.76999998    2.75000000
   20.35916710  147.42999268    2.76999998    2.73000002
   20.36194420  141.99000549    2.76999998    2.75000000
   20.36305618  145.07899475    2.75000000    2.73000002
   20.36611176  135.81900024    2.76999998    2.73000002
   20.36944389  135.79699707    2.76999998    2.73000002
   20.37277794  144.87500000    2.75000000    2.73000002
   20.37583351  136.37500000    2.76999998    2.73000002
   20.38194466  136.37500000    2.80999994    2.73000002
   20.38611031  137.45700073    2.80999994    2.73000002
   20.38916588  143.34199524    2.80999994    2.73000002
   20.39249992  130.83599854    2.80999994    2.73000002
   20.39527702  141.03700256    2.80999994    2.73000002
   20.39611053  131.07400513    2.80999994    2.73000002
   20.39916611  132.58599854    2.82999992    2.73000002
   20.40250015  142.05000305    2.82999992    2.75000000
   20.40583229  144.34100342    2.82999992    2.75000000
   20.40888786  135.48699951    2.91000009    2.73000002
   20.41222191  132.77299500    2.91000009    2.73000002
   20.41527748  141.95700073    2.93000007    2.73000002
   20.41860962  133.77099609    2.91000009    2.73000002
   20.42472076  133.77099609    2.86999989    2.73000002
   20.42888832  123.05799866    2.89000010    2.73000002
   20.43194389  137.45300293    2.91000009    2.73000002
   20.43527603  160.16900635    2.94000006    2.71000004
   20.43861008  154.62100220    2.96000004    2.73000002
   20.44166565  153.23500061    2.94000006    2.73000002
   20.44499969  141.68600464    2.94000006    2.73000002
   20.44833183  140.68699646    2.94000006    2.73000002
   20.45138931  149.56100464    2.94000006    2.71000004
   20.45472336  145.68800354    2.96000004    2.71000004
   20.45777893  151.58000183    2.94000006    2.73000002
   20.46111107  153.22399902    2.96000004    2.73000002
   20.46194458  166.13800049    2.96000004    2.71000004
   20.46750069  166.13800049    2.98000002    2.71000004
   20.47166634  150.98199463    2.98000002    2.73000002
   20.47500038  139.23399353    2.98000002    2.71000004
   20.47805595  132.59300232    2.98000002    2.73000002
   20.48139000  145.38299561    3.00000000    2.71000004
   20.48472214  143.38000488    2.98000002    2.71000004
   20.48777771  136.26699829    2.98000002    2.71000004
   20.49111176  147.77099609    2.98000002    2.71000004
   20.49444389  132.71099854    2.98000002    2.71000004
   20.49527740  141.28500366    2.98000002    2.71000004
   20.49805641  140.06399536    2.98000002    2.71000004
   20.50111198  150.66799927    2.98000002    2.71000004
   20.50444412  137.75000000    2.98000002    2.71000004
   20.51027870  137.75000000    2.98000002    2.71000004
   20.51444435  143.58000183    2.98000002    2.71000004
   20.51777840  134.19999695    3.00000000    2.71000004
   20.52083397  150.77699280    3.00000000    2.71000004
   20.52416611  143.78399658    3.00000000    2.71000004
   20.52750015  129.72099304    3.01999998    2.71000004
   20.52861023  127.78800201    3.00000000    2.71000004
   20.53111076  135.21800232    3.01999998    2.71000004
   20.53416634  135.45199585    3.01999998    2.71000004
   20.53750038  129.89900208    3.03999996    2.71000004
   20.54083252  126.74900055    3.07999992    2.69000006
   20.54388809  147.82299805    3.07999992    2.71000004
   20.54722214  121.74099731    3.09999990    2.71000004
   20.55333328  121.74099731    3.16000009    2.71000004
   20.55722237  129.70700073    3.18000007    2.69000006
   20.56055450  128.36399841    3.20000005    2.69000006
   20.56194305  134.85800171    3.20000005    2.69000006
   20.56416512  144.35000610    3.21000004    2.69000006
   20.56722260  144.96499634    3.21000004    2.69000006
   20.57055664  136.42199707    3.23000002    2.69000006
   20.57389069  135.56300354    3.25000000    2.69000006
   20.57694626  159.62300110    3.25000000    2.69000006
   20.58027840  146.72399902    3.26999998    2.71000004
   20.58361244  145.66200256    3.28999996    2.71000004
   20.58666801  150.93200684    3.28999996    2.69000006
   20.59000015  143.06500244    3.30999994    2.69000006
   20.59611130  143.06500244    3.34999990    2.69000006
   20.60027885  153.26199341    3.34999990    2.69000006
   20.60333443  142.78100586    3.34999990    2.69000006
   20.60666656  160.69299316    3.36999989    2.69000006
   20.61000061  152.17599487    3.34999990    2.69000006
   20.61305618  145.49699402    3.34999990    2.69000006
   20.61638832  153.73699951    3.34999990    2.69000006
   20.61944389  155.66600037    3.36999989    2.69000006
   20.62277794  157.22300720    3.36999989    2.69000006
   20.62611198  149.53799438    3.36999989    2.69000006
   20.62861061  151.59300232    3.39000010    2.69000006
   20.62972260  133.96299744    3.39000010    2.69000006
   20.63277817  158.64900208    3.36999989    2.69000006
   20.63888931  158.64900208    3.28999996    2.69000006
   20.64305496  157.20199585    3.26999998    2.69000006
   20.64638901  161.72999573    3.26999998    2.69000006
   20.64944458  146.78100586    3.26999998    2.69000006
   20.65277672  146.48699951    3.26999998    2.71000004
   20.65611076  153.67799377    3.25000000    2.71000004
   20.65916634  139.08700562    3.25000000    2.71000004
   20.66194344  157.30999756    3.23000002    2.71000004
   20.66305542  153.33799744    3.25000000    2.69000006
   20.66611099  133.59800720    3.25000000    2.69000006
   20.66944313  140.53399658    3.25000000    2.69000006
   20.67277718  145.75300598    3.30999994    2.69000006
   20.67583275  146.99099731    3.30999994    2.69000006
   20.68166542  146.99099731    3.34999990    2.69000006
   20.68583298  147.43200684    3.39000010    2.69000006
   20.68916512  144.33399963    3.43000007    2.69000006
   20.69222069  148.12500000    3.45000005    2.67000008
   20.69527626  154.11000061    3.48000002    2.69000006
   20.69610977  149.47500610    3.50000000    2.67000008
   20.69916534  143.87600708    3.51999998    2.69000006
   20.70250130  150.73800659    3.53999996    2.67000008
   20.70583344  139.71200562    3.55999994    2.67000008
   20.70888901  137.78500366    3.57999992    2.67000008
   20.71222305  133.92799377    3.59999990    2.67000008
   20.71555710  149.18899536    3.59999990    2.67000008
   20.71861076  133.65899658    3.61999989    2.67000008
   20.72472191  133.65899658    3.64000010    2.67000008
   20.72861099  142.13099670    3.66000009    2.67000008
   20.73194504  132.12100220    3.64000010    2.67000008
   20.73527718  139.60600281    3.64000010    2.67000008
   20.73833275  163.18699646    3.66000009    2.66000009
   20.74166679  156.08500671    3.64000010    2.67000008
   20.74500084  155.64900208    3.66000009    2.66000009
   20.74805641  161.20199585    3.66000009    2.66000009
   20.75138855  157.68600464    3.66000009    2.67000008
   20.75444412  162.50900269    3.66000009    2.66000009
   20.75777817  161.08999634    3.66000009    2.67000008
   20.76111031  151.46299744    3.68000007    2.66000009
   20.76194382  144.26400757    3.68000007    2.67000008
   20.76749992  144.26400757    3.68000007    2.67000008
   20.77166557  158.79600525    3.70000005    2.67000008
   20.77472115  160.56900024    3.70000005    2.67000008
   20.77805519  162.27600098    3.72000003    2.66000009
   20.79555511  166.84399414    3.73000002    2.66000009
   20.79805565  171.07200623    3.75000000    2.64000010
   20.80111122  176.99099731    3.75000000    2.66000009
   20.80444336  161.50399780    3.75000000    2.66000009
   20.81055450  161.50399780    3.80999994    2.66000009
   20.81472206  197.15800476    3.86999989    2.64000010
   20.81777954  187.91400146    3.89000010    2.64000010
   20.82111168  200.09100342    3.91000009    2.64000010
   20.82444572  189.69500732    3.91000009    2.66000009
   20.82750130  198.94900513    3.91000009    2.64000010
   20.82888985  210.28199768    3.93000007    2.64000010
   20.83139038  179.40899658    3.95000005    2.64000010
   20.83444595  182.52099609    3.97000003    2.64000010
   20.83777809  166.51300049    4.00000000    2.64000010
   20.84111214  177.63900757    4.01999998    2.64000010
   20.84416771  164.31199646    4.05999994    2.64000010
   20.84749985  184.18200684    4.09999990    2.64000010
   20.85333443  184.18200684    4.13999987    2.64000010
   20.85750008  189.16200256    4.19999981    2.61999989
   20.86083412  170.49600220    4.21999979    2.64000010
   20.86222267  172.87699890    4.23999977    2.64000010
   20.86444473  158.38800049    4.23999977    2.64000010
   20.86750031  188.80900574    4.23999977    2.64000010
   20.87083435  206.03700256    4.26000023    2.64000010
   20.87388992  205.93699646    4.26999998    2.61999989
   20.87722206  158.08500671    4.28999996    2.61999989
   20.88055611  158.79400635    4.30999994    2.64000010
   20.88361168  195.33000183    4.30999994    2.64000010
   20.88694382  177.88299561    4.32999992    2.61999989
   20.89027786  208.51699829    4.34999990    2.61999989
   20.89611053  208.51699829    4.36999989    2.61999989
   20.90027809  196.82000732    4.38999987    2.61999989
   20.90361023  171.89300537    4.40999985    2.61999989
   20.90666580  177.69900513    4.40999985    2.61999989
   20.90999985  212.77200317    4.40999985    2.61999989
   20.91333389  168.04299927    4.42999983    2.61999989
   20.91666603  178.29299927    4.42999983    2.61999989
   20.91972160  189.55499268    4.44999981    2.61999989
   20.92305565  197.37800598    4.44999981    2.61999989
   20.92611122  186.48800659    4.46999979    2.61999989
   20.92888832  190.84500122    4.48999977    2.61999989
   20.92972183  182.25700378    4.48999977    2.61999989
   20.93305397  171.67399597    4.46999979    2.59999990
   20.93888855  171.67399597    4.48999977    2.61999989
   20.94305420  204.72900391    4.51000023    2.61999989
   20.94638824  237.66700745    4.51000023    2.61999989
   20.94972038  234.52499390    4.53000021    2.61999989
   20.95277786  253.22900391    4.53000021    2.61999989
   20.95611191  216.56500244    4.53000021    2.59999990
   20.95944595  298.57800293    4.53000021    2.61999989
   20.96222305  289.77200317    4.53999996    2.59999990
   20.96277809  265.63699341    4.53999996    2.59999990
   20.96611214  255.56799316    4.53999996    2.61999989
   20.96944427  246.97200012    4.53999996    2.59999990
   20.97249985  235.00999451    4.55999994    2.61999989
   20.97583389  251.41299438    4.55999994    2.59999990
   20.98194504  251.41299438    4.55999994    2.59999990
   20.98611069  240.29299927    4.57999992    2.59999990
   20.98916626  275.14999390    4.57999992    2.59999990
   20.99250031  254.90499878    4.59999990    2.61999989
   20.99555588  235.24400330    4.59999990    2.59999990
   20.99611092  261.05499268    4.59999990    2.59999990
   20.99944496  212.86300659    4.61999989    2.59999990
   21.00277710  235.29699707    4.59999990    2.59999990
   21.00611115  205.83999634    4.61999989    2.59999990
   21.00916672  205.80499268    4.63999987    2.59999990
   21.01250076  183.38499451    4.63999987    2.59999990
   21.01583290  121.62699890    4.65999985    2.57999992
   21.01888847  142.68800354    4.69999981    2.57999992
   21.02472115  142.68800354    4.69999981    2.59999990
   21.02916718  136.00999451    4.73999977    2.57999992
   21.03277779  194.16000366    4.76000023    2.57999992
   21.03610992   -1.00000000    4.76000023    2.57999992
   21.03944397   -1.00000000    4.76000023    2.57999992
   21.04361153   -1.00000000    4.78000021    2.57999992
   21.04805565   -1.00000000    4.78000021    2.57999992
   21.05138779   -1.00000000    4.78000021    2.57999992
   21.05527687   -1.00000000    4.80000019    2.57999992
   21.05861092   -1.00000000    4.80000019    2.57999992
   21.06250000   -1.00000000    4.80000019    2.57999992
   21.07166672   -1.00000000    4.80000019    2.57999992
   21.07500076   -1.00000000    4.80000019    2.57999992
   21.07805634   -1.00000000    4.80000019    2.57999992
   21.08139038   -1.00000000    4.80000019    2.57999992
   21.08472252   -1.00000000    4.80000019    2.57999992
   21.08805656   -1.00000000    4.80000019    2.57999992
   21.09111214   -1.00000000    4.80000019    2.57999992
   21.09444427   -1.00000000    4.80000019    2.57999992
   21.09805679   -1.00000000    4.80000019    2.57999992
   21.10111237   -1.00000000    4.80000019    2.57999992
   21.10444450   -1.00000000    4.80999994    2.57999992
   21.11472321   -1.00000000    4.80999994    2.57999992
   21.11805534   -1.00000000    4.80999994    2.55999994
   21.12111092   -1.00000000    4.80999994    2.55999994
   21.12444496   -1.00000000    4.80999994    2.55999994
   21.12777710   -1.00000000    4.80999994    2.55999994
   21.13138962   -1.00000000    4.80999994    2.57999992
   21.13472176   -1.00000000    4.80999994    2.57999992
   21.13777733   -1.00000000    4.80000019    2.55999994
   21.14111137   -1.00000000    4.80000019    2.55999994
   21.14527702   -1.00000000    4.80000019    2.55999994
   21.14861107   -1.00000000    4.80000019    2.55999994
   21.15749931   -1.00000000    4.78000021    2.55999994
   21.16083336   -1.00000000    4.78000021    2.55999994
   21.16472244   -1.00000000    4.78000021    2.55999994
   21.16777802   -1.00000000    4.78000021    2.55999994
   21.17111015   -1.00000000    4.76000023    2.55999994
   21.17444420   -1.00000000    4.78000021    2.55999994
   21.17777634   -1.00000000    4.76000023    2.55999994
   21.18111038   -1.00000000    4.78000021    2.53999996
   21.18444443   -1.00000000    4.80000019    2.55999994
   21.18777657   -1.00000000    4.80000019    2.53999996
   21.19111061   -1.00000000    4.80000019    2.53999996
   21.20027924   -1.00000000    4.80999994    2.55999994
   21.20361137   -1.00000000    4.82999992    2.53999996
