    HOUR (UT)   FLARE FACTOR    SKY TESTER    SUN TESTER
   11.34416676   -1.00000000   -1.00000000   -1.00000000
   11.39750004  204.03300476    3.16000009    2.15000010
   11.40083313  176.49000549    3.16000009    2.15000010
   11.40388870  205.88400269    3.14000010    2.15000010
   11.40722179  172.91099548    3.16000009    2.13000011
   11.41027737  191.82200623    3.14000010    2.15000010
   11.41361046  185.23699951    3.16000009    2.15000010
   11.41777802  185.23699951    3.16000009    2.15000010
   11.42194462  158.91000366    3.14000010    2.15000010
   11.42500019  188.61500549    3.14000010    2.17000008
   11.42833328  191.44900513    3.14000010    2.15000010
   11.43083382  176.47700500    3.14000010    2.15000010
   11.43194485  189.45799255    3.14000010    2.15000010
   11.43527794  195.30000305    3.14000010    2.15000010
   11.43861103  169.93899536    3.16000009    2.17000008
   11.44166660  166.87100220    3.14000010    2.17000008
   11.44499969  173.29400635    3.14000010    2.15000010
   11.44833374  203.04600525    3.11999989    2.17000008
   11.45138836  159.24200439    3.14000010    2.15000010
   11.45472240  170.19000244    3.11999989    2.17000008
   11.46055508  170.19000244    3.11999989    2.17000008
   11.46472168  195.70599365    3.14000010    2.17000008
   11.46805477  178.43099976    3.14000010    2.17000008
   11.47194386  187.30499268    3.14000010    2.17000008
   11.47499943  173.94900513    3.16000009    2.17000008
   11.47833252  159.89999390    3.18000007    2.17000008
   11.48166656  182.78300476    3.18000007    2.17000008
   11.48472214  175.29899597    3.20000005    2.17000008
   11.48805618  191.95199585    3.21000004    2.17000008
   11.49111176  151.15499878    3.21000004    2.17000008
   11.49444485  171.36099243    3.23000002    2.17000008
   11.49750042  179.97599792    3.25000000    2.17000008
   11.49805546  170.47099304    3.25000000    2.17000008
   11.50333309  170.47099304    3.30999994    2.17000008
   11.50749969  172.05299377    3.32999992    2.17000008
   11.51083374  183.92599487    3.34999990    2.17000008
   11.51416683  179.56799316    3.36999989    2.17000008
   11.51722240  169.94400024    3.39000010    2.17000008
   11.52055550  185.95300293    3.41000009    2.17000008
   11.52361107  174.12600708    3.45000005    2.17000008
   11.52694416  188.67700195    3.48000002    2.15000010
   11.53027725  181.17500305    3.51999998    2.15000010
   11.53083324  207.89300537    3.51999998    2.15000010
   11.53361130  201.52299500    3.55999994    2.15000010
   11.53694534  189.41400146    3.59999990    2.15000010
   11.54027843  179.92999268    3.61999989    2.15000010
   11.54638958  179.92999268    3.64000010    2.15000010
   11.55055618  193.58999634    3.59999990    2.15000010
   11.55361176  152.61099243    3.55999994    2.15000010
   11.55694485  177.95500183    3.50000000    2.17000008
   11.56000042  174.81900024    3.46000004    2.19000006
   11.56333351  148.64399719    3.41000009    2.21000004
   11.56416702  161.65699768    3.39000010    2.19000006
   11.56722260  152.69500732    3.32999992    2.21000004
   11.57027817  170.96299744    3.26999998    2.19000006
   11.57361126  173.03999329    3.20000005    2.21000004
   11.57666683  159.82800293    3.11999989    2.21000004
   11.57999992  162.50300598    3.07999992    2.23000002
   11.58333302  176.79400635    3.03999996    2.23000002
   11.58916664  176.79400635    2.98000002    2.23000002
   11.59333324  167.62800598    2.94000006    2.25000000
   11.59638882  179.48899841    2.91000009    2.23000002
   11.59749985  174.53399658    2.91000009    2.23000002
   11.60027790  173.95500183    2.89000010    2.23000002
   11.60333347  153.44999695    2.89000010    2.23000002
   11.60666752  180.40800476    2.89000010    2.23000002
   11.60972214  144.32000732    2.89000010    2.23000002
   11.61305618  171.80400085    2.91000009    2.23000002
   11.61638927  183.47999573    2.91000009    2.25000000
   11.61944485  180.14399719    2.93000007    2.23000002
   11.62277794  177.25999451    2.94000006    2.23000002
   11.62611103  175.48500061    2.94000006    2.23000002
   11.63194466  175.48500061    2.96000004    2.23000002
   11.63611126  201.07099915    2.96000004    2.23000002
   11.63944435  209.76499939    2.96000004    2.25000000
   11.64249992  199.39599609    2.96000004    2.23000002
   11.64583302  193.39500427    2.96000004    2.25000000
   11.64888859  199.22099304    2.98000002    2.25000000
   11.65222168  216.83799744    2.98000002    2.25000000
   11.65555477  206.15600586    2.98000002    2.25000000
   11.65861034  178.20799255    3.00000000    2.25000000
   11.66194439  178.21000671    3.00000000    2.25000000
   11.66416645  186.19799805    3.01999998    2.26999998
   11.66555500  156.30599976    3.03999996    2.26999998
   11.66888905  187.46299744    3.07999992    2.26999998
   11.67472267  187.46299744    3.18000007    2.28999996
   11.67888927  202.77499390    3.30999994    2.26999998
   11.68222237  192.80099487    3.32999992    2.28999996
   11.68527794  194.89999390    3.32999992    2.26999998
   11.68861103  176.39100647    3.34999990    2.26999998
   11.69194412  180.72599792    3.34999990    2.25000000
   11.69499969  197.50799561    3.45000005    2.25000000
   11.69750023  178.32000732    3.70000005    2.25000000
   11.69861126  186.25999451    3.91000009    2.21000004
   11.70194435  178.30900574    3.57999992    2.23000002
   11.70527744  196.22099304    3.21000004    2.23000002
   11.70833302  164.42799377    3.05999994    2.26999998
   11.71166611  162.26499939    2.96000004    2.26999998
   11.71777725  162.26499939    2.80999994    2.28999996
   11.72166634  170.29299927    2.73000002    2.28999996
   11.72499943  164.80700684    2.71000004    2.28999996
   11.72833252  187.10499573    2.67000008    2.28999996
   11.73083305  175.36700439    2.66000009    2.28999996
   11.73166656  165.26400757    2.67000008    2.28999996
   11.73500061  174.90800476    2.66000009    2.28999996
   11.73833370  152.50399780    2.67000008    2.28999996
   11.74138927  168.45199585    2.69000006    2.28999996
   11.74472237  165.23100281    2.73000002    2.28999996
   11.74805546  169.07200623    2.80999994    2.30999994
   11.75111103  158.84599304    3.11999989    2.30999994
   11.75444412  174.00500488    3.76999998    2.30999994
   11.76055527  174.00500488    3.75000000    2.32999992
   11.76472187  170.68400574    3.21000004    2.32999992
   11.76777744  162.61099243    3.14000010    2.28999996
   11.77111053  177.32499695    3.11999989    2.28999996
   11.77444458  172.74600220    3.05999994    2.28999996
   11.77750015  178.60499573    3.05999994    2.26999998
   11.78083324  168.43899536    3.05999994    2.26999998
   11.78416729  194.31799316    3.03999996    2.26999998
   11.78722286  150.61599731    3.01999998    2.28999996
   11.79055595  179.28199768    3.00000000    2.28999996
   11.79361153  178.26100159    3.00000000    2.28999996
   11.79694462  150.20399475    2.98000002    2.28999996
   11.79750061  183.07699585    3.00000000    2.28999996
   11.80333328  183.07699585    2.96000004    2.28999996
   11.80749989  166.80700684    2.94000006    2.28999996
   11.81083393  157.31199646    2.94000006    2.28999996
   11.81388950  172.04899597    2.96000004    2.28999996
   11.81722260  177.86999512    2.94000006    2.28999996
   11.82027817  166.06700134    2.94000006    2.28999996
   11.82361126  147.21499634    2.96000004    2.30999994
   11.82694435  159.76800537    3.05999994    2.32999992
   11.82999992  165.62699890    3.86999989    2.32999992
   11.83083344  177.69999695    4.32999992    2.32999992
   11.83388901  267.88598633    4.90999985    2.34999990
   11.83694458  135.07800293    4.90999985    2.11999989
   11.84027767  355.18701172    4.90999985    1.83000004
   11.84222221   76.68180084    4.90999985    2.00000000
   11.84249973  166.06700134    2.94000006    2.28999996
   11.84249973  147.21499634    2.96000004    2.30999994
   11.84249973  159.76800537    3.05999994    2.32999992
   11.84277725  165.62699890    3.86999989    2.32999992
   11.84277725  267.88598633    4.90999985    2.34999990
   11.84277725  135.07800293    4.90999985    2.11999989
   11.84305477  355.18701172    4.90999985    1.83000004
   11.84305477  172.04899597    2.96000004    2.28999996
   11.84305477  177.86999512    2.94000006    2.28999996
   11.84749985  177.86999512    4.90999985    1.94000006
   11.85166740  141.24200439    4.90999985    1.71000004
   11.85472298  222.04899597    4.90999985    2.01999998
   11.85805607  173.50999451    4.90999985    2.23000002
   11.86111164  169.34100342    4.90999985    2.40000010
   11.86444473  159.96099854    4.90999985    2.40000010
   11.86777782  169.01699829    4.90999985    2.40000010
   11.87083340  171.72999573    4.90999985    2.42000008
   11.87416649  159.05299377    4.90999985    2.40000010
   11.87611103  146.33900452    4.90999985    2.40000010
   11.87777805  153.10200500    4.90999985    2.39000010
   11.88083363  168.41200256    4.90999985    2.36999989
   11.88416672  176.72999573    4.90999985    2.34999990
   11.89027786  176.72999573    3.28999996    2.32999992
   11.89416695  152.71800232    2.76999998    2.34999990
   11.89750004  168.42100525    2.71000004    2.32999992
   11.90083313  150.31900024    2.71000004    2.34999990
   11.90388870  163.28599548    2.75000000    2.34999990
   11.90722179  159.84300232    2.76999998    2.34999990
   11.90944386  159.15299988    2.78999996    2.34999990
   11.91083336  163.57899475    2.80999994    2.34999990
   11.91416645  158.45100403    2.84999990    2.34999990
   11.91722298  152.77799988    2.93000007    2.34999990
   11.92055607  153.65499878    3.01999998    2.34999990
   11.92361164  163.37699890    3.16000009    2.32999992
   11.92694473  161.69000244    3.32999992    2.32999992
   11.93305588  161.69000244    3.50000000    2.32999992
   11.93722248  162.33999634    3.64000010    2.30999994
   11.94027805  236.25000000    3.89000010    2.21000004
   11.94277763  161.69900513    4.48999977    2.13000011
   11.94416714  163.57899475    4.69999981    2.15000010
   11.94750023  163.60099792    4.90999985    2.28999996
   11.95055580  151.36099243    4.90999985    2.28999996
   11.95388889  158.40199280    3.93000007    2.28999996
   11.95694447  173.46400452    3.21000004    2.26999998
   11.96027756  152.31300354    2.86999989    2.39000010
   11.96361065  136.15899658    2.66000009    2.34999990
   11.96666622  156.98699951    2.55999994    2.36999989
   11.96999931  144.20100403    2.48000002    2.36999989
   11.97583294  144.20100403    2.32999992    2.39000010
   11.97999954  144.78199768    2.21000004    2.40000010
   11.98333359  129.93499756    2.17000008    2.40000010
   11.98638916  156.86799622    2.11999989    2.40000010
   11.98972225  120.58599854    2.09999990    2.40000010
   11.99277782  141.93200684    2.07999992    2.40000010
   11.99611092  144.70100403    2.05999994    2.40000010
   11.99944496  127.21299744    2.07999992    2.40000010
   12.00249958  141.52000427    2.07999992    2.40000010
   12.00583363  130.49499512    2.09999990    2.40000010
   12.00916672  135.42799377    2.11999989    2.40000010
   12.01083374  121.28900146    2.13000011    2.40000010
   12.01277733  126.40699768    2.15000010    2.40000010
   12.01861095  126.40699768    2.19000006    2.39000010
   12.02277756  137.85699463    2.23000002    2.39000010
   12.02611065  144.61799622    2.26999998    2.39000010
   12.02916622  144.82000732    2.28999996    2.39000010
   12.03249931  128.51100159    2.32999992    2.39000010
   12.03583336  150.10000610    2.34999990    2.39000010
   12.03888893  151.71400452    2.36999989    2.39000010
   12.04222298  121.69200134    2.36999989    2.40000010
   12.04416752  143.58099365    2.39000010    2.40000010
   12.04583359  140.18200684    2.39000010    2.40000010
   12.04916668  136.33200073    2.39000010    2.39000010
   12.05222225  138.18800354    2.36999989    2.39000010
   12.05555534  126.51699829    2.34999990    2.39000010
   12.06166649  126.51699829    2.32999992    2.40000010
   12.06555557  129.22999573    2.30999994    2.40000010
   12.06888866  131.97599792    2.30999994    2.40000010
   12.07222176  139.32800293    2.30999994    2.40000010
   12.07527733  136.88000488    2.30999994    2.40000010
   12.07777786  134.22999573    2.30999994    2.40000010
   12.07916641  119.84500122    2.30999994    2.40000010
   12.08222198  126.62999725    2.32999992    2.42000008
   12.08555508  118.30899811    2.32999992    2.39000010
   12.08888817  141.27699280    2.34999990    2.40000010
   12.09194374  121.75199890    2.36999989    2.40000010
   12.09527779  131.35499573    2.39000010    2.40000010
   12.09833336  127.77200317    2.36999989    2.42000008
   12.10444450  127.77200317    2.36999989    2.39000010
   12.10861111  119.98799896    2.36999989    2.40000010
   12.11111164  126.31300354    2.36999989    2.40000010
   12.11222267  117.26699829    2.36999989    2.40000010
   12.11527824  127.51100159    2.36999989    2.40000010
   12.11861134  125.43099976    2.39000010    2.40000010
   12.12166691  138.69900513    2.39000010    2.40000010
   12.12500000  132.89300537    2.40000010    2.40000010
   12.12833309  140.16999817    2.40000010    2.40000010
   12.13138866  132.67799377    2.40000010    2.40000010
   12.13472176  130.46800232    2.40000010    2.40000010
   12.13805580  132.38099670    2.42000008    2.42000008
   12.14111137  147.05999756    2.42000008    2.42000008
   12.14722252  147.05999756    2.46000004    2.40000010
   12.15138817  140.77299500    2.48000002    2.40000010
   12.15472221  149.46899414    2.48000002    2.40000010
   12.15777779  139.55799866    2.50000000    2.40000010
   12.16111088  149.39199829    2.50000000    2.42000008
   12.16416645  114.40499878    2.50000000    2.40000010
   12.16750050  141.42700195    2.50000000    2.39000010
   12.17083359  124.95099640    2.50000000    2.40000010
   12.17388916  144.71400452    2.48000002    2.40000010
   12.17722225  118.39399719    2.46000004    2.42000008
   12.17805576  131.71400452    2.44000006    2.40000010
   12.18083382  136.58700562    2.42000008    2.40000010
   12.18416691  142.14300537    2.39000010    2.40000010
   12.19000053  142.14300537    2.30999994    2.42000008
   12.19416714  108.35199738    2.25000000    2.42000008
   12.19750023  135.30599976    2.19000006    2.42000008
   12.20055580  139.63699341    2.15000010    2.46000004
   12.20388889  146.04800415    2.09999990    2.44000006
   12.20722198  137.09399414    2.05999994    2.44000006
   12.21027756  122.41100311    2.01999998    2.44000006
   12.21138859  132.61900330    2.01999998    2.46000004
   12.21388912  119.83000183    2.00000000    2.46000004
   12.21722221  115.71700287    1.96000004    2.44000006
   12.22027779  117.25700378    1.96000004    2.46000004
   12.22361088  137.07400513    1.94000006    2.46000004
   12.22666645  136.57499695    1.91999996    2.46000004
   12.23305511  136.57499695    1.89999998    2.46000004
   12.23722267  124.81400299    1.89999998    2.46000004
   12.24027824  128.34700012    1.89999998    2.46000004
   12.24361134  143.91999817    1.91999996    2.46000004
   12.24499989  138.10299683    1.89999998    2.46000004
   12.24722290  132.01899719    1.89999998    2.46000004
   12.25027752  142.51199341    1.89999998    2.44000006
   12.25361156  144.05499268    1.94000006    2.46000004
   12.25694466  128.96800232    1.94000006    2.46000004
   12.26000023  129.29100037    1.96000004    2.46000004
   12.26333332  148.21000671    1.96000004    2.46000004
   12.26666641  143.09599304    1.98000002    2.44000006
   12.26972198  149.69200134    1.98000002    2.46000004
   12.27583313  149.69200134    2.00000000    2.46000004
   12.27999973  125.93699646    1.98000002    2.46000004
   12.28305531  137.19500732    2.00000000    2.46000004
   12.28638935  127.43800354    2.00000000    2.44000006
   12.28972244  126.03900146    2.00000000    2.48000002
   12.29277802  110.68000031    2.00000000    2.46000004
   12.29611111  109.42800140    2.00000000    2.46000004
   12.29916668  140.41099548    2.00000000    2.44000006
   12.30249977  124.25599670    2.00000000    2.46000004
   12.30583382  145.59100342    2.00000000    2.46000004
   12.30888939  139.16299438    2.00000000    2.46000004
   12.31166649  149.15199280    2.00000000    2.46000004
   12.31277752  143.58200073    2.00000000    2.46000004
   12.31861115  143.58200073    2.01999998    2.46000004
   12.32277775  137.25700378    2.01999998    2.46000004
   12.32611084  129.99800110    2.01999998    2.46000004
   12.32916641  116.86000061    2.03999996    2.46000004
   12.33249950  145.15600586    2.05999994    2.46000004
   12.33583260  115.72799683    2.05999994    2.46000004
   12.33888817  120.11799622    2.05999994    2.46000004
   12.34222221  123.35500336    2.05999994    2.46000004
   12.34499931  126.03199768    2.07999992    2.48000002
   12.34583282  141.99499512    2.07999992    2.48000002
   12.34888840  117.37899780    2.05999994    2.46000004
   12.35222244  126.01499939    2.07999992    2.48000002
   12.35555553  106.37699890    2.07999992    2.48000002
   12.36138916  106.37699890    2.07999992    2.48000002
   12.36555576  137.19299316    2.07999992    2.46000004
   12.36888885  113.71700287    2.09999990    2.46000004
   12.37194443  138.43800354    2.09999990    2.48000002
   12.37527752  121.54699707    2.09999990    2.48000002
   12.37833309  126.68800354    2.30999994    2.48000002
   12.37888908  123.72299957    2.57999992    2.48000002
   12.38194466   -1.00000000    4.67999983    2.50000000
   12.38527775   -1.00000000    4.90999985    2.51999998
   12.38861084   -1.00000000    4.90999985    2.50000000
   12.39166641   -1.00000000    4.90999985    2.51999998
   12.39499950   -1.00000000    4.90999985    2.50000000
   12.39833355   -1.00000000    4.90999985    2.50000000
   12.42277813   -1.00000000    2.84999990    2.46000004
   12.42611122   -1.00000000    2.84999990    2.46000004
   12.42944431   -1.00000000    2.67000008    2.46000004
   12.43249989   -1.00000000    2.44000006    2.44000006
   12.43583298   -1.00000000    2.32999992    2.46000004
   12.43916702   -1.00000000    2.28999996    2.44000006
   12.44222260   -1.00000000    2.28999996    2.46000004
   12.44555569   -1.00000000    2.32999992    2.46000004
   12.44861126   -1.00000000    2.39000010    2.46000004
   12.45222187   -1.00000000    2.46000004    2.46000004
   12.45555496   -1.00000000    2.39000010    2.48000002
   12.46555519   -1.00000000    2.28999996    2.48000002
   12.46888828   -1.00000000    2.25000000    2.46000004
   12.47222137   -1.00000000    2.19000006    2.46000004
   12.47527695   -1.00000000    2.13000011    2.48000002
   12.47861099   -1.00000000    2.03999996    2.50000000
   12.48166656   -1.00000000    1.98000002    2.50000000
   12.48527813   -1.00000000    1.91999996    2.50000000
   12.48861122   -1.00000000    1.88000000    2.51999998
   12.49166679   -1.00000000    1.88000000    2.50000000
   12.49499989   -1.00000000    1.86000001    2.50000000
   12.49833393   -1.00000000    1.86000001    2.51999998
   12.50833321   -1.00000000    1.88000000    2.50000000
   12.51166630   -1.00000000    1.88000000    2.50000000
   12.51500034   -1.00000000    1.86000001    2.50000000
   12.51861095   -1.00000000    1.86000001    2.50000000
   12.52166653   -1.00000000    1.86000001    2.51999998
   12.52499962   -1.00000000    1.86000001    2.51999998
   12.52833271   -1.00000000    1.88000000    2.51999998
   12.53138828   -1.00000000    1.91999996    2.50000000
   12.53472233   -1.00000000    1.94000006    2.50000000
   12.53805637   -1.00000000    1.94000006    2.48000002
   12.54111195   -1.00000000    1.96000004    2.50000000
   12.55138874   -1.00000000    1.88000000    2.50000000
   12.55444431   -1.00000000    1.89999998    2.51999998
   12.55777836   -1.00000000    1.88000000    2.50000000
   12.56111145   -1.00000000    1.89999998    2.51999998
   12.56416702   -1.00000000    1.89999998    2.53999996
   12.56750011   -1.00000000    1.89999998    2.51999998
   12.57055569   -1.00000000    1.91999996    2.51999998
   12.57388878   -1.00000000    1.89999998    2.51999998
   12.57722187   -1.00000000    1.88000000    2.50000000
   12.58027744   -1.00000000    1.85000002    2.53999996
   12.58388901   -1.00000000    1.85000002    2.51999998
   12.59416676   -1.00000000    1.76999998    2.53999996
   12.59749985   -1.00000000    1.76999998    2.53999996
   12.60055637   -1.00000000    1.75000000    2.53999996
   12.60388947   -1.00000000    1.75000000    2.53999996
   12.60694504   -1.00000000    1.75000000    2.53999996
   12.61027813   -1.00000000    1.73000002    2.53999996
   12.61361122   -1.00000000    1.69000006    2.53999996
   12.61722279   -1.00000000    1.69000006    2.53999996
   12.62027836   -1.00000000    1.64999998    2.53999996
   12.62361145   -1.00000000    1.64999998    2.53999996
   12.62694454   -1.00000000    1.64999998    2.55999994
   12.63694477   -1.00000000    1.64999998    2.55999994
   12.64027786   -1.00000000    1.64999998    2.53999996
   12.64361095   -1.00000000    1.64999998    2.55999994
   12.64666653   -1.00000000    1.64999998    2.55999994
   12.65027714   -1.00000000    1.64999998    2.53999996
   12.65333271   -1.00000000    1.64999998    2.55999994
   12.65666676   -1.00000000    1.63000000    2.55999994
   12.65999985   -1.00000000    1.63000000    2.55999994
   12.66305542   -1.00000000    1.63000000    2.55999994
   12.66638851   -1.00000000    1.63000000    2.55999994
   12.66944504   -1.00000000    1.63000000    2.53999996
   12.68000031   -1.00000000    1.60000002    2.55999994
   12.68361092   -1.00000000    1.60000002    2.55999994
   12.68666649   -1.00000000    1.60000002    2.55999994
   12.69000053   -1.00000000    1.58000004    2.55999994
   12.69333363   -1.00000000    1.55999994    2.55999994
   12.69638920   -1.00000000    1.53999996    2.57999992
   12.69972229   -1.00000000    1.53999996    2.55999994
   12.70277786   -1.00000000    1.53999996    2.55999994
   12.70611095   -1.00000000    1.53999996    2.55999994
   12.70944405   -1.00000000    1.53999996    2.55999994
   12.71249962   -1.00000000    1.51999998    2.55999994
   12.72277737   -1.00000000    1.58000004    2.55999994
   12.72583294   -1.00000000    1.58000004    2.55999994
   12.72916603   -1.00000000    1.61000001    2.55999994
   12.73249912   -1.00000000    1.61000001    2.55999994
   12.73555565   -1.00000000    1.63000000    2.55999994
   12.73888874   -1.00000000    1.63000000    2.53999996
   12.74222279   -1.00000000    1.63000000    2.57999992
   12.74527836   -1.00000000    1.61000001    2.55999994
   12.74861145   -1.00000000    1.63000000    2.55999994
   12.75222206   -1.00000000    1.60000002    2.57999992
   12.75527763   -1.00000000    1.61000001    2.55999994
   12.76555538   -1.00000000    1.60000002    2.55999994
   12.76888847   -1.00000000    1.58000004    2.57999992
   12.77194405   -1.00000000    1.58000004    2.57999992
   12.77527714   -1.00000000    1.55999994    2.57999992
   12.77861118   -1.00000000    1.55999994    2.57999992
   12.78166676   -1.00000000    1.53999996    2.55999994
   12.78527832   -1.00000000    1.53999996    2.57999992
   12.78833389   -1.00000000    1.51999998    2.55999994
   12.79166698   -1.00000000    1.51999998    2.57999992
   12.79500008   -1.00000000    1.51999998    2.57999992
   12.79805565   -1.00000000    1.50000000    2.57999992
   12.80833340   -1.00000000    1.51999998    2.57999992
   12.81166649   -1.00000000    1.51999998    2.59999990
   12.81500053   -1.00000000    1.48000002    2.57999992
   12.81861115   -1.00000000    1.48000002    2.57999992
   12.82166672   -1.00000000    1.48000002    2.57999992
   12.82499981   -1.00000000    1.48000002    2.59999990
   12.82833290   -1.00000000    1.48000002    2.57999992
   12.83138847   -1.00000000    1.48000002    2.57999992
   12.83472157   -1.00000000    1.50000000    2.57999992
   12.83777714   -1.00000000    1.51999998    2.57999992
   12.84111118   -1.00000000    1.51999998    2.57999992
   12.85138893   -1.00000000    1.51999998    2.57999992
   12.85444450   -1.00000000    1.53999996    2.57999992
   12.85777855   -1.00000000    1.51999998    2.57999992
   12.86083412   -1.00000000    1.51999998    2.57999992
   12.86416721   -1.00000000    1.51999998    2.59999990
   12.86750031   -1.00000000    1.51999998    2.57999992
   12.87055588   -1.00000000    1.50000000    2.59999990
   12.87388897   -1.00000000    1.50000000    2.57999992
   12.87722206   -1.00000000    1.50000000    2.57999992
   12.88027763   -1.00000000    1.50000000    2.57999992
   12.88388920   -1.00000000    1.50000000    2.59999990
   12.89416695   -1.00000000    1.48000002    2.57999992
   12.89722252   -1.00000000    1.48000002    2.57999992
   12.90083313   -1.00000000    1.48000002    2.59999990
   12.90388870   -1.00000000    1.46000004    2.59999990
   12.90722179   -1.00000000    1.46000004    2.59999990
   12.91055489   -1.00000000    1.46000004    2.57999992
   12.91361046   -1.00000000    1.44000006    2.57999992
   12.91722298   -1.00000000    1.41999996    2.59999990
   12.92027855   -1.00000000    1.41999996    2.59999990
   12.92361164   -1.00000000    1.41999996    2.57999992
   12.92694473   -1.00000000    1.39999998    2.61999989
   12.93694496   -1.00000000    1.36000001    2.61999989
   12.94027805   -1.00000000    1.34000003    2.61999989
   12.94333363   -1.00000000    1.36000001    2.61999989
   12.94666672   -1.00000000    1.36000001    2.61999989
   12.94972229   -1.00000000    1.34000003    2.64000010
   12.95361137   -1.00000000    1.34000003    2.61999989
   12.95666695   -1.00000000    1.33000004    2.61999989
   12.96000004   -1.00000000    1.33000004    2.61999989
   12.96333313   -1.00000000    1.34000003    2.61999989
   12.96638870   -1.00000000    1.33000004    2.59999990
   12.96972179   -1.00000000    1.33000004    2.59999990
   12.97972202   -1.00000000    1.30999994    2.64000010
   12.98305511   -1.00000000    1.33000004    2.61999989
   12.98666668   -1.00000000    1.30999994    2.61999989
   12.98972225   -1.00000000    1.33000004    2.61999989
   12.99305534   -1.00000000    1.33000004    2.61999989
   12.99638939   -1.00000000    1.30999994    2.64000010
   12.99944496   -1.00000000    1.30999994    2.61999989
   13.00277805   -1.00000000    1.30999994    2.61999989
   13.00583363   -1.00000000    1.30999994    2.61999989
   13.00916672   -1.00000000    1.30999994    2.61999989
   13.01249981   -1.00000000    1.30999994    2.61999989
   13.02250004   -1.00000000    1.28999996    2.64000010
   13.02583313   -1.00000000    1.28999996    2.64000010
   13.02916622   -1.00000000    1.28999996    2.64000010
   13.03222179   -1.00000000    1.26999998    2.64000010
   13.03555584   -1.00000000    1.26999998    2.64000010
   13.03888893   -1.00000000    1.25000000    2.64000010
   13.04194450   -1.00000000    1.23000002    2.64000010
   13.04527855   -1.00000000    1.23000002    2.61999989
   13.04833412   -1.00000000    1.21000004    2.61999989
   13.05222225   -1.00000000    1.21000004    2.64000010
   13.05527782   -1.00000000    1.21000004    2.64000010
   13.06555557   -1.00000000    1.23000002    2.61999989
   13.06861115   -1.00000000    1.23000002    2.61999989
   13.07194424   -1.00000000    1.23000002    2.61999989
   13.07527733   -1.00000000    1.25000000    2.64000010
   13.07833290   -1.00000000    1.25000000    2.64000010
   13.08166695   -1.00000000    1.25000000    2.64000010
   13.08527756   -1.00000000    1.25000000    2.61999989
   13.08833313   -1.00000000    1.26999998    2.61999989
   13.09166622   -1.00000000    1.26999998    2.64000010
   13.09499931   -1.00000000    1.26999998    2.64000010
   13.09805489   -1.00000000    1.26999998    2.64000010
   13.12666702  116.53299713    1.23000002    2.64000010
   13.13000011  118.53700256    1.23000002    2.66000009
   13.13305569  118.15100098    1.21000004    2.64000010
   13.13638878  115.25599670    1.21000004    2.64000010
   13.13972187  100.50800323    1.23000002    2.66000009
   13.14277744  116.11599731    1.23000002    2.64000010
   13.14694405  116.11599731    1.21000004    2.64000010
   13.15111065  118.11199951    1.19000006    2.66000009
   13.15444374  129.54400635    1.19000006    2.64000010
   13.15749931  118.18399811    1.19000006    2.64000010
   13.15999985  105.46499634    1.21000004    2.64000010
   13.16138840  113.23100281    1.21000004    2.66000009
   13.16444397  142.61900330    1.23000002    2.66000009
   13.16777802  109.52600098    1.25000000    2.64000010
   13.17083359  116.48600006    1.25000000    2.64000010
   13.17416668  106.81900024    1.25000000    2.66000009
   13.17750072   99.30020142    1.21000004    2.66000009
   13.18055630  115.20800018    1.23000002    2.64000010
   13.18388939  100.83499908    1.21000004    2.64000010
   13.18972206  100.83499908    1.21000004    2.64000010
   13.19388866  118.57900238    1.23000002    2.66000009
   13.19722271  100.76699829    1.23000002    2.64000010
   13.20027733  107.78800201    1.25000000    2.64000010
   13.20361137   98.94460297    1.23000002    2.64000010
   13.20694447   96.95800018    1.25000000    2.64000010
   13.21000004  108.11900330    1.25000000    2.66000009
   13.21333313  108.20899963    1.25000000    2.66000009
   13.21666622  108.44799805    1.26999998    2.66000009
   13.21972179  107.20400238    1.26999998    2.64000010
   13.22305489  112.67199707    1.28999996    2.66000009
   13.22611046  108.20400238    1.28999996    2.64000010
   13.22666645  113.41200256    1.28999996    2.64000010
   13.23277760  113.41200256    1.28999996    2.64000010
   13.23666668  116.37899780    1.28999996    2.66000009
   13.24000072  117.17099762    1.30999994    2.66000009
   13.24333382  121.64399719    1.30999994    2.66000009
   13.24638939  117.09999847    1.33000004    2.66000009
   13.24972248  112.93800354    1.30999994    2.64000010
   13.25305557  111.15200043    1.30999994    2.66000009
   13.25611115  111.39600372    1.30999994    2.64000010
   13.25944424  113.53500366    1.33000004    2.66000009
   13.26000023  119.64299774    1.30999994    2.67000008
   13.26305580  120.27799988    1.28999996    2.64000010
   13.26638889  117.03700256    1.30999994    2.64000010
   13.26972198  102.86900330    1.28999996    2.66000009
   13.27555561  102.86900330    1.28999996    2.64000010
   13.27972221  100.14099884    1.33000004    2.64000010
   13.28277779  115.85099792    1.33000004    2.64000010
   13.28611183  122.27899933    1.30999994    2.66000009
   13.28944492  128.30799866    1.30999994    2.66000009
   13.29250050  124.73500061    1.30999994    2.64000010
   13.29361153  122.37100220    1.30999994    2.64000010
   13.29611111  127.52400208    1.30999994    2.64000010
   13.29944515  130.98599243    1.30999994    2.64000010
   13.30249977  124.16899872    1.25000000    2.66000009
   13.30583382  113.01499939    1.23000002    2.66000009
   13.30916691  128.91200256    1.23000002    2.67000008
   13.31222248  114.25399780    1.23000002    2.66000009
   13.31833363  114.25399780    1.23000002    2.66000009
   13.32250023  122.65599823    1.21000004    2.67000008
   13.32583332  109.24700165    1.21000004    2.66000009
   13.32666683  115.37300110    1.21000004    2.66000009
   13.32944393  121.58300018    1.21000004    2.66000009
   13.33277798  115.10900116    1.19000006    2.66000009
   13.33583260  107.05799866    1.19000006    2.66000009
   13.33916664  123.58399963    1.16999996    2.67000008
   13.34249973  132.06199646    1.16999996    2.67000008
   13.34555531  127.56199646    1.16999996    2.66000009
   13.34888840  128.97900391    1.19000006    2.66000009
   13.35194492  127.38400269    1.19000006    2.67000008
   13.35527802   99.87010193    1.19000006    2.64000010
   13.36111164   99.87010193    1.19000006    2.66000009
   13.36527824  116.74299622    1.19000006    2.67000008
   13.36861134  117.04499817    1.19000006    2.67000008
   13.37166691  107.63200378    1.19000006    2.67000008
   13.37500000  123.36299896    1.14999998    2.67000008
   13.37833309  107.58000183    1.14999998    2.67000008
   13.38138866  113.46800232    1.14999998    2.67000008
   13.38472176  117.89800262    1.16999996    2.67000008
   13.38805580  107.76300049    1.16999996    2.67000008
   13.39111137  102.36499786    1.16999996    2.67000008
   13.39333344  119.46099854    1.14999998    2.66000009
   13.39472198  127.09700012    1.14999998    2.67000008
   13.39805508  114.39600372    1.14999998    2.67000008
   13.40416622  114.39600372    1.14999998    2.66000009
   13.40805531  119.60099792    1.14999998    2.69000006
   13.41138840  128.79800415    1.14999998    2.67000008
   13.41472149  127.28500366    1.16999996    2.66000009
   13.41777802  127.87100220    1.16999996    2.67000008
   13.42111111  113.29000092    1.16999996    2.67000008
   13.42444515  117.24600220    1.16999996    2.67000008
   13.42666721  114.07299805    1.14999998    2.67000008
   13.42805576  117.69599915    1.16999996    2.67000008
   13.43138885  129.61199951    1.19000006    2.67000008
   13.43444443  121.63899994    1.19000006    2.67000008
   13.43777752  125.70999908    1.14999998    2.67000008
   13.44111156   97.76869965    1.14999998    2.69000006
   13.44694424   97.76869965    1.14999998    2.67000008
   13.45111084  123.57800293    1.14999998    2.67000008
   13.45416641  112.88899994    1.13000000    2.67000008
   13.45749950  126.10299683    1.13000000    2.67000008
   13.46000004  109.19599915    1.13000000    2.67000008
   13.46111107  114.03399658    1.13000000    2.67000008
   13.46444416  110.07399750    1.11000001    2.67000008
   13.46749973  130.89100647    1.11000001    2.67000008
   13.47083282  130.96899414    1.09000003    2.67000008
   13.47416592  118.44000244    1.09000003    2.67000008
   13.47722149  122.25700378    1.07000005    2.69000006
   13.48055553  119.62000275    1.09000003    2.69000006
   13.48361111  123.59500122    1.09000003    2.67000008
   13.48972225  123.59500122    1.09000003    2.67000008
   13.49388885  121.93900299    1.14999998    2.67000008
   13.49722290  105.30799866    1.14999998    2.67000008
   13.50027752  107.22100067    1.16999996    2.67000008
   13.50361156   99.07420349    1.14999998    2.67000008
   13.50666714  105.86599731    1.13000000    2.71000004
   13.51000023  120.96199799    1.13000000    2.67000008
   13.51333332  108.51100159    1.11000001    2.69000006
   13.51638889   99.87509918    1.11000001    2.69000006
   13.51972198  116.72599792    1.16999996    2.69000006
   13.52305508  117.09100342    1.16999996    2.69000006
   13.52611065  104.44400024    1.16999996    2.67000008
   13.52666664  120.81700134    1.19000006    2.67000008
   13.53249931  120.81700134    1.19000006    2.67000008
   13.53666687  120.10099792    1.16999996    2.69000006
   13.54000092  126.44599915    1.16999996    2.69000006
   13.54305553  114.01599884    1.16999996    2.69000006
   13.54638958  117.05999756    1.19000006    2.69000006
   13.54972267   92.12609863    1.19000006    2.69000006
   13.55277824  121.80599976    1.16999996    2.69000006
   13.55611134  124.65899658    1.16999996    2.69000006
   13.55944443  112.95800018    1.16999996    2.67000008
   13.56000042  132.65699768    1.16999996    2.67000008
   13.56277752  100.53399658    1.16999996    2.67000008
   13.56611156  102.30200195    1.16999996    2.67000008
   13.56916618  109.05400085    1.19000006    2.69000006
   13.57555580  109.05400085    1.19000006    2.67000008
   13.57972240  115.76000214    1.16999996    2.71000004
   13.58277798  118.55300140    1.16999996    2.67000008
   13.58611107  120.37300110    1.16999996    2.67000008
   13.58916664  113.83999634    1.16999996    2.71000004
   13.59249973  120.95400238    1.14999998    2.69000006
   13.59361076  122.69100189    1.14999998    2.67000008
   13.59611034  134.79899597    1.13000000    2.69000006
   13.59944439  126.54299927    1.13000000    2.69000006
   13.60249996  120.92400360    1.13000000    2.67000008
   13.60583401  121.23699951    1.13000000    2.69000006
   13.60916710  114.72200012    1.16999996    2.67000008
   13.61222267  117.01200104    1.16999996    2.69000006
   13.61833382  117.01200104    1.21000004    2.69000006
   13.62250042  123.29699707    1.23000002    2.67000008
   13.62555599  121.50000000    1.25000000    2.69000006
   13.62694454  111.04299927    1.26999998    2.69000006
   13.62916660  120.88600159    1.25000000    2.69000006
   13.63249969  131.96899414    1.26999998    2.69000006
   13.63555527  122.33000183    1.26999998    2.67000008
   13.63888836  109.06199646    1.26999998    2.69000006
   13.64222240  117.02400208    1.25000000    2.67000008
   13.64527798  116.08000183    1.25000000    2.69000006
   13.64861107  123.00900269    1.23000002    2.69000006
   13.65194416  131.57699585    1.23000002    2.69000006
   13.65499973  119.48100281    1.23000002    2.69000006
   13.66111088  119.48100281    1.23000002    2.71000004
   13.66527748  109.18499756    1.23000002    2.66000009
   13.66861153  115.34999847    1.23000002    2.69000006
   13.67194462  110.43199921    1.25000000    2.69000006
   13.67527771  125.98899841    1.23000002    2.69000006
   13.67833328  107.54000092    1.23000002    2.69000006
   13.68166733  113.22799683    1.21000004    2.69000006
   13.68472195  119.58899689    1.19000006    2.69000006
   13.68805599  103.98600006    1.19000006    2.71000004
   13.69138908  111.54900360    1.19000006    2.69000006
   13.69361115  120.20600128    1.19000006    2.69000006
   13.69499969  101.62400055    1.19000006    2.67000008
   13.69833374  110.85299683    1.16999996    2.67000008
   13.70388889  110.85299683    1.16999996    2.67000008
   13.70805550  112.52200317    1.13000000    2.69000006
   13.71138859  109.97299957    1.13000000    2.69000006
   13.71444416  107.11799622    1.14999998    2.69000006
   13.71777725  107.60099792    1.16999996    2.71000004
   13.72111034  118.27200317    1.14999998    2.69000006
   13.72416592  126.16899872    1.14999998    2.69000006
   13.72694397  115.10800171    1.19000006    2.69000006
   13.72777748  116.83899689    1.19000006    2.69000006
   13.73111057  115.26000214    1.16999996    2.67000008
   13.73416710  110.31900024    1.16999996    2.71000004
   13.73750019  109.99700165    1.16999996    2.69000006
   13.74083328  110.26300049    1.11000001    2.71000004
   13.74694443  110.26300049    1.03999996    2.71000004
   13.75083351  101.68900299    1.03999996    2.69000006
   13.75416660  120.66300201    1.03999996    2.71000004
   13.75749969  111.22200012    1.03999996    2.71000004
   13.76027775  105.41899872    1.03999996    2.71000004
   13.76111126  108.26699829    1.03999996    2.71000004
   13.76444435  107.86799622    1.03999996    2.69000006
   13.76749992   98.33180237    1.03999996    2.71000004
   13.77083302  119.51799774    1.01999998    2.73000002
   13.77416611  112.47899628    1.03999996    2.69000006
   13.77722168  103.09799957    1.01999998    2.69000006
   13.78055573  108.77400208    1.03999996    2.69000006
   13.78388977  111.31400299    1.03999996    2.69000006
   13.78972244  111.31400299    1.05999994    2.71000004
   13.79388905  127.44799805    1.07000005    2.71000004
   13.79694462  121.30799866    1.07000005    2.73000002
   13.80027771  127.29199982    1.05999994    2.71000004
   13.80361176  130.65199280    1.07000005    2.69000006
   13.80666733  126.90299988    1.07000005    2.71000004
   13.81000042  105.79499817    1.07000005    2.71000004
   13.81333351  126.12599945    1.07000005    2.71000004
   13.81638908   95.19750214    1.09000003    2.71000004
   13.81972218  106.56199646    1.09000003    2.73000002
   13.82305527  120.63999939    1.09000003    2.71000004
   13.82611084  116.49400330    1.07000005    2.69000006
   13.82694435  115.43800354    1.07000005    2.71000004
   13.83249950  115.43800354    1.07000005    2.71000004
   13.83666611  124.00900269    1.07000005    2.71000004
   13.84000015  114.63500214    1.05999994    2.69000006
   13.84305477  106.85299683    1.03999996    2.71000004
   13.84638882  110.84300232    1.01999998    2.71000004
   13.84972191  118.89299774    1.03999996    2.71000004
   13.85277843  114.22899628    1.01999998    2.73000002
   13.85611153  113.23200226    1.01999998    2.71000004
   13.85944462  105.25199890    1.01999998    2.71000004
   13.86027813  112.75299835    1.01999998    2.73000002
   13.86277771  112.62000275    1.03999996    2.71000004
   13.86611176  104.64499664    1.03999996    2.71000004
   13.86944485  127.95999908    1.01999998    2.71000004
   13.87527752  127.95999908    1.03999996    2.71000004
   13.87944412  102.64600372    1.03999996    2.71000004
   13.88277817  121.83799744    1.07000005    2.69000006
   13.88583279  112.76000214    1.07000005    2.71000004
   13.88916683  123.92800140    1.03999996    2.73000002
   13.89249992  118.32700348    1.03999996    2.71000004
   13.89361095  105.10600281    1.03999996    2.71000004
   13.89611053  107.27999878    1.03999996    2.71000004
   13.89944458  111.99299622    1.01999998    2.71000004
   13.90277767  117.89800262    1.01999998    2.71000004
   13.90583324  100.93900299    1.01999998    2.71000004
   13.90916634  108.22100067    1.03999996    2.73000002
   13.91222191  110.21800232    1.03999996    2.73000002
   13.91833401  110.21800232    1.07000005    2.69000006
   13.92222214   93.24140167    1.07000005    2.71000004
   13.92555618  107.50800323    1.05999994    2.73000002
   13.92694473  106.03900146    1.05999994    2.73000002
   13.92916679  113.44599915    1.05999994    2.73000002
   13.93249989  112.61199951    1.05999994    2.73000002
   13.93583298  115.74900055    1.03999996    2.71000004
   13.93888855  113.13899994    1.03999996    2.71000004
   13.94222260  120.32700348    1.03999996    2.71000004
   13.94527817  111.59799957    1.01999998    2.71000004
   13.94861126  110.72699738    1.00000000    2.73000002
   13.95194435  111.14099884    1.01999998    2.73000002
   13.95499992  116.93199921    1.01999998    2.73000002
   13.96111107  116.93199921    1.01999998    2.73000002
   13.96527767  115.39499664    1.01999998    2.71000004
   13.96833324  121.36399841    1.01999998    2.73000002
   13.97166634  125.59600067    1.01999998    2.73000002
   13.97499943  111.82700348    1.01999998    2.71000004
   13.97805500  119.48200226    1.00000000    2.73000002
   13.98138809  120.11900330    1.00000000    2.71000004
   13.98444462  113.10700226    1.01999998    2.71000004
   13.98777771  100.35600281    1.00000000    2.73000002
   13.99111176  108.18699646    1.00000000    2.73000002
   13.99361134  118.36399841    1.01999998    2.73000002
   13.99444485  116.16500092    1.01999998    2.71000004
   13.99777794  115.20300293    1.01999998    2.73000002
   14.00388908  115.20300293    1.01999998    2.73000002
   14.00805569  123.67299652    1.01999998    2.75000000
   14.01138878   98.23699951    1.00000000    2.73000002
   14.01444435  108.50499725    1.00000000    2.73000002
   14.01777744  116.39800262    1.00000000    2.73000002
   14.02111053  125.91100311    0.98000002    2.73000002
   14.02416611  118.08300018    1.00000000    2.73000002
   14.02694416  122.74299622    0.98000002    2.73000002
   14.02777767  119.46199799    0.98000002    2.71000004
   14.03111076  115.43499756    0.98000002    2.73000002
   14.03444481  118.58899689    0.98000002    2.73000002
   14.03750038  114.04499817    0.98000002    2.75000000
   14.04083347  105.94899750    0.98000002    2.71000004
   14.04666710  105.94899750    0.98000002    2.73000002
   14.05083370  120.89099884    0.98000002    2.73000002
   14.05416679  109.52400208    0.98000002    2.75000000
   14.05749989  106.41100311    0.98000002    2.73000002
   14.06027794  109.46600342    0.98000002    2.73000002
   14.06083393   98.68160248    0.98000002    2.75000000
   14.06416702  109.14399719    0.98000002    2.73000002
   14.06750011  100.61799622    0.95999998    2.73000002
   14.07055569  120.53399658    0.98000002    2.73000002
   14.07388878  108.94300079    0.98000002    2.75000000
   14.07694435  106.72499847    0.98000002    2.75000000
   14.08027744  117.14800262    0.98000002    2.73000002
   14.08361053  125.60299683    1.00000000    2.75000000
   14.08972168  125.60299683    0.98000002    2.73000002
   14.09388828  110.75900269    1.01999998    2.75000000
   14.09722233  114.55000305    1.01999998    2.75000000
   14.10027790  113.07099915    1.01999998    2.73000002
   14.10361195  113.51499939    1.01999998    2.73000002
   14.10694504  117.26799774    1.01999998    2.71000004
   14.11000061  118.89600372    1.01999998    2.71000004
   14.11333370  101.14600372    1.01999998    2.73000002
   14.11666679  114.07900238    1.03999996    2.71000004
   14.11972237  104.85500336    1.03999996    2.73000002
   14.12305546  100.21299744    1.03999996    2.75000000
   14.12611103  132.28799438    1.03999996    2.73000002
   14.12694454  117.24299622    1.03999996    2.75000000
   14.14750004  117.24299622    1.01999998    2.75000000
   14.15166664  117.08499908    1.00000000    2.73000002
   14.15499973  118.91000366    1.00000000    2.73000002
   14.15833282  105.82800293    1.00000000    2.73000002
   14.16027737  112.45700073    0.98000002    2.73000002
   14.16194439  105.40599823    0.98000002    2.73000002
   14.16527748  109.83200073    0.95999998    2.73000002
   14.16833401  111.82800293    0.95999998    2.73000002
   14.17166710   92.35189819    0.95999998    2.75000000
   14.17472267   87.38379669    0.95999998    2.73000002
   14.17805576  101.47499847    0.92000002    2.73000002
   14.18138885  103.54399872    0.89999998    2.75000000
   14.18444443  107.64700317    0.89999998    2.75000000
   14.19027805  107.64700317    0.92000002    2.73000002
   14.19444466  106.84899902    0.94000000    2.75000000
   14.19777775   96.88200378    0.94000000    2.75000000
   14.20083332  116.25499725    0.94000000    2.73000002
   14.20416641  110.61499786    0.95999998    2.75000000
   14.20749950  112.17199707    0.98000002    2.73000002
   14.21055508  109.82800293    0.98000002    2.73000002
   14.21388912  100.12799835    0.98000002    2.75000000
   14.21722221  121.08200073    0.98000002    2.75000000
   14.22027779  118.89199829    0.95999998    2.75000000
   14.22361088  106.64199829    0.95999998    2.71000004
   14.22694397  110.42199707    0.95999998    2.73000002
   14.22749996  103.23200226    0.95999998    2.73000002
   14.23305511  103.23200226    0.95999998    2.71000004
   14.23722267  116.08399963    0.95999998    2.75000000
   14.24055576  104.01000214    0.95999998    2.75000000
   14.24388885  119.38700104    0.94000000    2.75000000
   14.24694443  109.63800049    0.94000000    2.75000000
   14.25027752  118.53500366    0.94000000    2.73000002
   14.25361156  111.92500305    0.94000000    2.75000000
   14.25666714   94.08070374    0.94000000    2.75000000
   14.26000023  119.07299805    0.94000000    2.75000000
   14.26055527  105.55000305    0.94000000    2.75000000
   14.26361084  126.62799835    0.94000000    2.76999998
   14.26694393  126.03399658    0.94000000    2.73000002
   14.27027798  107.60099792    0.92000002    2.75000000
   14.27611065  107.60099792    0.92000002    2.75000000
   14.28027725  107.23100281    0.92000002    2.75000000
   14.28333378  102.08799744    0.89999998    2.73000002
   14.28666687   88.62310028    0.92000002    2.78999996
   14.29000092  117.81900024    0.92000002    2.75000000
   14.29305553  118.76799774    0.92000002    2.75000000
   14.29388905   97.83439636    0.92000002    2.73000002
   14.29666710  114.66000366    0.92000002    2.75000000
   14.30000019  109.74600220    0.92000002    2.75000000
   14.30333328   98.14219666    0.92000002    2.75000000
   14.30638885   98.03820038    0.92000002    2.73000002
   14.30972195   99.68379974    0.92000002    2.75000000
   14.31305599  102.91799927    0.92000002    2.73000002
   14.31888866  102.91799927    0.92000002    2.75000000
   14.32305527  117.82099915    0.89999998    2.75000000
   14.32611084  121.55699921    0.88000000    2.75000000
   14.32722187  115.57499695    0.88000000    2.75000000
   14.32972240  113.85199738    0.88000000    2.75000000
   14.33305550   98.81150055    0.81999999    2.75000000
   14.33638859  115.77500153    0.81999999    2.75000000
   14.33944416  114.38999939    0.83999997    2.75000000
   14.34277725  108.67199707    0.83999997    2.75000000
   14.34611034  124.72599792    0.81999999    2.75000000
   14.34916592  129.10699463    0.81999999    2.73000002
   14.35249996  113.68099976    0.83999997    2.75000000
   14.35555553  122.07599640    0.86000001    2.78999996
   14.36166668  122.07599640    0.86000001    2.75000000
   14.36583328  136.06100464    0.83999997    2.75000000
   14.36916637  117.52799988    0.83999997    2.75000000
   14.37222195  130.53799438    0.86000001    2.76999998
   14.37555599  116.26399994    0.86000001    2.75000000
   14.37888908  133.63400269    0.86000001    2.75000000
   14.38194466  128.10099792    0.86000001    2.75000000
   14.38527775  122.91300201    0.86000001    2.75000000
   14.38861084  125.50199890    0.86000001    2.76999998
   14.39166641  116.11299896    0.83999997    2.76999998
   14.39388847  118.04299927    0.86000001    2.76999998
   14.39527798  128.94000244    0.81999999    2.75000000
   14.39861107  128.06700134    0.81999999    2.75000000
   14.40444374  128.06700134    0.81999999    2.75000000
   14.40861034  126.09500122    0.81999999    2.76999998
   14.41194439  125.36799622    0.81999999    2.75000000
   14.41527748  123.65799713    0.81999999    2.75000000
   14.41833401  114.18399811    0.83999997    2.75000000
   14.42166710  123.86799622    0.83999997    2.75000000
   14.42472267  133.67599487    0.83999997    2.75000000
   14.42722225  116.52200317    0.83999997    2.76999998
   14.42861176  108.68499756    0.81999999    2.75000000
   14.43166733  124.91300201    0.81999999    2.75000000
   14.43500042  117.96099854    0.79000002    2.75000000
   14.43805599  109.16699982    0.80000001    2.75000000
   14.44138908  108.82900238    0.76999998    2.76999998
   14.44750023  108.82900238    0.76999998    2.78999996
   14.45166683   98.11730194    0.79000002    2.76999998
   14.45472240  100.69899750    0.79000002    2.76999998
   14.45805550  117.01399994    0.79000002    2.75000000
   14.46055508  105.80899811    0.79000002    2.75000000
   14.46138859  121.64900208    0.79000002    2.75000000
   14.46472168  107.95700073    0.79000002    2.78999996
   14.46805477  120.13099670    0.80000001    2.76999998
   14.47111034  103.62200165    0.80000001    2.75000000
   14.47444439  104.36799622    0.81999999    2.75000000
   14.47777748  118.49900055    0.81999999    2.76999998
   14.48083305  105.50700378    0.88000000    2.76999998
   14.48416710  130.90899658    0.88000000    2.75000000
   14.49027824  130.90899658    0.83999997    2.76999998
   14.49444485  126.51499939    0.86000001    2.78999996
   14.49750042  134.77699280    0.86000001    2.76999998
   14.50083351  120.39499664    0.86000001    2.76999998
   14.50416660  130.59300232    0.81999999    2.76999998
   14.50722218  123.54000092    0.83999997    2.75000000
   14.51055527  125.47000122    0.81999999    2.76999998
   14.51388931  121.86100006    0.81999999    2.76999998
   14.51694393  105.50399780    0.81999999    2.76999998
   14.52027798  116.36599731    0.81999999    2.75000000
   14.52333355  123.78900146    0.80000001    2.76999998
   14.52666664  129.70899963    0.80000001    2.75000000
   14.52722168  113.34200287    0.80000001    2.76999998
   14.53305531  113.34200287    0.81999999    2.75000000
   14.53722286  134.33999634    0.81999999    2.75000000
   14.54055595  120.62500000    0.80000001    2.75000000
   14.54361153  116.13400269    0.76999998    2.75000000
   14.54694462  135.37800598    0.76999998    2.75000000
   14.55111122  115.89800262    0.76999998    2.76999998
   14.55472279  110.19300079    0.76999998    2.76999998
   14.55805588  124.88999939    0.75000000    2.76999998
   14.56055546  135.86999512    0.75000000    2.78999996
   14.56166649  123.61599731    0.75000000    2.76999998
   14.56472206  142.00799561    0.75000000    2.78999996
   14.56805515  136.54899597    0.73000002    2.78999996
   14.57138920  138.12300110    0.73000002    2.78999996
   14.57611084  138.12300110    0.73000002    2.78999996
   14.57999992  117.04100037    0.73000002    2.76999998
   14.58333302  131.72900391    0.75000000    2.76999998
   14.58666611  134.29899597    0.75000000    2.76999998
   14.58972168  130.61099243    0.75000000    2.76999998
   14.59305477  124.45899963    0.73000002    2.76999998
   14.59388828  125.71800232    0.73000002    2.78999996
   14.59666634  123.47799683    0.73000002    2.78999996
   14.59972191  128.57099915    0.75000000    2.78999996
   14.60305595  131.93600464    0.75000000    2.78999996
   14.60638905  126.23400116    0.75000000    2.76999998
   14.60944462  120.58399963    0.75000000    2.76999998
   14.61277771  132.32299805    0.75000000    2.76999998
   14.61888885  132.32299805    0.76999998    2.76999998
   14.62305546  122.16400146    0.79000002    2.76999998
   14.62611103  136.27000427    0.79000002    2.75000000
   14.62722206  129.28700256    0.79000002    2.78999996
   14.63000011  119.76399994    0.80000001    2.76999998
   14.63305569  119.58200073    0.80000001    2.76999998
   14.63638878  133.82600403    0.80000001    2.78999996
   14.63972187  115.72899628    0.80000001    2.76999998
   14.64277744  111.39399719    0.80000001    2.78999996
   14.64611053  132.15600586    0.80000001    2.78999996
   14.64944458  134.91299438    0.80000001    2.76999998
   14.65249920  128.85899353    0.80000001    2.76999998
   14.65583324  134.57499695    0.81999999    2.76999998
   14.66166592  134.57499695    0.86000001    2.75000000
   14.66583252  132.10099792    0.83999997    2.76999998
   14.66888905  119.09400177    0.86000001    2.76999998
   14.67222214  128.85899353    0.88000000    2.75000000
   14.67555618  114.65699768    0.86000001    2.76999998
   14.67861176  135.46099854    0.83999997    2.76999998
   14.68194485  123.40499878    0.83999997    2.75000000
   14.68527794  126.76000214    0.81999999    2.78999996
   14.68833351  125.77899933    0.80000001    2.76999998
   14.69166660  129.84899902    0.81999999    2.76999998
   14.69388866  140.07499695    0.81999999    2.75000000
   14.69527817  115.36799622    0.81999999    2.75000000
   14.69833374  133.49499512    0.81999999    2.76999998
   14.70444393  133.49499512    0.89999998    2.76999998
   14.70861053  137.67300415    0.81999999    2.76999998
   14.71194458  146.03199768    0.81999999    2.78999996
   14.71500015  127.38700104    0.81999999    2.76999998
   14.71833324  136.74800110    0.81999999    2.76999998
   14.72166634  141.09100342    0.80000001    2.76999998
   14.72472191  129.45199585    0.80000001    2.78999996
   14.72722149  130.40600586    0.79000002    2.78999996
   14.72861099  120.61499786    0.80000001    2.76999998
   14.73166656  137.23599243    0.80000001    2.76999998
   14.73500061  132.64500427    0.79000002    2.78999996
   14.73833370  144.48399353    0.79000002    2.78999996
   14.74138927  125.55699921    0.79000002    2.78999996
   14.74722290  125.55699921    0.79000002    2.76999998
   14.75138855  125.42700195    0.76999998    2.76999998
   14.75472260  133.41400146    0.76999998    2.76999998
   14.75805569  128.81100464    0.76999998    2.78999996
   14.76055527  129.97000122    0.76999998    2.76999998
   14.76166630  141.06199646    0.76999998    2.76999998
   14.76472187  129.20199585    0.76999998    2.76999998
   14.76805496  129.76100159    0.76999998    2.78999996
   14.77138901  128.57600403    0.76999998    2.76999998
   14.77444458  129.06399536    0.79000002    2.78999996
   14.77777767  130.42900085    0.79000002    2.76999998
   14.78111076  136.30000305    0.79000002    2.76999998
   14.78416729  134.39900208    0.79000002    2.76999998
   14.79027843  134.39900208    0.81999999    2.76999998
   14.79444504  107.80799866    0.81999999    2.78999996
   14.79750061  126.97399902    0.83999997    2.76999998
   14.80083370  126.90699768    0.81999999    2.76999998
   14.80416679  133.96499634    0.81999999    2.78999996
   14.80722237  125.21900177    0.80000001    2.76999998
   14.81055546  115.82099915    0.80000001    2.78999996
   14.81388950  119.96900177    0.79000002    2.76999998
   14.81694412  127.31099701    0.79000002    2.76999998
   14.82027817  118.42500305    0.79000002    2.78999996
   14.82333374  136.08399963    0.79000002    2.76999998
   14.82666683  132.14999390    0.80000001    2.76999998
   14.82722187  114.13500214    0.80000001    2.78999996
   14.83305550  114.13500214    0.80000001    2.76999998
   14.83722210  127.15399933    0.79000002    2.76999998
   14.84027767  122.18199921    0.79000002    2.76999998
   14.84361076  118.21900177    0.79000002    2.78999996
   14.84694386  126.62699890    0.80000001    2.78999996
   14.85000038  123.22399902    0.81999999    2.76999998
   14.85333347  125.00099945    0.81999999    2.78999996
   14.85638905  120.66999817    0.81999999    2.76999998
   14.85972214  119.11499786    0.81999999    2.78999996
   14.86055565  118.50599670    0.81999999    2.76999998
   14.86333370  120.46499634    0.80000001    2.76999998
   14.86638927  136.25999451    0.81999999    2.78999996
   14.86972237  120.38600159    0.83999997    2.76999998
   14.87583351  120.38600159    0.81999999    2.78999996
   14.88000011  120.80200195    0.83999997    2.78999996
   14.88333321  114.65299988    0.81999999    2.80999994
   14.88638878  114.04599762    0.80000001    2.78999996
   14.88972187  104.95800018    0.80000001    2.76999998
   14.89277744  122.61299896    0.79000002    2.78999996
   14.89388847  102.24199677    0.79000002    2.76999998
   14.89666653  120.52400208    0.75000000    2.78999996
   14.89972210  122.12400055    0.73000002    2.76999998
   14.90305519  110.19200134    0.73000002    2.78999996
   14.90611076  113.36299896    0.73000002    2.78999996
   14.90944386  128.57899475    0.70999998    2.78999996
   14.91277695  119.22499847    0.70999998    2.78999996
   14.91861153  119.22499847    0.67000002    2.78999996
   14.92277813  131.43600464    0.67000002    2.78999996
   14.92611122  130.25900269    0.64999998    2.78999996
   14.92722225  114.64900208    0.64999998    2.80999994
   14.92972279  133.50000000    0.64999998    2.80999994
   14.93277836  131.40699768    0.63000000    2.78999996
   14.93611145  126.23799896    0.64999998    2.78999996
   14.93944454  105.12899780    0.63000000    2.76999998
   14.94250011  113.87200165    0.64999998    2.80999994
   14.94583321  134.95599365    0.64999998    2.78999996
   14.94888878  118.41699982    0.67000002    2.78999996
   14.95222187   95.82869720    0.67000002    2.78999996
   14.95527744  110.77500153    0.67000002    2.78999996
   14.96166611  110.77500153    0.69000000    2.76999998
   14.96583271  134.64199829    0.69000000    2.78999996
   14.96888828  133.41499329    0.69000000    2.80999994
   14.97222137  122.58699799    0.69000000    2.78999996
   14.97527695  131.45399475    0.69000000    2.76999998
   14.97888851  124.95500183    0.69000000    2.76999998
   14.98222160  114.20400238    0.67000002    2.78999996
   14.98527813  134.58999634    0.67000002    2.78999996
   14.98861122  124.87300110    0.69000000    2.78999996
   14.99194431  132.21800232    0.67000002    2.78999996
   14.99388885  128.15299988    0.69000000    2.80999994
   14.99555588  129.22099304    0.67000002    2.78999996
   14.99888897  125.51100159    0.67000002    2.78999996
   15.00444412  125.51100159    0.64999998    2.78999996
   15.00861073  119.53099823    0.67000002    2.76999998
   15.01166630  136.17100525    0.73000002    2.76999998
   15.01500034  117.89399719    0.75000000    2.78999996
   15.01833344  104.85299683    0.83999997    2.78999996
   15.02138901  131.26100159    0.83999997    2.78999996
   15.02472210  144.75500488    0.86000001    2.78999996
   15.02722168  111.05899811    0.88000000    2.78999996
   15.02833271  110.88999939    0.86000001    2.78999996
   15.03138828  107.94899750    0.83999997    2.78999996
   15.03472233  131.76100159    0.80000001    2.78999996
   15.03805637  125.95099640    0.80000001    2.78999996
   15.04111195  117.82499695    0.76999998    2.78999996
   15.04722309  117.82499695    0.76999998    2.78999996
   15.05138874  115.67900085    0.76999998    2.78999996
   15.05472279  103.30799866    0.80000001    2.78999996
   15.05777836  127.74600220    0.83999997    2.78999996
   15.06055546  133.69400024    0.80000001    2.78999996
   15.06166649  126.90100098    0.81999999    2.78999996
   15.06472206  134.54100037    0.79000002    2.78999996
   15.06805515  125.08200073    0.79000002    2.78999996
   15.07138920  137.85899353    0.76999998    2.76999998
   15.07444477  127.31500244    0.75000000    2.76999998
   15.07777786  130.64999390    0.75000000    2.76999998
   15.08083344  122.16200256    0.75000000    2.76999998
   15.08416653  116.75399780    0.76999998    2.78999996
   15.09000015  116.75399780    0.75000000    2.78999996
   15.09416676  105.58000183    0.76999998    2.78999996
   15.09749985  116.84500122    0.79000002    2.76999998
   15.10055637  113.60199738    0.79000002    2.78999996
   15.10416698  112.55500031    0.79000002    2.78999996
   15.10722256  118.89299774    0.75000000    2.78999996
   15.11055565  130.37100220    0.75000000    2.78999996
   15.11388969  129.21600342    0.70999998    2.78999996
   15.11694431  127.22899628    0.69000000    2.76999998
   15.12027836  127.63400269    0.69000000    2.76999998
   15.12333393  118.78399658    0.69000000    2.78999996
   15.12666702   99.15509796    0.69000000    2.78999996
   15.12722206  115.86000061    0.69000000    2.78999996
   15.13305569  115.86000061    0.67000002    2.78999996
   15.13694477  126.38400269    0.64999998    2.78999996
   15.14027786  134.72599792    0.64999998    2.78999996
   15.14361095  103.26599884    0.63000000    2.78999996
   15.16111088  102.33999634    0.64999998    2.78999996
   15.16361046  110.08799744    0.64999998    2.78999996
   15.16666698  100.39600372    0.64999998    2.76999998
   15.17000008  126.39700317    0.64999998    2.80999994
   15.17611122  126.39700317    0.64999998    2.78999996
   15.18000031  116.64600372    0.64999998    2.76999998
   15.18333340  114.93800354    0.69000000    2.78999996
   15.18666649  123.48400116    0.69000000    2.76999998
   15.18972206  113.44899750    0.69000000    2.78999996
   15.19305515  102.93199921    0.69000000    2.80999994
   15.19444466  107.82700348    0.69000000    2.78999996
   15.19638920  108.85099792    0.69000000    2.78999996
   15.19972229  105.99600220    0.67000002    2.78999996
   15.20305538  113.75099945    0.67000002    2.78999996
   15.20611095   97.69670105    0.67000002    2.78999996
   15.20944405  111.04399872    0.67000002    2.78999996
   15.21249962  105.21800232    0.67000002    2.78999996
   15.21888828  105.21800232    0.73000002    2.76999998
   15.22305489  109.50499725    0.75000000    2.78999996
   15.22611046  117.12200165    0.73000002    2.78999996
   15.22777748   92.47859955    0.73000002    2.80999994
   15.22972202  121.27600098    0.73000002    2.82999992
   15.23305511  104.06800079    0.73000002    2.82999992
   15.23638916  124.62500000    0.73000002    2.76999998
   15.23944473  126.93000031    0.76999998    2.78999996
   15.24277782  109.96199799    0.76999998    2.78999996
   15.24583340  110.38700104    0.76999998    2.78999996
   15.24916649  127.81099701    0.79000002    2.78999996
   15.25249958  119.54900360    0.76999998    2.78999996
   15.25555515  123.10399628    0.76999998    2.78999996
   15.26166630  123.10399628    0.76999998    2.76999998
   15.26583290  123.04100037    0.76999998    2.80999994
   15.26888847  116.61299896    0.76999998    2.78999996
   15.27222157  106.49800110    0.79000002    2.78999996
   15.27555561  137.54400635    0.79000002    2.80999994
   15.27861118  114.25800323    0.79000002    2.76999998
   15.28194427  127.49400330    0.76999998    2.78999996
   15.28500080  116.06199646    0.76999998    2.76999998
   15.28833389  124.61199951    0.76999998    2.78999996
   15.29166698  117.20500183    0.76999998    2.78999996
   15.29444504  121.54900360    0.76999998    2.76999998
   15.29500008  104.79499817    0.79000002    2.78999996
   15.29833412  114.46800232    0.80000001    2.78999996
   15.30444431  114.46800232    0.81999999    2.78999996
   15.30861092  102.81900024    0.81999999    2.80999994
   15.31194496  102.46199799    0.80000001    2.76999998
   15.31500053  111.00800323    0.80000001    2.78999996
   15.31833363  119.08599854    0.80000001    2.78999996
   15.32138920  111.24299622    0.80000001    2.78999996
   15.32472229  128.99800110    0.81999999    2.80999994
   15.32777786  106.57099915    0.80000001    2.78999996
   15.32861137  112.54799652    0.80000001    2.78999996
   15.33166695  105.32700348    0.81999999    2.78999996
   15.33500004  118.93599701    0.80000001    2.78999996
   15.33833313  117.46099854    0.80000001    2.78999996
   15.34138870  116.93699646    0.79000002    2.78999996
   15.34749985  116.93699646    0.79000002    2.78999996
   15.35138893  110.96600342    0.80000001    2.78999996
   15.35472298  106.05699921    0.79000002    2.78999996
   15.35805607  122.41400146    0.79000002    2.78999996
   15.36111164  134.51300049    0.79000002    2.78999996
   15.36166668  104.87999725    0.79000002    2.78999996
   15.36472225  115.23699951    0.79000002    2.80999994
   15.36805534  115.66100311    0.76999998    2.80999994
   15.37111092  125.86699677    0.75000000    2.78999996
   15.37444496  110.94699860    0.75000000    2.76999998
   15.37750053  121.68399811    0.73000002    2.78999996
   15.38083363  132.97500610    0.73000002    2.78999996
   15.38416672  126.36599731    0.73000002    2.78999996
   15.39027786  126.36599731    0.75000000    2.78999996
   15.39444447  124.11699677    0.75000000    2.80999994
   15.39499950  112.37599945    0.75000000    2.80999994
   15.39805508  113.67299652    0.75000000    2.78999996
   15.40138817  114.61100006    0.73000002    2.78999996
   15.40444374  121.30500031    0.73000002    2.78999996
   15.40777779  116.39299774    0.73000002    2.78999996
   15.41111088  127.54000092    0.73000002    2.78999996
   15.41416645  122.78099823    0.73000002    2.80999994
   15.41750050  123.91400146    0.73000002    2.80999994
   15.42083359  128.64599609    0.73000002    2.80999994
   15.42388916  119.99600220    0.70999998    2.78999996
   15.42722225  121.23100281    0.70999998    2.78999996
   15.42777824  123.07800293    0.70999998    2.78999996
   15.43305588  123.07800293    0.67000002    2.80999994
   15.43722248  124.96499634    0.64999998    2.80999994
   15.44055557  125.05200195    0.69000000    2.80999994
   15.44361115  119.23600006    0.69000000    2.78999996
   15.44694424  119.54900360    0.69000000    2.78999996
   15.44999981  111.33899689    0.69000000    2.80999994
   15.45333290  136.83299255    0.69000000    2.76999998
   15.45666695  127.75499725    0.70999998    2.78999996
   15.45972157  133.72900391    0.70999998    2.78999996
   15.46111107  129.87899780    0.69000000    2.78999996
   15.46361065  131.14700317    0.69000000    2.78999996
   15.46666622  119.21900177    0.69000000    2.80999994
   15.46999931  125.44599915    0.69000000    2.80999994
   15.47583294  125.44599915    0.69000000    2.80999994
   15.47999954  124.48699951    0.69000000    2.80999994
   15.48333359  130.81399536    0.67000002    2.78999996
   15.48638916  116.51000214    0.67000002    2.78999996
   15.48972225  116.96499634    0.67000002    2.80999994
   15.49305534  127.03800201    0.67000002    2.78999996
   15.49444485  130.08799744    0.67000002    2.78999996
   15.49666691  120.26999664    0.67000002    2.78999996
   15.49972248  129.54100037    0.67000002    2.78999996
   15.50305557  123.31999969    0.67000002    2.78999996
   15.50611115  126.63300323    0.67000002    2.80999994
   15.50944424  118.89600372    0.69000000    2.78999996
   15.51277733  121.59999847    0.69000000    2.78999996
   15.51888847  121.59999847    0.69000000    2.78999996
   15.52277756  114.66200256    0.70999998    2.78999996
   15.52611065  126.40599823    0.70999998    2.78999996
   15.52777767  132.98399353    0.70999998    2.78999996
   15.52972221  119.40000153    0.70999998    2.82999992
   15.53277779  117.19499969    0.67000002    2.80999994
   15.53611183  125.77899933    0.67000002    2.80999994
   15.53916740  112.29000092    0.67000002    2.80999994
   15.54250050  131.81300354    0.69000000    2.80999994
   15.54583359  123.34700012    0.69000000    2.78999996
   15.54888916  126.23600006    0.69000000    2.78999996
   15.55222225  134.22799683    0.69000000    2.80999994
   15.55527782  116.60700226    0.73000002    2.78999996
   15.56166649  116.60700226    0.73000002    2.80999994
   15.56583309  117.62300110    0.73000002    2.78999996
   15.56888866  123.61699677    0.76999998    2.78999996
   15.57222176  125.41300201    0.79000002    2.80999994
   15.57527733  123.66000366    0.76999998    2.78999996
   15.57861137  119.83100128    0.76999998    2.78999996
   15.58194447  132.44700623    0.79000002    2.78999996
   15.58500004  133.14900208    0.79000002    2.78999996
   15.58833313  139.71000671    0.80000001    2.80999994
   15.59138870  128.51699829    0.79000002    2.78999996
   15.59444427  116.85800171    0.80000001    2.78999996
   15.59527779  110.69699860    0.80000001    2.78999996
   15.59833336  136.95399475    0.83999997    2.78999996
   15.60444450  136.95399475    0.80000001    2.78999996
   15.60861111  129.06799316    0.80000001    2.78999996
   15.61194515  128.28799438    0.79000002    2.80999994
   15.61500072  119.36299896    0.80000001    2.78999996
   15.61833382  126.90299988    0.79000002    2.80999994
   15.62138939  135.53399658    0.80000001    2.78999996
   15.62472248  118.63400269    0.80000001    2.78999996
   15.62777805  118.91999817    0.81999999    2.78999996
   15.62833309  129.00900269    0.81999999    2.78999996
   15.63138866  107.56900024    0.81999999    2.80999994
   15.63472176  125.87200165    0.81999999    2.78999996
   15.63777733  117.46199799    0.81999999    2.80999994
   15.64111137  134.79600525    0.80000001    2.78999996
   15.64722252  134.79600525    0.80000001    2.78999996
   15.65138817  148.08500671    0.80000001    2.78999996
   15.65472221  143.94700623    0.80000001    2.80999994
   15.65777779  124.61299896    0.80000001    2.80999994
   15.66111088  123.72799683    0.80000001    2.78999996
   15.66166592  142.10200500    0.80000001    2.78999996
   15.67666721  125.76999664    0.79000002    2.80999994
   15.68000031  131.10299683    0.75000000    2.80999994
   15.68333340  141.44799805    0.73000002    2.80999994
   15.68638897  135.74800110    0.70999998    2.80999994
   15.68972206  115.07900238    0.70999998    2.78999996
   15.69416714  115.07900238    0.73000002    2.80999994
   15.69833374  136.05400085    0.75000000    2.80999994
   15.70138836  116.83000183    0.76999998    2.80999994
   15.70472240  136.01899719    0.76999998    2.80999994
   15.70777798  136.96299744    0.73000002    2.80999994
   15.71111107  129.37399292    0.73000002    2.78999996
   15.71444416  137.12300110    0.75000000    2.80999994
   15.71749973  146.29600525    0.73000002    2.80999994
   15.72083282  140.13499451    0.75000000    2.80999994
   15.72388840  153.77699280    0.73000002    2.80999994
   15.72722149  122.74099731    0.73000002    2.80999994
   15.72916603  146.41999817    0.73000002    2.80999994
   15.73083305  145.39500427    0.73000002    2.80999994
   15.73694515  145.39500427    0.73000002    2.78999996
   15.74111176  150.40199280    0.73000002    2.78999996
   15.74416733  131.41400146    0.73000002    2.80999994
   15.74750042  137.77799988    0.75000000    2.78999996
   15.75083351  136.03999329    0.79000002    2.82999992
   15.75388908  147.75999451    0.76999998    2.80999994
   15.75722218  126.92800140    0.79000002    2.82999992
   15.76027775  149.13699341    0.75000000    2.80999994
   15.76249981  138.05499268    0.75000000    2.78999996
   15.76416683  143.06700134    0.75000000    2.80999994
   15.76722240  138.95799255    0.75000000    2.80999994
   15.77055550  138.92799377    0.75000000    2.80999994
   15.77361107  123.84899902    0.73000002    2.80999994
   15.77972221  123.84899902    0.70999998    2.78999996
   15.78388977  129.86000061    0.70999998    2.80999994
   15.78722286  134.16999817    0.70999998    2.80999994
   15.79027843  125.41500092    0.70999998    2.80999994
   15.79361153  128.94999695    0.70999998    2.80999994
   15.79611111  129.33000183    0.69000000    2.80999994
   15.79722309  125.26799774    0.70999998    2.82999992
   15.80055618  132.85899353    0.69000000    2.80999994
   15.80388927  113.02500153    0.70999998    2.80999994
   15.80722237  120.23799896    0.70999998    2.80999994
   15.81027794  125.32499695    0.70999998    2.82999992
   15.81361103  123.67800140    0.70999998    2.80999994
   15.81694412  131.02099609    0.73000002    2.80999994
   15.82277775  131.02099609    0.69000000    2.80999994
   15.82666683  141.04200745    0.69000000    2.80999994
   15.82944393  136.68499756    0.70999998    2.80999994
   15.83055592  125.95800018    0.70999998    2.80999994
   15.83388901  143.34899902    0.61000001    2.80999994
   15.83694458  141.16400146    0.61000001    2.82999992
   15.84027767  133.76300049    0.61000001    2.82999992
   15.84333324  139.50799561    0.58999997    2.82999992
   15.84666634  134.91799927    0.61000001    2.80999994
   15.85000038  141.94799805    0.58999997    2.80999994
   15.85305595  135.05999756    0.58999997    2.80999994
   15.85638905  134.80099487    0.58999997    2.80999994
   15.85944462  136.60099792    0.61000001    2.82999992
   15.86555576  136.60099792    0.69000000    2.82999992
   15.86972237  143.57299805    0.61000001    2.80999994
   15.87277794  133.58599854    0.63000000    2.80999994
   15.87611103  125.10800171    0.63000000    2.80999994
   15.87916660  147.77699280    0.63000000    2.80999994
   15.88249969  135.28700256    0.63000000    2.80999994
   15.88583279  135.11799622    0.69000000    2.80999994
   15.88888836  151.58900452    0.69000000    2.80999994
   15.89222240  140.76499939    0.75000000    2.80999994
   15.89527798  112.01599884    0.73000002    2.78999996
   15.89638901  139.88400269    0.73000002    2.78999996
   15.89916611  126.77300262    0.73000002    2.80999994
   15.90222168  134.12600708    0.73000002    2.78999996
   15.90833282  134.12600708    0.80000001    2.80999994
   15.91249943  117.96299744    0.79000002    2.80999994
   15.91555500  132.90100098    0.80000001    2.80999994
   15.91888905  130.18699646    0.80000001    2.80999994
   15.92222214  127.98200226    0.79000002    2.80999994
   15.92527771  123.83799744    0.92000002    2.80999994
   15.92861176  137.36999512    0.89999998    2.80999994
   15.92972279  120.12400055    0.89999998    2.80999994
   15.93222237  131.83200073    0.88000000    2.78999996
   15.93527794  130.37199402    0.83999997    2.78999996
   15.93861103  126.49900055    0.86000001    2.80999994
   15.94166660  132.59800720    0.92000002    2.78999996
   15.94499969  118.59600067    0.88000000    2.78999996
   15.95111084  118.59600067    0.83999997    2.80999994
   15.95527744  122.55000305    0.86000001    2.80999994
   15.95861053  113.73300171    0.83999997    2.80999994
   15.96166611  121.49800110    0.79000002    2.80999994
   15.96333313  130.30900574    0.79000002    2.80999994
   15.96527767  117.83699799    0.76999998    2.80999994
   15.96861076  128.37800598    0.76999998    2.80999994
   15.97166634  132.07200623    0.76999998    2.80999994
   15.97499943  127.65399933    0.79000002    2.82999992
   15.97833252  126.68399811    0.80000001    2.82999992
   15.98138809  117.42299652    0.79000002    2.78999996
   15.98472214  128.25799561    0.76999998    2.80999994
   15.98777771  130.44299316    0.70999998    2.82999992
   15.99388885  130.44299316    0.70999998    2.80999994
   15.99805546  130.44900513    0.64999998    2.80999994
   16.00138855  128.50399780    0.64999998    2.80999994
   16.00444412  125.38899994    0.67000002    2.80999994
   16.00777817  122.68599701    0.67000002    2.80999994
   16.01111031  125.88999939    0.67000002    2.80999994
   16.01416588  122.88600159    0.67000002    2.80999994
   16.01749992  129.12399292    0.67000002    2.80999994
   16.02055550  126.96299744    0.69000000    2.80999994
   16.02388954  131.88000488    0.69000000    2.80999994
   16.02722168  122.20600128    0.69000000    2.78999996
   16.03000069  121.80400085    0.70999998    2.80999994
   16.03055573  129.45700073    0.70999998    2.80999994
   16.03694344  129.45700073    0.70999998    2.82999992
   16.04111099  143.28900146    0.70999998    2.80999994
   16.04416656  125.32900238    0.69000000    2.80999994
   16.04749870  120.55000305    0.69000000    2.80999994
   16.05055428  127.45300293    0.69000000    2.80999994
   16.05388832  123.56700134    0.70999998    2.78999996
   16.05694389  118.48899841    0.70999998    2.78999996
   16.06027794  134.75900269    0.69000000    2.78999996
   16.06333351  137.39900208    0.67000002    2.82999992
   16.06388855  138.02900696    0.67000002    2.80999994
   16.06722260  131.44799805    0.64999998    2.80999994
   16.07027817  137.25599670    0.63000000    2.80999994
   16.07361221  125.72299957    0.63000000    2.80999994
   16.07972336  125.72299957    0.61000001    2.80999994
   16.08388901  126.25700378    0.61000001    2.82999992
   16.08694458  130.84899902    0.61000001    2.82999992
   16.09027863  138.48699951    0.58999997    2.80999994
   16.09333420  147.09199524    0.56999999    2.80999994
   16.09666824  133.07400513    0.56999999    2.80999994
   16.09694481  141.81399536    0.56999999    2.80999994
   16.10027885  138.34399414    0.56999999    2.80999994
   16.10361099  156.75300598    0.61000001    2.80999994
   16.10666656  146.83099365    0.61000001    2.80999994
   16.11000061  141.65800476    0.61000001    2.80999994
   16.11305618  145.88299561    0.63000000    2.82999992
   16.11638832  138.18099976    0.67000002    2.82999992
   16.12249947  138.18099976    0.67000002    2.82999992
   16.12666702  133.78500366    0.70999998    2.80999994
   16.13000107  127.33699799    0.67000002    2.80999994
   16.13027763  117.20899963    0.67000002    2.80999994
   16.13361168  144.05299377    0.67000002    2.80999994
   16.13722229  152.89399719    0.67000002    2.82999992
   16.14055634  142.39100647    0.67000002    2.80999994
   16.14388847  133.77699280    0.69000000    2.80999994
   16.14694405  129.12699890    0.69000000    2.80999994
   16.15027809  125.26599884    0.70999998    2.82999992
   16.15361023  127.54499817    0.73000002    2.82999992
   16.15666580  134.98500061    0.75000000    2.82999992
   16.15999985  126.02300262    0.75000000    2.82999992
   16.16527748  126.02300262    0.75000000    2.80999994
   16.16944313  106.34999847    0.76999998    2.80999994
   16.17277718  142.27699280    0.76999998    2.80999994
   16.17611122  150.87899780    0.76999998    2.78999996
   16.17916679  163.59700012    0.79000002    2.80999994
   16.18249893  160.32000732    0.79000002    2.80999994
   16.18555450  157.30499268    0.80000001    2.80999994
   16.18888855  134.89700317    0.79000002    2.82999992
   16.19222069  148.50999451    0.80000001    2.78999996
   16.19527626  139.39599609    0.76999998    2.80999994
   16.19666672  113.84700012    0.76999998    2.78999996
   16.19888878  141.57699585    0.76999998    2.78999996
   16.20222282  151.04600525    0.75000000    2.80999994
   16.20833397  151.04600525    0.75000000    2.80999994
   16.21250153  141.45500183    0.75000000    2.80999994
   16.21555710  130.63600159    0.75000000    2.80999994
   16.21888924  144.64799500    0.75000000    2.80999994
   16.22194481  138.89700317    0.75000000    2.80999994
   16.22527885  144.42900085    0.75000000    2.80999994
   16.22861099  140.79600525    0.75000000    2.80999994
   16.23000145  155.52999878    0.73000002    2.82999992
   16.23222351  137.64999390    0.75000000    2.80999994
   16.23527718  140.65699768    0.73000002    2.80999994
   16.23861122  132.63900757    0.73000002    2.80999994
   16.24166679  126.17700195    0.73000002    2.80999994
   16.24500084  133.16299438    0.70999998    2.80999994
   16.25111198  133.16299438    0.73000002    2.80999994
   16.25527763  145.67100525    0.73000002    2.80999994
   16.25833321  133.24400330    0.73000002    2.80999994
   16.26166725  129.81100464    0.73000002    2.78999996
   16.26361084  140.98199463    0.73000002    2.80999994
   16.26527786  128.30000305    0.73000002    2.82999992
   16.26861000  130.97799683    0.73000002    2.82999992
   16.27194405  138.24200439    0.73000002    2.80999994
   16.27527809  137.94900513    0.73000002    2.80999994
   16.27833366  133.45300293    0.70999998    2.80999994
   16.28166580  143.92999268    0.75000000    2.80999994
   16.28499985  122.85700226    0.76999998    2.82999992
   16.28805542  130.66600037    0.75000000    2.82999992
   16.29388809  130.66600037    0.79000002    2.80999994
   16.29805565  138.79100037    0.80000001    2.80999994
   16.30138779  111.61199951    0.80000001    2.80999994
   16.30444336  119.79000092    0.80000001    2.80999994
   16.30777740  111.04900360    0.83999997    2.80999994
   16.31110954  115.04900360    0.81999999    2.80999994
   16.31416512  130.75599670    0.86000001    2.82999992
   16.31750107  113.11299896    0.88000000    2.78999996
   16.32055664  137.49400330    0.88000000    2.80999994
   16.32389069  134.87300110    0.88000000    2.80999994
   16.32722282  140.83599854    0.88000000    2.80999994
   16.33027840  140.29100037    0.88000000    2.80999994
   16.33083344  129.23899841    0.88000000    2.80999994
   16.33694458  129.23899841    0.88000000    2.78999996
   16.34111214  125.18900299    0.89999998    2.80999994
   16.34444427  142.99000549    0.89999998    2.80999994
   16.34749985  143.77900696    0.89999998    2.78999996
   16.35083389  118.29499817    0.92000002    2.80999994
   16.35388947  129.63400269    0.92000002    2.78999996
   16.35722351  142.33500671    0.86000001    2.78999996
   16.36055565  126.03199768    0.88000000    2.78999996
   16.36361122  124.16999817    0.81999999    2.82999992
   16.36416626  135.76699829    0.81999999    2.82999992
   16.36750031  115.24600220    0.81999999    2.82999992
   16.37083435  133.17500305    0.76999998    2.80999994
   16.37388992  130.92500305    0.76999998    2.82999992
   16.37972260  130.92500305    0.76999998    2.80999994
   16.38388824  124.79000092    0.73000002    2.80999994
   16.38694382  143.53599548    0.73000002    2.78999996
   16.39027786  136.82299805    0.73000002    2.80999994
   16.39333344  142.99299622    0.73000002    2.80999994
   16.39666748  131.13900757    0.70999998    2.80999994
   16.39722252  141.61399841    0.70999998    2.82999992
   16.40055466  126.29599762    0.70999998    2.82999992
   16.40361023  133.68499756    0.70999998    2.80999994
   16.40694427  134.86199951    0.69000000    2.82999992
   16.41027832  127.83999634    0.69000000    2.82999992
   16.41333389  131.56199646    0.69000000    2.80999994
   16.41666603  110.94599915    0.69000000    2.82999992
   16.42249870  110.94599915    0.70999998    2.80999994
   16.42666626  118.77700043    0.69000000    2.80999994
   16.42972183  137.64199829    0.69000000    2.82999992
   16.43055534  129.89199829    0.69000000    2.82999992
   16.43361092  126.73699951    0.70999998    2.80999994
   16.43666649  124.31600189    0.69000000    2.82999992
   16.43999863  148.00100708    0.69000000    2.80999994
   16.44333267  135.59899902    0.70999998    2.80999994
   16.44638824  125.86599731    0.70999998    2.82999992
   16.44972038  129.21899414    0.70999998    2.80999994
   16.45305634  106.59600067    0.70999998    2.80999994
   16.45611191  116.91300201    0.69000000    2.80999994
   16.45944595  105.18499756    0.69000000    2.80999994
   16.46527863  105.18499756    0.69000000    2.80999994
   16.46944427  126.55699921    0.69000000    2.80999994
   16.47277832  138.06399536    0.70999998    2.82999992
   16.47583389  120.48500061    0.70999998    2.82999992
   16.47916794  132.92399597    0.73000002    2.82999992
   16.48222351  126.07900238    0.70999998    2.80999994
   16.48555565  121.90699768    0.70999998    2.80999994
   16.48888969  115.61199951    0.70999998    2.80999994
   16.49194527  118.25000000    0.73000002    2.80999994
   16.49527740  109.52400208    0.70999998    2.80999994
   16.49722290  113.56999969    0.70999998    2.80999994
   16.49888992  106.60900116    0.70999998    2.82999992
   16.50194359  128.21099854    0.73000002    2.80999994
   16.50805473  128.21099854    0.73000002    2.80999994
   16.51222229  130.44799805    0.75000000    2.80999994
   16.51555634  129.66900635    0.75000000    2.80999994
   16.51861000  119.25499725    0.76999998    2.80999994
   16.52194405  111.65799713    0.79000002    2.80999994
   16.52527809  128.36399841    0.80000001    2.80999994
   16.52833366  118.30799866    0.79000002    2.80999994
   16.53055573  134.35499573    0.76999998    2.80999994
   16.53222275  117.98100281    0.76999998    2.80999994
   16.53527641  137.62399292    0.75000000    2.82999992
   16.53861046  125.40899658    0.75000000    2.82999992
   16.54194450  118.83399963    0.76999998    2.82999992
   16.54500008  136.34899902    0.76999998    2.80999994
   16.55111122  136.34899902    0.79000002    2.80999994
   16.55499840  129.24099731    0.79000002    2.80999994
   16.55833244  124.15499878    0.79000002    2.80999994
   16.56166649  137.59199524    0.79000002    2.80999994
   16.56388855  132.93099976    0.73000002    2.80999994
   16.56527710  140.16099548    0.73000002    2.80999994
   16.56833458  118.11299896    0.70999998    2.82999992
   16.57166672  137.10899353    0.70999998    2.82999992
   16.57500076  146.22300720    0.70999998    2.80999994
   16.57805634  134.68699646    0.70999998    2.82999992
   16.58139038  121.18199921    0.70999998    2.80999994
   16.58444595  136.91499329    0.73000002    2.80999994
   16.58777809  130.23699951    0.73000002    2.80999994
   16.59388924  130.23699951    0.73000002    2.80999994
   16.59805679  134.09399414    0.75000000    2.82999992
   16.60111237  133.69099426    0.73000002    2.82999992
   16.60444450  131.35000610    0.73000002    2.80999994
   16.60777855  131.48800659    0.73000002    2.82999992
   16.61083412  133.53900146    0.73000002    2.82999992
   16.61416626  123.36699677    0.75000000    2.80999994
   16.61722183  124.67900085    0.75000000    2.82999992
   16.62055588  137.53700256    0.76999998    2.80999994
   16.62388992  125.40899658    0.75000000    2.80999994
   16.62694550  113.05200195    0.76999998    2.80999994
   16.63027763  131.78599548    0.79000002    2.80999994
   16.63083267  130.89300537    0.79000002    2.80999994
   16.63666725  130.89300537    0.79000002    2.80999994
   16.64083290  133.44599915    0.79000002    2.80999994
   16.64416695  135.12899780    0.79000002    2.80999994
   16.64722252  141.69000244    0.79000002    2.82999992
   16.65055466  143.86099243    0.79000002    2.80999994
   16.65361023  142.44599915    0.79000002    2.80999994
   16.65694427  144.81100464    0.79000002    2.80999994
   16.66027832  126.33999634    0.80000001    2.80999994
   16.66333389  137.73800659    0.80000001    2.80999994
   16.66416550  149.46600342    0.80000001    2.80999994
   16.66722107  133.28199768    0.79000002    2.80999994
   16.67027664  130.50599670    0.80000001    2.80999994
   16.67361069  137.24299622    0.80000001    2.82999992
   16.69472122  137.24299622    0.86000001    2.78999996
   16.69861031  139.91200256    0.80000001    2.80999994
   16.70194435  131.00300598    0.80000001    2.80999994
   16.70527840  137.21800232    0.80000001    2.82999992
   16.70833397  136.10499573    0.80000001    2.80999994
   16.71166801  139.76300049    0.83999997    2.80999994
   16.71500015  143.94299316    0.86000001    2.80999994
   16.71805573  126.12100220    0.83999997    2.80999994
   16.72138977  124.75499725    0.83999997    2.80999994
   16.72444534  128.12100220    0.83999997    2.80999994
   16.72777748  142.41999817    0.81999999    2.80999994
   16.73083305  148.67300415    0.83999997    2.80999994
   16.73139000  151.35299683    0.83999997    2.80999994
   16.73722267  151.35299683    0.86000001    2.80999994
   16.74138832  132.26300049    0.83999997    2.80999994
   16.74472237  138.65199280    0.86000001    2.80999994
   16.74805641  125.22799683    0.83999997    2.80999994
   16.75111198  127.12500000    0.86000001    2.82999992
   16.75444412  128.51600647    0.86000001    2.80999994
   16.75749969  130.83500671    0.88000000    2.80999994
   16.76083374  130.89799500    0.88000000    2.80999994
   16.76416588  130.12500000    0.88000000    2.82999992
   16.76472282  131.85800171    0.88000000    2.82999992
   16.76777840  129.77299500    0.86000001    2.80999994
   16.77111053  134.10800171    0.83999997    2.80999994
   16.77416611  135.84300232    0.83999997    2.80999994
   16.78027725  135.84300232    0.86000001    2.80999994
   16.78444481  134.02200317    0.86000001    2.80999994
   16.78750038  133.25000000    0.88000000    2.80999994
   16.79083252  142.22300720    0.88000000    2.80999994
   16.79416656  134.76600647    0.86000001    2.80999994
   16.79722214  134.18200684    0.86000001    2.80999994
   16.79805565  144.19700623    0.86000001    2.80999994
   16.80083275  130.52400208    0.86000001    2.80999994
   16.80416679  142.39700317    0.83999997    2.80999994
   16.80749893  136.42500305    0.83999997    2.80999994
   16.81055450  144.58299255    0.83999997    2.80999994
   16.81388855  145.70799255    0.83999997    2.80999994
   16.81694603  153.63299561    0.83999997    2.80999994
   16.82305717  153.63299561    0.83999997    2.80999994
   16.82722282  141.16499329    0.81999999    2.82999992
   16.83027840  140.40600586    0.83999997    2.80999994
   16.83139038  146.80799866    0.81999999    2.80999994
   16.83388901  142.79100037    0.81999999    2.80999994
   16.83722305  137.39500427    0.80000001    2.82999992
   16.84055710  153.21699524    0.79000002    2.80999994
   16.84361267  144.62100220    0.76999998    2.80999994
   16.84694481  150.79100037    0.79000002    2.80999994
   16.85000038  134.63200378    0.76999998    2.80999994
   16.85333443  157.21000671    0.76999998    2.80999994
   16.85666656  135.71699524    0.79000002    2.82999992
   16.85972214  145.72399902    0.76999998    2.82999992
   16.86583328  145.72399902    0.79000002    2.82999992
   16.87000084  150.15100098    0.81999999    2.80999994
   16.87333298  153.45899963    0.83999997    2.80999994
   16.87638855  157.97200012    0.86000001    2.80999994
   16.87972260  139.96499634    0.88000000    2.80999994
   16.88305473  170.30099487    0.94000000    2.80999994
   16.88611031  152.43200684    0.95999998    2.80999994
   16.88944435  160.64799500    0.98000002    2.80999994
   16.89249992  162.33999634    0.95999998    2.80999994
   16.89583397  130.72799683    0.94000000    2.78999996
   16.89805603  141.33399963    0.92000002    2.80999994
   16.89944458  127.38500214    0.92000002    2.78999996
   16.90277672  143.11700439    0.92000002    2.80999994
   16.90861130  143.11700439    0.89999998    2.80999994
   16.91277695  149.56300354    0.92000002    2.78999996
   16.91611099  151.49299622    0.89999998    2.80999994
   16.91944313  134.31300354    0.86000001    2.80999994
   16.92249870  166.02999878    0.86000001    2.80999994
   16.92583275  174.41400146    0.83999997    2.80999994
   16.92916679  170.55900574    0.83999997    2.82999992
   16.93138885  188.23899841    0.81999999    2.80999994
   16.93277740  222.93299866    0.81999999    2.80999994
   16.93610954  194.19599915    0.86000001    2.80999994
   16.93944359  204.72500610    0.86000001    2.80999994
   16.94249916  229.30799866    0.86000001    2.78999996
   16.94583321  244.26600647    0.83999997    2.82999992
   16.95166779  244.26600647    0.83999997    2.78999996
   16.95583344  219.16200256    0.79000002    2.80999994
   16.95888901  219.83500671    0.79000002    2.82999992
   16.96222305  230.68800354    0.79000002    2.80999994
   16.96472359  205.01300049    0.79000002    2.80999994
   16.96583366  203.02200317    0.79000002    2.80999994
   16.96916771  174.45500183    0.79000002    2.80999994
   16.97249985  178.41499329    0.76999998    2.80999994
   16.97555542  170.28100586    0.76999998    2.80999994
   16.97888947  162.45199585    0.76999998    2.80999994
   16.98194504  175.92799377    0.80000001    2.80999994
   16.98527718  187.77299500    0.80000001    2.80999994
   16.98861122  180.28799438    0.80000001    2.80999994
   16.99444389  180.28799438    0.81999999    2.80999994
   16.99861145  182.22900391    0.81999999    2.82999992
   17.00166702  240.73699951    0.81999999    2.82999992
   17.00499916  229.83500671    0.83999997    2.80999994
   17.00833321  244.43299866    0.80000001    2.80999994
   17.01166725  227.08200073    0.79000002    2.80999994
   17.01472282  190.47799683    0.79000002    2.80999994
   17.01805496  207.79499817    0.79000002    2.80999994
   17.02111053  261.36499023    0.76999998    2.80999994
   17.02444458  239.54200745    0.79000002    2.80999994
   17.02777672  260.15200806    0.79000002    2.80999994
   17.03083229  247.67799377    0.76999998    2.82999992
   17.03138924  285.34100342    0.76999998    2.82999992
   17.03722191  285.34100342    0.76999998    2.82999992
   17.04138756  307.35598755    0.76999998    2.82999992
   17.04333305  312.37600708    0.76999998    2.82999992
   17.04472160  313.84399414    0.76999998    2.82999992
   17.04611015  197.83900452    0.75000000    2.82999992
   17.04611015  261.36499023    0.76999998    2.80999994
   17.04638863  239.54200745    0.79000002    2.80999994
   17.04638863  260.15200806    0.79000002    2.80999994
   17.04638863  247.67799377    0.76999998    2.82999992
   17.04666710  307.35598755    0.76999998    2.82999992
   17.04666710  244.43299866    0.80000001    2.80999994
   17.04666710  227.08200073    0.79000002    2.80999994
   17.04694366  190.47799683    0.79000002    2.80999994
   17.04694366  207.79499817    0.79000002    2.80999994
   17.04749870  302.65798950    0.76999998    2.80999994
   17.04972076  248.54299927    0.75000000    2.80999994
   17.05166626  290.29000854    0.75000000    2.82999992
   17.05472183  287.92001343    0.75000000    2.80999994
   17.05805397  268.42498779    0.75000000    2.80999994
   17.06138802  251.45300293    0.75000000    2.80999994
   17.06444359  298.45700073    0.75000000    2.80999994
   17.07027817  298.45700073    0.75000000    2.82999992
   17.07444572  308.01199341    0.73000002    2.82999992
   17.07666779  247.36599731    0.73000002    2.82999992
   17.07666779  290.29000854    0.75000000    2.82999992
   17.07666779  287.92001343    0.75000000    2.80999994
   17.07694626  268.42498779    0.75000000    2.80999994
   17.07694626  251.45300293    0.75000000    2.80999994
   17.07694626  298.45700073    0.75000000    2.80999994
   17.07722282  308.01199341    0.73000002    2.82999992
   17.07916832  223.68200684    0.73000002    2.80999994
   17.08250046  266.28298950    0.73000002    2.80999994
   17.08555603  249.25500488    0.73000002    2.80999994
   17.08889008  290.54098511    0.73000002    2.80999994
   17.09194565  257.00900269    0.75000000    2.80999994
   17.09749985  257.00900269    0.75000000    2.80999994
   17.10166740  255.66000366    0.79000002    2.82999992
   17.10472298  268.86401367    0.76999998    2.82999992
   17.10805511  253.80799866    0.79000002    2.82999992
   17.11055565  218.15600586    0.79000002    2.80999994
   17.11166763  225.45599365    0.79000002    2.80999994
   17.11499977  269.08999634    0.76999998    2.80999994
   17.11833382  234.67199707    0.79000002    2.80999994
   17.12138939  268.64001465    0.76999998    2.80999994
   17.12472153  251.55700684    0.76999998    2.82999992
   17.12777710  263.37200928    0.76999998    2.80999994
   17.13111115  241.06799316    0.76999998    2.80999994
   17.13444519  209.87399292    0.75000000    2.80999994
   17.14027786  209.87399292    0.73000002    2.80999994
   17.14444351  216.04200745    0.70999998    2.82999992
   17.14749908  270.41198730    0.70999998    2.82999992
   17.15083313  221.40499878    0.70999998    2.82999992
   17.15416718  210.49400330    0.73000002    2.80999994
   17.15722275  219.37100220    0.73000002    2.80999994
   17.16055489  218.42500305    0.73000002    2.80999994
   17.16388893  223.24200439    0.75000000    2.80999994
   17.16694450  209.02400208    0.76999998    2.80999994
   17.17027664  164.36099243    0.75000000    2.82999992
   17.17333221  183.11199951    0.75000000    2.80999994
   17.17666626  208.43600464    0.76999998    2.82999992
   17.17722130  214.09800720    0.76999998    2.82999992
   17.18305397  214.09800720    0.79000002    2.82999992
   17.18722153  212.72599792    0.79000002    2.80999994
   17.19055557  205.20399475    0.76999998    2.80999994
   17.19361115  208.94200134    0.76999998    2.80999994
   17.19694328  187.31599426    0.76999998    2.80999994
   17.20027924  210.90299988    0.76999998    2.78999996
   17.20333481  163.52799988    0.79000002    2.80999994
   17.20666695  175.69099426    0.79000002    2.80999994
   17.20972252  206.76800537    0.79000002    2.80999994
   17.21055603  211.52299500    0.79000002    2.80999994
   17.21361160  192.26800537    0.79000002    2.82999992
   17.21666718  210.16200256    0.79000002    2.80999994
   17.22000122  179.43800354    0.79000002    2.78999996
   17.22583389  179.43800354    0.80000001    2.80999994
   17.23000145  179.56900024    0.80000001    2.80999994
   17.23333359  175.25000000    0.83999997    2.78999996
   17.23666763  170.16200256    0.81999999    2.80999994
   17.23972321  181.60699463    0.81999999    2.80999994
   17.24305534  182.74400330    0.81999999    2.80999994
   17.24388885  184.09899902    0.80000001    2.80999994
   17.24666786  176.06199646    0.80000001    2.82999992
   17.25000000  147.20799255    0.80000001    2.80999994
   17.25305557  167.50300598    0.80000001    2.78999996
   17.25638962  173.95899963    0.80000001    2.80999994
   17.25944519  170.43499756    0.80000001    2.78999996
   17.26277733  171.62899780    0.80000001    2.80999994
   17.26888847  171.62899780    0.79000002    2.80999994
   17.27305603  166.25700378    0.76999998    2.78999996
   17.27611160  149.91200256    0.76999998    2.80999994
   17.27722168  159.01300049    0.76999998    2.80999994
   17.28000069  168.88000488    0.76999998    2.80999994
   17.28305435  161.96499634    0.75000000    2.80999994
   17.28638840  150.61599731    0.75000000    2.80999994
   17.28972244  166.38299561    0.76999998    2.78999996
   17.29277802  130.26199341    0.79000002    2.82999992
   17.29611015  157.14700317    0.79000002    2.80999994
   17.29916573  147.51400757    0.80000001    2.80999994
   17.30249977  154.26400757    0.81999999    2.80999994
   17.30583191  158.40400696    0.81999999    2.80999994
   17.31166649  158.40400696    0.83999997    2.80999994
   17.31583214  158.18699646    0.83999997    2.80999994
   17.31888962  144.76600647    0.83999997    2.78999996
   17.32222366  162.60000610    0.83999997    2.78999996
   17.32555580  165.04100037    0.88000000    2.78999996
   17.32861137  150.25399780    0.88000000    2.80999994
   17.33194542  143.69700623    0.92000002    2.78999996
   17.33527756  169.56900024    0.94000000    2.78999996
   17.33833313  147.26800537    0.94000000    2.78999996
   17.34166718  138.93499756    0.95999998    2.78999996
   17.34388924  126.01599884    0.94000000    2.78999996
   17.34527779  132.90499878    0.94000000    2.78999996
   17.34833336  119.21800232    0.94000000    2.78999996
   17.35444450  119.21800232    0.92000002    2.80999994
   17.35861206  130.54299927    0.89999998    2.80999994
   17.36194420  142.39799500    0.88000000    2.78999996
   17.36499977  117.11599731    0.88000000    2.80999994
   17.36833382  113.94400024    0.89999998    2.78999996
   17.37166595  129.60400391    0.89999998    2.78999996
   17.37472153  111.47100067    0.92000002    2.78999996
   17.37722206  122.33799744    0.92000002    2.80999994
   17.37861061  124.52100372    0.92000002    2.78999996
   17.38166618  132.83599854    0.92000002    2.80999994
   17.38500023  135.51899719    0.92000002    2.78999996
   17.38833237  133.37500000    0.94000000    2.80999994
   17.39138794  128.78799438    0.94000000    2.78999996
   17.39722252  128.78799438    0.92000002    2.80999994
   17.40138817  126.02899933    0.92000002    2.80999994
   17.40472221  136.55599976    0.89999998    2.80999994
   17.40805435  143.33000183    0.89999998    2.80999994
   17.41055489  130.06700134    0.89999998    2.78999996
   17.41166687  129.21099854    0.89999998    2.78999996
   17.41472244  122.58200073    0.89999998    2.78999996
   17.41805458  121.04399872    0.89999998    2.80999994
   17.42138863  118.19699860    0.92000002    2.80999994
   17.42444420  122.12899780    0.92000002    2.80999994
   17.42777634  130.57299805    0.92000002    2.78999996
   17.43083191  116.49199677    0.89999998    2.80999994
   17.43416595  124.81999969    0.89999998    2.78999996
   17.44027710  124.81999969    0.89999998    2.80999994
   17.44444275  111.85299683    0.89999998    2.78999996
   17.44749832  124.40599823    0.89999998    2.80999994
   17.45083427  131.53300476    0.89999998    2.80999994
   17.45388985  118.27700043    0.89999998    2.80999994
   17.45722389  135.79499817    0.88000000    2.80999994
   17.46055603  128.68600464    0.92000002    2.80999994
   17.46361160  130.29499817    0.92000002    2.80999994
   17.46694565  114.92600250    0.92000002    2.80999994
   17.47000122  117.50399780    0.94000000    2.78999996
   17.47333336  128.16499329    0.89999998    2.80999994
   17.47666740  125.99800110    0.89999998    2.80999994
   17.47722244  127.71499634    0.89999998    2.80999994
   17.48305511  127.71499634    0.94000000    2.78999996
   17.48722267  118.49900055    0.92000002    2.80999994
   17.49027824  119.05799866    0.94000000    2.82999992
   17.49361229  130.08299255    0.89999998    2.78999996
   17.49694443  119.70700073    0.94000000    2.82999992
   17.50000000  132.14500427    0.95999998    2.80999994
   17.50333405  129.76800537    0.98000002    2.80999994
   17.50666618  111.17400360    0.98000002    2.80999994
   17.50972176  119.67900085    0.98000002    2.80999994
   17.51083374  133.29400635    1.03999996    2.80999994
   17.51361084  125.61499786    1.03999996    2.80999994
   17.51694489  123.65299988    1.66999996    2.80999994
   17.52027702  119.79199982    2.28999996    2.78999996
   17.52583313  119.79199982    2.91000009    2.78999996
   17.53000069  116.39600372    3.07999992    2.78999996
   17.53305435  130.57099915    4.07999992    2.78999996
   17.53638840  129.19299316    4.90999985    2.78999996
   17.53972244  121.82800293    4.88999987    2.78999996
   17.54277802   97.06770325    4.82999992    2.78999996
   17.54388809  123.09200287    4.90999985    2.75000000
   17.54666710  113.92600250    4.90999985    2.75000000
   17.54972076  123.68299866    4.51000023    2.78999996
   17.55305481  110.48799896    4.84999990    2.76999998
   17.55638885  116.00800323    4.71999979    2.76999998
   17.55944443  127.30999756    3.80999994    2.76999998
   17.56277657  116.23300171    3.91000009    2.80999994
   17.56861115  116.23300171    1.53999996    2.82999992
   17.57277870  117.57900238    1.58000004    2.80999994
   17.57611275  114.13300323    1.39999998    2.80999994
   17.57722282  115.20300293    1.63000000    2.80999994
   17.57972336  115.21800232    1.58000004    2.80999994
   17.58305550  127.42800140    1.75000000    2.80999994
   17.58611107  117.01699829    2.01999998    2.78999996
   17.58944511  117.32800293    1.88000000    2.78999996
   17.59250069  114.12200165    1.64999998    2.80999994
   17.59583473  124.58300018    1.48000002    2.80999994
   17.59916687  127.85399628    1.78999996    2.78999996
   17.60222244  119.52400208    1.51999998    2.80999994
   17.60555649  122.92199707    1.25000000    2.80999994
   17.61166763  122.92199707    1.76999998    2.80999994
   17.61555672  122.94599915    3.41000009    2.78999996
   17.61888885  112.15100098    2.42000008    2.80999994
   17.62222290  127.26000214    3.82999992    2.76999998
   17.62527847  131.46899414    4.67999983    2.80999994
   17.62861061  123.13700104    3.41000009    2.80999994
   17.63166618  119.55500031    3.34999990    2.78999996
   17.63500023  128.55999756    2.98000002    2.78999996
   17.63833237  117.36900330    2.67000008    2.78999996
   17.64138794  117.84300232    2.59999990    2.78999996
   17.64388847  115.28800201    2.59999990    2.78999996
   17.64527702  121.25499725    1.80999994    2.80999994
   17.64833260  127.44699860    1.11000001    2.78999996
   17.65444374  127.44699860    0.86000001    2.80999994
   17.65861130  135.84800720    0.86000001    2.80999994
   17.66166687  129.14799500    0.81999999    2.80999994
   17.66499901  124.98500061    0.81999999    2.80999994
   17.66833305  130.57800293    0.81999999    2.80999994
   17.67138863  125.97200012    0.81999999    2.80999994
   17.67472076  125.95700073    0.81999999    2.80999994
   17.67722130  127.05100250    1.01999998    2.82999992
   17.67833328  123.08999634    1.00000000    2.80999994
   17.68138885  125.40499878    1.30999994    2.80999994
   17.68472099  111.00900269    2.25000000    2.76999998
   17.68805504  114.94300079    2.53999996    2.78999996
   17.69111061  118.09799957    1.86000001    2.80999994
   17.71194458  118.09799957    1.48000002    2.80999994
   17.71583366  118.42500305    1.51999998    2.80999994
   17.71916771  120.63200378    0.86000001    2.80999994
   17.72249985  121.51899719    0.88000000    2.80999994
   17.72555542  122.51699829    0.86000001    2.80999994
   17.72888947  113.02600098    0.88000000    2.78999996
   17.73222351  112.47899628    0.88000000    2.80999994
   17.73527718  124.32800293    0.88000000    2.78999996
   17.73861122  126.42400360    0.88000000    2.80999994
   17.74166679  120.39600372    0.88000000    2.80999994
   17.74416733  115.32199860    0.88000000    2.80999994
   17.74555588  131.75700378    0.88000000    2.80999994
   17.74861145  106.73000336    0.88000000    2.80999994
   17.75444412  106.73000336    0.86000001    2.80999994
   17.75861168  115.73799896    0.83999997    2.80999994
   17.76194382  122.29000092    0.81999999    2.80999994
   17.76527786  130.48399353    0.83999997    2.80999994
   17.76833344  126.12699890    0.83999997    2.80999994
   17.77166557  117.27500153    0.92000002    2.82999992
   17.90027809   -1.00000000   -1.00000000   -1.00000000
   18.05333328   -1.00000000   -1.00000000   -1.00000000
   18.23638916   -1.00000000   -1.00000000   -1.00000000
   18.31027794   66.68460083    1.50000000    2.76999998
   18.31361008  123.42099762    1.60000002    2.76999998
   18.31694603  125.45700073    1.75000000    2.76999998
   18.32000160  127.62400055    1.75000000    2.76999998
   18.32333374  127.76000214    1.75000000    2.76999998
   18.32638931  129.88999939    2.48000002    2.76999998
   18.33055687  129.88999939    4.90999985    2.66000009
   18.33472252  124.55599976    4.90999985    2.66000009
   18.33805656  121.16600037    3.93000007    2.76999998
   18.34111214  134.41499329    2.67000008    2.75000000
   18.34361267  127.04100037    1.48000002    2.78999996
   18.34500122  137.68800354    1.34000003    2.78999996
   18.34805679  122.59600067    2.09999990    2.78999996
   18.35138893  115.52100372    4.90999985    2.51999998
   18.35472298  173.98399353    4.90999985    2.51999998
   18.35777855  136.09100342    4.90999985    2.28999996
   18.36111069  130.49800110    4.90999985    2.75000000
   18.36416626  148.39300537    4.90999985    2.67000008
   18.36750031  174.60699463    4.90999985    2.34999990
   18.37361145  174.60699463    4.90999985    1.66999996
   18.37750053   -1.00000000    4.90999985    1.75000000
   18.38083267  233.79499817    4.90999985    1.98000002
   18.38416672   21.23979950    4.90999985    2.01999998
   18.38722229   -1.00000000    4.90999985    2.09999990
   18.39055634   -1.00000000    4.90999985    1.66999996
   18.39388847   -1.00000000    4.90999985    1.75000000
   18.39694405   -1.00000000    4.90999985    1.01999998
   18.40027809   -1.00000000    4.90999985    0.86000001
   18.40333366   -1.00000000    4.90999985    0.67000002
   18.40666580   -1.00000000    4.90999985    0.89999998
   18.40999985   -1.00000000    4.90999985    0.89999998
   18.42027664   -1.00000000    4.90999985    0.79000002
   18.42361069   -1.00000000    4.90999985    1.55999994
   18.42694473  189.90199280    4.90999985    2.25000000
   18.43000031  147.26600647    4.90999985    2.36999989
   18.43333244   67.64600372    4.90999985    2.26999998
   18.43666649   -1.00000000    4.90999985    1.91999996
   18.43972206  249.12800598    4.90999985    2.07999992
   18.44305420  191.89799500    4.90999985    2.15000010
   18.44388771  408.55899048    4.90999985    2.17000008
   18.44666672   -1.00000000    4.90999985    2.13000011
   18.45000076   -1.00000000    4.90999985    1.39999998
   18.45333481  212.26400757    4.90999985    1.94000006
   18.45916748  212.26400757    4.90999985    2.21000004
   18.46333504  141.34899902    4.90999985    2.25000000
   18.46666718  123.53900146    4.90999985    2.69000006
   18.46972275  129.00100708    4.88999987    2.75000000
   18.47305679  132.33599854    4.90999985    2.25000000
   18.47611237  117.53199768    4.90999985    2.61999989
   18.47722244  135.10299683    4.90999985    2.57999992
   18.47972298  137.91000366    4.90999985    2.44000006
   18.48305511  140.55299377    4.90999985    2.71000004
   18.48638916  125.75299835    2.32999992    2.75000000
   18.48944473  127.09500122    2.50000000    2.76999998
   18.49277878  127.70999908    2.91000009    2.75000000
   18.49583435  226.88400269    4.90999985    2.73000002
   18.50194359  226.88400269    4.90999985    2.42000008
   18.50611115  108.03600311    4.90999985    2.23000002
   18.50944519   -1.00000000    4.90999985    2.03999996
   18.51305580   -1.00000000    4.90999985    1.11000001
   18.51638794  159.41999817    4.90999985    1.73000002
   18.51944351  128.62600708    4.90999985    2.64000010
   18.52277756  119.14600372    4.90999985    2.69000006
   18.52583313  135.44099426    4.53999996    2.71000004
   18.52916718  131.66000366    3.34999990    2.75000000
   18.53249931  114.50099945    2.61999989    2.73000002
   18.53555489  121.69400024    4.90999985    2.50000000
   18.53888893  131.96400452    4.90999985    2.05999994
   18.54500008  131.96400452    4.90999985    2.32999992
   18.54888916  123.45600128    4.90999985    2.44000006
   18.55222130  106.01699829    4.90999985    2.71000004
   18.55555534  156.67599487    4.90999985    2.21000004
   18.55861092   -1.00000000    4.90999985    1.86000001
   18.56194305   -1.00000000    4.90999985    1.25000000
   18.56527710   -1.00000000    4.90999985    0.47999999
   18.56833458  337.32901001    4.90999985    0.86000001
   18.57055664  231.10400391    4.90999985    2.13000011
   18.57055664   -1.00000000    4.90999985    1.86000001
   18.57055664   -1.00000000    4.90999985    1.25000000
   18.57083511   -1.00000000    4.90999985    0.47999999
   18.57083511  337.32901001    4.90999985    0.86000001
   18.57083511  121.69400024    4.90999985    2.50000000
   18.57111168  131.96400452    4.90999985    2.05999994
   18.57111168  123.45600128    4.90999985    2.44000006
   18.57111168  106.01699829    4.90999985    2.71000004
   18.57139015  156.67599487    4.90999985    2.21000004
   18.57333374  138.95899963    4.90999985    2.40000010
   18.57638931   -1.00000000    4.90999985    1.69000006
   18.57972336   -1.00000000    4.90999985    0.76999998
   18.58305550   -1.00000000    4.90999985    0.61000001
   18.58611107   -1.00000000    4.90999985    0.80000001
   18.59527779   -1.00000000    4.90999985    0.70999998
   18.59861183   -1.00000000    4.90999985    1.16999996
   18.60166740  259.08401489    4.90999985    1.66999996
   18.60416794  190.86099243    4.90999985    2.21000004
   18.60527802  161.63099670    4.90999985    2.13000011
   18.60861206  173.87100220    4.90999985    2.19000006
   18.61166763  146.29200745    4.90999985    2.46000004
   18.61499977  136.05799866    4.90999985    2.50000000
   18.61833382  117.92800140    4.65999985    2.66000009
   18.62138939  132.58000183    3.48000002    2.71000004
   18.62472153  138.70199585    3.03999996    2.75000000
   18.62777710  144.90199280    3.84999990    2.75000000
   18.63416672  144.90199280    4.90999985    2.55999994
   18.63833237  117.40699768    4.90999985    2.69000006
   18.64138794  126.56700134    3.18000007    2.75000000
   18.64472198  138.12699890    2.17000008    2.75000000
   18.64777756  125.44000244    2.48000002    2.76999998
   18.65111160  136.93499756    4.01999998    2.67000008
   18.65444374  129.38400269    4.90999985    2.71000004
   18.65749931  221.43099976    4.90999985    2.57999992
   18.66083336   -1.00000000    4.90999985    1.94000006
   18.66416550   -1.00000000    4.90999985    1.34000003
   18.66722107   -1.00000000    4.90999985    0.95999998
   18.67055511  423.11999512    4.90999985    1.69000006
   18.67111015  312.62200928    4.90999985    1.69000006
   18.67249870   58.98910141    4.90999985    2.07999992
   18.67249870  138.12699890    2.17000008    2.75000000
   18.67277718  125.44000244    2.48000002    2.76999998
   18.67277718  136.93499756    4.01999998    2.67000008
   18.67277718  129.38400269    4.90999985    2.71000004
   18.67305565  221.43099976    4.90999985    2.57999992
   18.67305565   -1.00000000    4.90999985    1.94000006
   18.67333221   -1.00000000    4.90999985    1.34000003
   18.67333221   -1.00000000    4.90999985    0.95999998
   18.67333221  423.11999512    4.90999985    1.69000006
   18.67555428   68.56410217    4.90999985    1.86000001
   18.67888832  371.76901245    4.90999985    1.85000002
   18.68083191  355.73599243    4.90999985    1.96000004
   18.68222237  456.96600342    4.90999985    1.94000006
   18.68361092   49.25460052    4.90999985    2.03999996
   18.68361092   68.56410217    4.90999985    1.86000001
   18.68388748  371.76901245    4.90999985    1.85000002
   18.68444443   -1.00000000    4.90999985    2.00000000
   18.68750000   -1.00000000    4.90999985    1.80999994
   18.69083214  107.03299713    4.90999985    1.80999994
   18.69388771  235.45100403    4.90999985    1.96000004
   18.69722176  279.57199097    4.90999985    2.05999994
   18.70055580  162.07000732    4.90999985    2.21000004
   18.70472336  162.07000732    4.90999985    2.03999996
   18.70861244  237.26600647    4.90999985    2.23000002
   18.71194458  186.51499939    4.90999985    2.00000000
   18.71527863  137.97000122    4.90999985    2.40000010
   18.71750069  143.38800049    4.90999985    2.46000004
   18.71861076  171.78199768    4.90999985    2.36999989
   18.72194481  141.83599854    4.90999985    2.30999994
   18.72527885  149.79600525    4.90999985    2.64000010
   18.72833443  148.78500366    4.90999985    2.55999994
   18.73166656  148.22200012    4.90999985    2.57999992
   18.73500061  406.21200562    4.90999985    2.28999996
   18.73694420  117.50499725    4.90999985    2.00000000
   18.73694420  171.78199768    4.90999985    2.36999989
   18.73722267  141.83599854    4.90999985    2.30999994
   18.73722267  149.79600525    4.90999985    2.64000010
   18.73722267  148.78500366    4.90999985    2.55999994
   18.73750114  148.22200012    4.90999985    2.57999992
   18.73750114  406.21200562    4.90999985    2.28999996
   18.73750114  237.26600647    4.90999985    2.23000002
   18.73777771  186.51499939    4.90999985    2.00000000
   18.73777771  137.97000122    4.90999985    2.40000010
   18.73972321   -1.00000000   -1.00000000   -1.00000000
   18.74305534  215.03799438    4.90999985    1.98000002
   18.74611092  155.76699829    4.90999985    2.25000000
   18.74944496  167.71800232    4.90999985    2.34999990
   18.75277710  150.01300049    4.90999985    2.40000010
   18.75777817  150.01300049    4.90999985    2.59999990
   18.76194382  134.52600098    4.90999985    2.66000009
   18.76499939  129.04499817    4.90999985    2.64000010
   18.76833344  128.85299683    4.90999985    2.67000008
   18.77083397  128.97300720    4.84999990    2.66000009
   18.77194405  131.08799744    4.76000023    2.69000006
   18.77527809  141.38999939    3.32999992    2.73000002
   18.77861023  134.54100037    3.51999998    2.73000002
   18.78166580  132.59899902    4.26999998    2.69000006
   18.78499985  145.24299622    4.44999981    2.61999989
   18.78833199  120.67199707    4.82999992    2.69000006
   18.79138756  135.08700562    4.42999983    2.67000008
   18.79472160  121.38800049    4.15999985    2.69000006
   18.80055428  121.38800049    4.59999990    2.67000008
   18.80472183  136.58799744    4.90999985    2.71000004
   18.80805397  133.41099548    4.78000021    2.67000008
   18.81110954  123.80699921    4.90999985    2.71000004
   18.81444359  139.58399963    4.90999985    2.55999994
   18.81777954  151.65699768    4.90999985    2.55999994
   18.82083511  133.85699463    4.90999985    2.53999996
   18.82416725  130.84500122    4.90999985    2.61999989
   18.82750130  136.24899292    4.90999985    2.66000009
   18.83055687  128.37699890    3.43000007    2.73000002
   18.83388901  132.92300415    2.64000010    2.75000000
   18.83694458  138.27499390    2.96000004    2.73000002
   18.83750153  140.43200684    3.23000002    2.71000004
   18.84333420  140.43200684    4.73999977    2.66000009
   18.84749985  152.97200012    4.90999985    2.66000009
   18.85083389  134.38299561    4.90999985    2.64000010
   18.85388947  130.40499878    4.90999985    2.53999996
   18.85722351  120.92800140    4.90999985    2.53999996
   18.86055565  111.62799835    4.90999985    2.57999992
   18.86361122  128.89999390    4.90999985    2.53999996
   18.86694527   -1.00000000    4.90999985    2.19000006
   18.87027740   -1.00000000    4.90999985    1.41999996
   18.87388992  399.20700073    4.90999985    1.60000002
   18.87583351  152.97200012    4.90999985    2.66000009
   18.87583351  134.38299561    4.90999985    2.64000010
   18.87611198  130.40499878    4.90999985    2.53999996
   18.87611198  120.92800140    4.90999985    2.53999996
   18.87611198  111.62799835    4.90999985    2.57999992
   18.87638855  128.89999390    4.90999985    2.53999996
   18.87638855   -1.00000000    4.90999985    2.19000006
   18.87666702   -1.00000000    4.90999985    1.41999996
   18.87666702  399.20700073    4.90999985    1.60000002
   18.87861061   -1.00000000    4.90999985    1.33000004
   18.88194466   -1.00000000    4.90999985    1.34000003
   18.88500023   -1.00000000    4.90999985    1.58000004
   18.88833237   -1.00000000    4.90999985    1.50000000
   18.89138794   -1.00000000    4.90999985    1.44000006
   18.90055466   -1.00000000    4.90999985    0.95999998
   18.90388870   -1.00000000    4.90999985    0.94000000
   18.90694427   -1.00000000    4.90999985    0.89999998
   18.91055489   -1.00000000    4.90999985    0.92000002
   18.91388893   -1.00000000    4.90999985    0.81999999
   18.91694450   -1.00000000    4.90999985    0.86000001
   18.92027664   -1.00000000    4.90999985    0.73000002
   18.92333221   -1.00000000    4.90999985    0.55000001
   18.92666626   -1.00000000    4.90999985    0.41999999
   18.93000031   -1.00000000    4.90999985    0.47999999
   18.93305397   -1.00000000    4.90999985    0.56999999
   18.94333267   -1.00000000    4.90999985    0.23000000
   18.94666672   -1.00000000    4.90999985    0.25999999
   18.95000076   -1.00000000    4.90999985    0.40000001
   18.95305634   -1.00000000    4.90999985    0.34000000
   18.95639038   -1.00000000    4.90999985    0.40000001
   18.95972252   -1.00000000    4.90999985    0.50000000
   18.96277809   -1.00000000    4.90999985    0.61000001
   18.96611214   -1.00000000    4.90999985    0.70999998
   18.96916771   -1.00000000    4.90999985    0.55000001
   18.97249985   -1.00000000    4.90999985    0.50000000
   18.97583389   -1.00000000    4.90999985    0.36000001
   18.98638916   -1.00000000    4.90999985    0.51999998
   18.98944473   -1.00000000    4.90999985    0.41999999
   18.99277878   -1.00000000    4.90999985    0.41999999
   18.99611092   -1.00000000    4.90999985    0.51999998
   18.99916649   -1.00000000    4.90999985    0.51999998
   19.00250053   -1.00000000    4.90999985    0.69000000
   19.00555611   -1.00000000    4.90999985    1.01999998
   19.00888824   -1.00000000    4.90999985    0.98000002
   19.01250076   -1.00000000    4.90999985    1.13000000
   19.01583290   -1.00000000    4.90999985    1.07000005
   19.01888847   -1.00000000    4.90999985    1.11000001
   19.02499962   -1.00000000    4.90999985    1.36000001
   19.02916718   -1.00000000    4.90999985    1.41999996
   19.03249931   -1.00000000    4.90999985    1.55999994
   19.03583336   -1.00000000    4.90999985    1.50000000
   19.03888893   -1.00000000    4.90999985    1.25000000
   19.04222107   -1.00000000    4.90999985    0.95999998
   19.04583359   -1.00000000    4.90999985    0.95999998
   19.04916573   -1.00000000    4.90999985    0.86000001
   19.05222130   -1.00000000    4.90999985    0.79000002
   19.05555534   -1.00000000    4.90999985    0.56999999
   19.05888748   -1.00000000    4.90999985    0.50000000
   19.06194305   -1.00000000    4.90999985    0.31999999
   19.07194519   -1.00000000    4.90999985    0.31999999
   19.07527924   -1.00000000    4.90999985    0.46000001
   19.07888985   -1.00000000    4.90999985    0.70999998
   19.08222389   -1.00000000    4.90999985    1.09000003
   19.08527756   -1.00000000    4.90999985    1.39999998
   19.08861160   -1.00000000    4.90999985    1.48000002
   19.09194565   -1.00000000    4.90999985    1.44000006
   19.09500122   51.08219910    4.90999985    1.60000002
   19.09833336   35.02299881    4.90999985    1.73000002
   19.10138893   61.51089859    4.90999985    1.71000004
   19.10472298  328.36099243    4.90999985    1.94000006
   19.10666656  299.67098999    4.90999985    2.11999989
   19.10805511  253.04899597    4.90999985    2.19000006
   19.10944557  281.84399414    4.90999985    2.23000002
   19.11083412  245.18400574    4.90999985    2.25000000
   19.11083412   -1.00000000    4.90999985    1.48000002
   19.11111069   -1.00000000    4.90999985    1.44000006
   19.11111069   51.08219910    4.90999985    1.60000002
   19.11138916   35.02299881    4.90999985    1.73000002
   19.11138916   61.51089859    4.90999985    1.71000004
   19.11138916  328.36099243    4.90999985    1.94000006
   19.11166763   -1.00000000    4.90999985    0.70999998
   19.11166763   -1.00000000    4.90999985    1.09000003
   19.11166763   -1.00000000    4.90999985    1.39999998
   19.11222267  199.29699707    4.90999985    2.28999996
   19.11555672  263.46499634    4.90999985    2.26999998
   19.11888885  247.75500488    4.90999985    2.32999992
   19.12194443  131.81599426    4.90999985    2.13000011
   19.12527847  392.79998779    4.90999985    2.00000000
   19.12722206  487.59600830    4.90999985    2.00000000
   19.12861061  426.10800171    4.90999985    2.07999992
   19.13000107  450.77899170    4.90999985    2.11999989
   19.13138962  199.29699707    4.90999985    2.28999996
   19.13138962  263.46499634    4.90999985    2.26999998
   19.13166618  247.75500488    4.90999985    2.32999992
   19.13166618  131.81599426    4.90999985    2.13000011
   19.13166618  392.79998779    4.90999985    2.00000000
   19.13222313   -1.00000000    4.90999985    2.09999990
   19.13555527   -1.00000000    4.90999985    1.55999994
   19.13861084  199.67799377    4.90999985    2.05999994
   19.14194489  681.88397217    4.90999985    2.25000000
   19.14388847  499.65798950    4.90999985    2.05999994
   19.14527702  366.48300171    4.90999985    2.15000010
   19.14666748  242.80200195    4.90999985    2.19000006
   19.14666748   -1.00000000    4.90999985    2.09999990
   19.14694405   -1.00000000    4.90999985    1.55999994
   19.14694405  199.67799377    4.90999985    2.05999994
   19.14694405  681.88397217    4.90999985    2.25000000
   19.14777756  223.32800293    4.90999985    2.26999998
   19.15083313  254.86399841    4.90999985    2.48000002
   19.15416718  548.38598633    4.90999985    2.09999990
   19.15611076  244.22399902    4.90999985    2.15000010
   19.15611076  223.32800293    4.90999985    2.26999998
   19.15638924  254.86399841    4.90999985    2.48000002
   19.15638924  548.38598633    4.90999985    2.09999990
   19.15833282  255.47999573    4.90999985    2.39000010
   19.16166687  257.35101318    4.90999985    2.57999992
   19.16472244  276.90499878    4.90999985    2.44000006
   19.16805458  281.96798706    4.90999985    2.57999992
   19.17138863  321.68200684    4.90999985    2.66000009
   19.17333221  479.36700439    4.90999985    2.66000009
   19.17472076  543.89202881    4.90999985    2.64000010
   19.17611122  573.17700195    4.90999985    2.61999989
   19.17749977  639.00500488    4.90999985    2.61999989
   19.17888832  671.31097412    4.90999985    2.61999989
   19.18027687  972.37402344    4.90999985    2.55999994
   19.18166542 1034.68005371    4.90999985    2.46000004
   19.18305397 1013.16998291    4.90999985    2.26999998
   19.18444443 1027.07995605    4.90999985    2.46000004
   19.18583298 1417.46997070    4.90999985    2.51999998
   19.18722153  127.11399841    4.90999985    2.32999992
   19.18722153  255.47999573    4.90999985    2.39000010
   19.18722153  257.35101318    4.90999985    2.57999992
   19.18750000  276.90499878    4.90999985    2.44000006
   19.18750000  281.96798706    4.90999985    2.57999992
   19.18750000  321.68200684    4.90999985    2.66000009
   19.18805504 1287.96997070    4.90999985    2.09999990
   19.19027710   96.12930298    4.90999985    2.05999994
   19.19194412   81.40509796    4.90999985    1.83000004
   19.19527626 1105.34997559    4.90999985    1.64999998
   19.19722176 1010.54998779    4.90999985    2.13000011
   19.19861031  749.55401611    4.90999985    2.26999998
   19.20000076  715.48797607    4.90999985    2.55999994
   19.20138931  699.96502686    4.90999985    2.50000000
   19.20277786  751.89001465    4.90999985    2.57999992
   19.20416832  728.10198975    4.90999985    2.59999990
   19.20555687  679.83801270    4.90999985    2.57999992
   19.20694542  635.73400879    4.90999985    2.57999992
   19.20833397  724.14801025    4.90999985    2.57999992
   19.20972252  703.10198975    4.90999985    2.64000010
   19.21111107  729.48901367    4.90999985    2.66000009
   19.21250153  688.49102783    4.67999983    2.64000010
   19.21389008  661.55102539    4.53000021    2.66000009
   19.21527863  656.85198975    4.57999992    2.67000008
   19.21666718  649.88702393    4.90999985    2.67000008
   19.21805573  672.83898926    4.90999985    2.67000008
   19.21944427  857.60302734    4.90999985    2.64000010
   19.22083473  787.95202637    4.90999985    2.50000000
   19.22222328  584.17999268    4.90999985    2.40000010
   19.22361183  707.38897705    4.90999985    2.57999992
   19.22500038  751.86999512    4.90999985    2.55999994
   19.22638893  673.02899170    4.90999985    2.57999992
   19.22777748  720.08300781    4.90999985    2.64000010
   19.22916794  725.67297363    4.90999985    2.55999994
   19.23055649  721.50299072    4.90999985    2.59999990
   19.23194504  713.35900879    4.90999985    2.59999990
   19.23333359  666.09197998    4.90999985    2.53999996
   19.23472214  703.82897949    4.90999985    2.57999992
   19.23611069  666.10302734    4.90999985    2.55999994
   19.23750114  666.75299072    4.90999985    2.51999998
   19.23888969  740.31799316    4.90999985    2.50000000
   19.24027824  605.22100830    4.90999985    2.44000006
   19.24166679  800.74902344    4.90999985    2.46000004
   19.24305534  856.27600098    4.90999985    2.42000008
   19.24444389  785.34899902    4.90999985    2.44000006
   19.24583435 1125.50000000    4.90999985    2.30999994
   19.24722290 1146.17004395    4.90999985    2.28999996
   19.24861145  865.02697754    4.90999985    2.19000006
   19.25000000 1015.61999512    4.90999985    1.98000002
   19.25138855 1092.56994629    4.90999985    2.07999992
   19.25277710  827.76397705    4.90999985    2.23000002
   19.25416756  955.60400391    4.90999985    2.21000004
   19.25555611  830.46600342    4.90999985    2.28999996
   19.25694466  848.45697021    4.90999985    2.30999994
   19.25833321  752.83502197    4.90999985    2.28999996
   19.25972176  866.87200928    4.90999985    2.34999990
   19.26111031  801.88201904    4.90999985    2.21000004
   19.26250076  953.77099609    4.90999985    2.21000004
   19.26388931  965.05902100    4.90999985    2.17000008
   19.26527786  936.88702393    4.90999985    2.13000011
   19.26666641  174.00300598    4.90999985    2.13000011
   19.26666641   81.40509796    4.90999985    1.83000004
   19.26666641 1105.34997559    4.90999985    1.64999998
   19.26722145   75.95549774    4.90999985    2.01999998
   19.27055550   51.39989853    4.90999985    1.69000006
   19.27388954   -1.00000000    4.90999985    1.38000000
   19.27694511   87.92839813    4.90999985    1.38000000
   19.28027725   71.18270111    4.90999985    1.46000004
   19.28333282   91.01390076    4.90999985    1.39999998
   19.28750038   91.01390076    4.90999985    1.78999996
   19.29166603  580.98901367    4.90999985    2.28999996
   19.29388809  489.83999634    4.90999985    2.36999989
   19.29500008  520.63500977    4.90999985    2.40000010
   19.29638863  489.70999146    4.90999985    2.46000004
   19.29777718  386.10299683    4.90999985    2.48000002
   19.29916573  409.42700195    4.90999985    2.51999998
   19.30055428  389.36199951    4.90999985    2.53999996
   19.30194283  409.07299805    4.90999985    2.55999994
   19.30333328  423.37399292    4.90999985    2.55999994
   19.30472183  392.23001099    4.90999985    2.51999998
   19.30611038  344.59698486    4.90999985    2.53999996
   19.30749893  343.23498535    4.90999985    2.55999994
   19.30888748  344.79901123    4.90999985    2.53999996
   19.31027794  328.82998657    4.90999985    2.55999994
   19.31166649  338.02499390    4.90999985    2.53999996
   19.31305504  346.47399902    4.90999985    2.50000000
   19.31444359  369.88400269    4.90999985    2.46000004
   19.31583214  398.21798706    4.90999985    2.46000004
   19.31722260  407.65600586    4.90999985    2.42000008
   19.31861115  358.17800903    4.90999985    2.42000008
   19.32000160  397.19198608    4.90999985    2.40000010
   19.32139015  416.58401489    4.90999985    2.39000010
   19.32277870  391.79901123    4.90999985    2.39000010
   19.32416725  375.03799438    4.90999985    2.34999990
   19.32555580  277.75900269    4.90999985    2.40000010
   19.32694626  394.64801025    4.90999985    2.42000008
   19.32833481  331.20098877    4.90999985    2.40000010
   19.32972336  352.56600952    4.90999985    2.44000006
   19.33111191  349.64700317    4.90999985    2.42000008
   19.33250046  345.76998901    4.90999985    2.42000008
   19.33388901  307.13198853    4.90999985    2.40000010
   19.33527756  354.88598633    4.90999985    2.44000006
   19.33666801  333.14099121    4.90999985    2.44000006
   19.33805656  336.66598511    4.90999985    2.46000004
   19.33944511  336.97698975    4.90999985    2.46000004
   19.34083366  359.88900757    4.90999985    2.42000008
   19.34222221  420.25299072    4.90999985    2.40000010
   19.34361267  384.13198853    4.90999985    2.36999989
   19.34500122  385.19299316    4.90999985    2.36999989
   19.34638977  381.67401123    4.90999985    2.42000008
   19.34777832  439.47500610    4.90999985    2.40000010
   19.34916687  348.85501099    4.90999985    2.32999992
   19.35055542  395.61401367    4.90999985    2.34999990
   19.35194397  418.08599854    4.90999985    2.30999994
   19.35333443  396.62500000    4.90999985    2.28999996
   19.35472298  347.97698975    4.90999985    2.28999996
   19.35611153  375.13699341    4.90999985    2.30999994
   19.35750008  397.17599487    4.90999985    2.30999994
   19.35888863  424.70999146    4.90999985    2.23000002
   19.36027908  423.71499634    4.90999985    2.13000011
   19.36166763  690.27899170    4.90999985    2.19000006
   19.36305618  711.10302734    4.90999985    2.11999989
   19.36444473  689.02502441    4.90999985    2.03999996
   19.36583328  458.07501221    4.90999985    2.00000000
   19.36722183  102.75800323    4.90999985    1.98000002
   19.36750031   75.95549774    4.90999985    2.01999998
   19.36750031   51.39989853    4.90999985    1.69000006
   19.36750031   -1.00000000    4.90999985    1.38000000
   19.36777878   87.92839813    4.90999985    1.38000000
   19.36777878   71.18270111    4.90999985    1.46000004
   19.36777878   91.01390076    4.90999985    1.39999998
   19.36805534  580.98901367    4.90999985    2.28999996
   19.36861038  180.42599487    4.90999985    1.89999998
   19.37166595  228.84800720    4.90999985    1.98000002
   19.37500000  121.04000092    4.90999985    1.91999996
   19.37833405   -1.00000000    4.90999985    1.71000004
   19.38138962   -1.00000000    4.90999985    1.58000004
   19.39222145   -1.00000000    4.90999985    1.13000000
   19.39527702   -1.00000000    4.90999985    1.19000006
   19.39861107   -1.00000000    4.90999985    1.28999996
   19.40194321   -1.00000000    4.90999985    1.38000000
   19.40527725   -1.00000000    4.90999985    1.48000002
   19.40861130   -1.00000000    4.90999985    1.44000006
   19.41166687   76.32160187    4.90999985    1.64999998
   19.41499901  107.59899902    4.90999985    1.69000006
   19.41833305  130.58999634    4.90999985    1.80999994
   19.42138863   37.83259964    4.90999985    1.76999998
   19.42472076   -1.00000000    4.90999985    1.61000001
   19.43083191   -1.00000000    4.90999985    1.64999998
   19.43499947  480.53900146    4.90999985    1.89999998
   19.43694305  342.49099731    4.90999985    2.13000011
   19.43833160  301.48498535    4.90999985    2.23000002
   19.43972206  267.52301025    4.90999985    2.25000000
   19.44111061  264.99099731    4.90999985    2.32999992
   19.44249916  270.08801270    4.90999985    2.36999989
   19.44388771  236.66200256    4.90999985    2.36999989
   19.44416618   -1.00000000    4.90999985    1.48000002
   19.44416618   -1.00000000    4.90999985    1.44000006
   19.44416618   76.32160187    4.90999985    1.64999998
   19.44444275  107.59899902    4.90999985    1.69000006
   19.44444275  130.58999634    4.90999985    1.80999994
   19.44444275   37.83259964    4.90999985    1.76999998
   19.44472122   -1.00000000    4.90999985    1.61000001
   19.44472122  480.53900146    4.90999985    1.89999998
   19.44472122   -1.00000000    4.90999985    1.38000000
   19.44527626  207.73500061    4.90999985    2.46000004
   19.44861031  473.38500977    4.90999985    2.30999994
   19.45055580  264.57299805    4.90999985    2.13000011
   19.45194435  244.88099670    4.90999985    2.26999998
   19.45194435  207.73500061    4.90999985    2.46000004
   19.45222282  473.38500977    4.90999985    2.30999994
   19.45333481  220.91000366    4.90999985    2.36999989
   19.45639038  213.72300720    4.90999985    2.36999989
   19.45972252  210.95199585    4.90999985    2.48000002
   19.46305656  237.08000183    4.90999985    2.55999994
   19.46611214  203.83999634    4.90999985    2.48000002
   19.47277832  203.83999634    4.90999985    2.57999992
   19.47694588  167.33799744    4.90999985    2.59999990
   19.49444389  139.36700439    4.90999985    2.64000010
   19.49666786  172.00100708    4.90999985    2.61999989
   19.50000000  147.42500305    4.90999985    2.64000010
   19.50305557  149.14100647    4.90999985    2.59999990
   19.50638962  153.52900696    4.90999985    2.48000002
   19.50944519  173.85400391    4.90999985    2.48000002
   19.51583290  173.85400391    4.90999985    0.69000000
   19.52000046   -1.00000000    4.90999985    1.71000004
   19.52305603   -1.00000000    4.90999985    1.11000001
   19.52638817   -1.00000000    4.90999985    1.00000000
   19.53000069   -1.00000000    4.90999985    0.94000000
   19.53305435   -1.00000000    4.90999985    0.76999998
   19.53638840   -1.00000000    4.90999985    0.52999997
   19.53972244   -1.00000000    4.90999985    0.47999999
   19.54277802   -1.00000000    4.90999985    0.44000000
   19.54611015   -1.00000000    4.90999985    0.55000001
   19.54944420   -1.00000000    4.90999985    0.63000000
   19.55249977   -1.00000000    4.90999985    0.76999998
   19.56277657   -1.00000000    4.90999985    0.51999998
   19.56583214   -1.00000000    4.90999985    0.41999999
   19.56916809   -1.00000000    4.90999985    0.51999998
   19.57250023   -1.00000000    4.90999985    0.13000000
   19.57555580   -1.00000000    4.90999985    0.09000000
   19.57888985   -1.00000000    4.90999985    0.07000000
   19.58222389   -1.00000000    4.90999985    0.07000000
   19.58527756   -1.00000000    4.90999985    0.09000000
   19.58861160   -1.00000000    4.90999985    0.15000001
   19.59166718   -1.00000000    4.90999985    0.07000000
   19.59527779   -1.00000000    4.90999985    0.07000000
   19.60555649   -1.00000000    4.90999985    0.11000000
   19.60888863   -1.00000000    4.90999985    0.05000000
   19.61194420   -1.00000000    4.90999985    0.03000000
   19.61527824   -1.00000000    4.90999985    0.07000000
   19.61833382   -1.00000000    4.90999985    0.13000000
   19.62166595   -1.00000000    4.90999985    0.17000000
   19.62500000   -1.00000000    4.90999985    0.23000000
   19.62861061   -1.00000000    4.90999985    0.50000000
   19.63166618   -1.00000000    4.90999985    0.73000002
   19.63500023   -1.00000000    4.90999985    1.19000006
   19.63833237   -1.00000000    4.90999985    1.39999998
   19.64833260   -1.00000000    4.90999985    1.76999998
   19.65166664   -1.00000000    4.90999985    2.01999998
   19.65499878   -1.00000000    4.90999985    2.03999996
   19.65805435   -1.00000000    4.90999985    2.03999996
   19.66166687   -1.00000000    4.90999985    1.96000004
   19.66472244   -1.00000000    4.90999985    1.96000004
   19.66805458   -1.00000000    4.90999985    1.83000004
   19.67138863   -1.00000000    4.90999985    1.73000002
   19.67444420   -1.00000000    4.90999985    1.44000006
   19.67777634   -1.00000000    4.90999985    1.01999998
   19.68111038   -1.00000000    4.90999985    0.86000001
   19.69111061   -1.00000000    4.90999985    1.33000004
   19.69444275   -1.00000000    4.90999985    1.44000006
   19.69805527   -1.00000000    4.90999985    1.66999996
   19.70138931   -1.00000000    4.90999985    1.41999996
   19.70472336   -1.00000000    4.90999985    1.66999996
   19.70777893   -1.00000000    4.90999985    1.61000001
   19.71111107   -1.00000000    4.90999985    1.28999996
   19.71416664   -1.00000000    4.90999985    1.53999996
   19.71750069   -1.00000000    4.90999985    1.34000003
   19.72083473   -1.00000000    4.90999985    1.34000003
   19.72389030   -1.00000000    4.90999985    1.01999998
   19.73416710   -1.00000000    4.90999985    0.89999998
   19.73722267   -1.00000000    4.90999985    1.36000001
   19.74055672   -1.00000000    4.90999985    1.61000001
   19.74388885   -1.00000000    4.90999985    1.73000002
   19.74694443   -1.00000000    4.90999985    1.85000002
   19.75027847   -1.00000000    4.90999985    2.01999998
   19.75333405   -1.00000000    4.90999985    1.89999998
   19.75666618   -1.00000000    4.90999985    2.09999990
   19.76000023   -1.00000000    4.90999985    1.94000006
   19.76333427   -1.00000000    4.90999985    1.76999998
   19.76666641   -1.00000000    4.90999985    1.71000004
   19.77694511   -1.00000000    4.90999985    2.05999994
   19.78027725   -1.00000000    4.90999985    2.11999989
   19.78333282   -1.00000000    4.90999985    2.26999998
   19.78666687   -1.00000000    4.90999985    2.39000010
   19.78972244   -1.00000000    4.90999985    2.42000008
   19.79305458   -1.00000000    4.90999985    2.30999994
   19.79666710   -1.00000000    4.90999985    2.40000010
   19.79999924   -1.00000000    4.90999985    2.51999998
   19.80333328   -1.00000000    4.90999985    2.53999996
   19.80638885   -1.00000000    4.90999985    2.46000004
   19.80972099   -1.00000000    4.90999985    2.46000004
   19.81972313   -1.00000000    4.90999985    2.53999996
   19.82305717   -1.00000000    4.90999985    2.55999994
   19.82611275   -1.00000000    4.90999985    2.21000004
   19.83000183   -1.00000000    4.90999985    2.15000010
   19.83305550   -1.00000000    4.90999985    2.28999996
   19.83638954   -1.00000000    4.90999985    2.55999994
   19.83972359   -1.00000000    4.90999985    2.51999998
   19.84277916   -1.00000000    4.90999985    2.46000004
   19.84611130   -1.00000000    4.90999985    2.23000002
   19.84916687   -1.00000000    4.90999985    2.25000000
   19.85250092   -1.00000000    4.90999985    1.76999998
   19.86250114   -1.00000000    4.90999985    0.64999998
   19.86583328   -1.00000000    4.90999985    0.38000000
   19.86916733   -1.00000000    4.90999985    0.79000002
   19.87222290   -1.00000000    4.90999985    0.94000000
   19.87555504   -1.00000000    4.90999985    1.13000000
   19.87888908   -1.00000000    4.90999985    0.64999998
   19.88194466   -1.00000000    4.90999985    0.41999999
   19.88527679   -1.00000000    4.90999985    0.50000000
   19.88833237   -1.00000000    4.90999985    1.46000004
   19.89166641   -1.00000000    4.90999985    2.44000006
   19.89500046   -1.00000000    4.90999985    2.61999989
   19.90555573   -1.00000000    2.61999989    2.64000010
   19.90861130   -1.00000000    3.00000000    2.61999989
   19.91194344   -1.00000000    3.72000003    2.64000010
   19.91527748   -1.00000000    4.51000023    2.61999989
   19.91833305   -1.00000000    4.90999985    2.55999994
   19.92166519   -1.00000000    4.90999985    2.57999992
   19.92472076   -1.00000000    4.90999985    2.61999989
   19.92805481   -1.00000000    4.90999985    2.50000000
   19.93166542   -1.00000000    4.90999985    2.53999996
   19.93499947   -1.00000000    4.90999985    2.48000002
   19.93805504   -1.00000000    4.90999985    2.48000002
   19.94833183   -1.00000000    4.90999985    2.55999994
   19.95166779   -1.00000000    4.90999985    2.55999994
   19.95472336   -1.00000000    4.59999990    2.57999992
   19.95805550   -1.00000000    3.61999989    2.59999990
   19.96111107   -1.00000000    3.68000007    2.61999989
   19.96472359   -1.00000000    4.42999983    2.64000010
   19.96805573   -1.00000000    4.90999985    2.61999989
   19.97111130   -1.00000000    4.90999985    2.64000010
   19.97444534   -1.00000000    4.90999985    2.34999990
   19.97750092   -1.00000000    4.90999985    2.44000006
   19.98083305   -1.00000000    4.90999985    1.91999996
   19.99111176   -1.00000000    4.90999985    2.28999996
   19.99444389   -1.00000000    4.90999985    1.86000001
   19.99805641   -1.00000000    4.90999985    1.38000000
   20.00138855   -1.00000000    4.90999985    1.60000002
   20.00444412   -1.00000000    4.90999985    1.63000000
   20.00777817   -1.00000000    4.90999985    1.76999998
   20.01083374   -1.00000000    4.90999985    1.91999996
   20.01416588   -1.00000000    4.90999985    2.51999998
   20.01749992   -1.00000000    4.90999985    2.55999994
   20.02055550   -1.00000000    4.90999985    2.28999996
   20.02388954   -1.00000000    4.90999985    1.34000003
   20.03388786   -1.00000000    4.90999985    1.73000002
   20.03722191   -1.00000000    4.90999985    1.33000004
   20.04055595   -1.00000000    4.90999985    1.09000003
   20.04361153   -1.00000000    4.90999985    1.28999996
   20.04694366   -1.00000000    4.90999985    1.71000004
   20.05027771   -1.00000000    4.90999985    1.94000006
   20.05333328   -1.00000000    4.90999985    1.88000000
   20.05666542   -1.00000000    4.90999985    1.21000004
   20.05972099   -1.00000000    4.90999985    0.76999998
   20.06333351   -1.00000000    4.90999985    1.69000006
   20.06666756   -1.00000000    4.90999985    2.11999989
   20.07694626   -1.00000000    4.90999985    0.86000001
   20.08000183   -1.00000000    4.90999985    0.86000001
   20.08333397   -1.00000000    4.90999985    0.73000002
   20.08666801   -1.00000000    4.90999985    0.70999998
   20.08972359   -1.00000000    4.90999985    0.47999999
   20.09305573   -1.00000000    4.90999985    0.41999999
   20.09666824   -1.00000000    4.90999985    0.76999998
   20.10000038   -1.00000000    4.90999985    0.92000002
   20.10305595   -1.00000000    4.90999985    0.79000002
   20.10639000   -1.00000000    4.90999985    0.56999999
   20.10944557   -1.00000000    4.90999985    0.69000000
   20.11972237   -1.00000000    4.90999985    2.55999994
   20.12305641   -1.00000000    4.90999985    2.50000000
   20.12611198   -1.00000000    4.90999985    2.59999990
   20.12972260   -1.00000000    4.90999985    2.53999996
   20.13305473   -1.00000000    4.53000021    2.57999992
   20.13611031   -1.00000000    3.97000003    2.57999992
   20.13944435   -1.00000000    3.93000007    2.57999992
   20.14249992   -1.00000000    4.28999996    2.55999994
   20.14583397   -1.00000000    4.57999992    2.55999994
   20.14916611   -1.00000000    4.90999985    2.50000000
   20.15222168   -1.00000000    4.90999985    2.57999992
   20.16250038   -1.00000000    4.23999977    2.57999992
   20.16583252   -1.00000000    4.26999998    2.46000004
   20.16888809   -1.00000000    4.90999985    2.59999990
   20.17222214   -1.00000000    4.90999985    2.57999992
   20.17555428   -1.00000000    4.90999985    2.39000010
   20.17860985   -1.00000000    4.90999985    2.07999992
   20.18194389   -1.00000000    4.90999985    1.91999996
   20.18527603   -1.00000000    4.90999985    1.71000004
   20.18833160   -1.00000000    4.90999985    1.66999996
   20.19166565   -1.00000000    4.90999985    1.96000004
   20.19472122   -1.00000000    4.90999985    1.78999996
   20.20527840   -1.00000000    4.90999985    2.26999998
   20.20861244   -1.00000000    4.90999985    1.88000000
   20.21194458   -1.00000000    4.90999985    2.01999998
   20.21500015   -1.00000000    4.90999985    2.15000010
   20.21833420   -1.00000000    4.90999985    1.91999996
   20.22166634   -1.00000000    4.90999985    1.33000004
   20.22472191   -1.00000000    4.90999985    2.15000010
   20.22805595   -1.00000000    4.90999985    1.88000000
   20.23139000   -1.00000000    4.90999985    2.30999994
   20.23472214   -1.00000000    4.90999985    2.48000002
   20.23777771  227.58399963    4.90999985    2.53999996
   20.24861145  108.90499878    2.53999996    2.57999992
   20.25166702  110.12599945    2.30999994    2.59999990
   20.25499916  106.27700043    2.26999998    2.59999990
   20.25833321  114.58599854    2.23000002    2.59999990
   20.26138878  118.28700256    2.21000004    2.59999990
   20.26222229  117.39299774    2.21000004    2.59999990
   20.26638794  117.39299774    2.23000002    2.57999992
   20.27055550  108.72499847    2.36999989    2.59999990
   20.27388954  105.47200012    2.69000006    2.59999990
   20.27694511  110.26499939    3.03999996    2.59999990
   20.28027725  103.61799622    3.80999994    2.59999990
   20.28333282  124.05300140    4.71999979    2.55999994
   20.28666687  114.80899811    4.90999985    2.55999994
   20.28999901  101.30100250    4.90999985    2.51999998
   20.29305458  126.37999725    4.90999985    2.59999990
   20.29555511  106.33000183    4.90999985    2.42000008
   20.29694366  104.47799683    4.90999985    2.53999996
   20.29999924  119.96299744    4.90999985    2.55999994
   20.30333328  104.76200104    4.90999985    2.59999990
   20.30916595  104.76200104    4.90999985    2.40000010
   20.31333351  165.84100342    4.90999985    2.36999989
   20.31666756  126.31300354    4.90999985    2.21000004
   20.31972313   -1.00000000    4.90999985    1.76999998
   20.32305717   -1.00000000    4.90999985    1.03999996
   20.32638931   -1.00000000    4.90999985    1.05999994
   20.32972336   -1.00000000    4.90999985    0.94000000
   20.33305550   -1.00000000    4.90999985    1.07000005
   20.33638954  110.17299652    4.90999985    1.05999994
   20.33944511  231.82699585    4.90999985    1.05999994
   20.34277916  106.91799927    4.90999985    1.85000002
   20.34611130  162.68400574    4.90999985    2.36999989
   20.35194397  162.68400574    4.90999985    1.89999998
   20.35611153  216.69700623    4.90999985    2.23000002
   20.35944557  149.35200500    4.90999985    2.23000002
   20.36222267  260.14498901    4.90999985    2.17000008
   20.36305618  308.95001221    4.90999985    2.11999989
   20.36499977  109.30100250    4.90999985    2.01999998
   20.36499977  216.69700623    4.90999985    2.23000002
   20.36527824  149.35200500    4.90999985    2.23000002
   20.36527824  308.95001221    4.90999985    2.11999989
   20.36527824   -1.00000000    4.90999985    0.94000000
   20.36555672   -1.00000000    4.90999985    1.07000005
   20.36555672  110.17299652    4.90999985    1.05999994
   20.36583328  231.82699585    4.90999985    1.05999994
   20.36583328  106.91799927    4.90999985    1.85000002
   20.36583328  162.68400574    4.90999985    2.36999989
   20.36777878   -1.00000000    4.90999985    1.75000000
   20.37111092   -1.00000000    4.90999985    0.73000002
   20.37444496   -1.00000000    4.90999985    0.56999999
   20.37750053   -1.00000000    4.90999985    0.38000000
   20.38083267   -1.00000000    4.90999985    0.56999999
   20.38999939   -1.00000000    4.90999985    0.92000002
   20.39305496   -1.00000000    4.90999985    1.34000003
   20.39638901   91.83989716    4.90999985    1.76999998
   20.39972115   -1.00000000    4.90999985    1.64999998
   20.40305519   -1.00000000    4.90999985    1.25000000
   20.40638924   -1.00000000    4.90999985    0.70999998
   20.40944481  276.48498535    4.90999985    1.58000004
   20.41277695  123.82800293    4.90999985    2.28999996
   20.41583252  121.41899872    4.90999985    2.57999992
   20.41916656  110.51699829    4.90999985    2.57999992
   20.42249870  125.01100159    4.90999985    2.51999998
   20.42860985  125.01100159    4.90999985    2.55999994
   20.43277740  109.76000214    4.90999985    2.57999992
   20.43610954  121.33799744    4.90999985    2.55999994
   20.43916512  122.16100311    4.90999985    2.50000000
   20.44249916   23.57019997    4.90999985    1.83000004
   20.44583321   -1.00000000    4.90999985    1.73000002
   20.44888878   -1.00000000    4.90999985    1.69000006
   20.45222282   -1.00000000    4.90999985    1.53999996
   20.45527840   -1.00000000    4.90999985    1.01999998
   20.45861244   -1.00000000    4.90999985    1.13000000
   20.46194458   -1.00000000    4.90999985    0.58999997
   20.46500015   -1.00000000    4.90999985    0.56999999
   20.47555542   -1.00000000    4.90999985    0.41999999
   20.47888947   -1.00000000    4.90999985    0.61000001
   20.48194504   -1.00000000    4.90999985    1.26999998
   20.48527718   -1.00000000    4.90999985    1.26999998
   20.48861122   -1.00000000    4.90999985    1.73000002
   20.49166679   -1.00000000    4.90999985    1.41999996
   20.49500084   -1.00000000    4.90999985    0.81999999
   20.49805641   -1.00000000    4.90999985    0.69000000
   20.50194359   -1.00000000    4.90999985    0.41999999
   20.50499916   -1.00000000    4.90999985    0.56999999
   20.50833321   -1.00000000    4.90999985    0.63000000
   20.51833344   -1.00000000    4.90999985    0.07000000
   20.52166557   -1.00000000    4.90999985    0.05000000
   20.52499962   -1.00000000    4.90999985    0.07000000
   20.52805519   -1.00000000    4.90999985    0.03000000
   20.53138924   -1.00000000    4.90999985    0.01000000
