    HOUR (UT)   FLARE FACTOR    SKY TESTER    SUN TESTER
   10.76666641   -1.00000000   -1.00000000   -1.00000000
   10.78694534   34.81430054    4.86999989    1.48000002
   10.79222298   71.59590149    4.86999989    1.48000002
   10.79555607   33.82410049    4.84999990    1.48000002
   10.79888916   49.45470047    4.82999992    1.50000000
   10.80194473   72.31529999    4.82999992    1.50000000
   10.80527782   66.02400208    4.80999994    1.50000000
   10.80861092   68.15399933    4.80000019    1.51999998
   10.81166649   67.75099945    4.78000021    1.51999998
   10.81500053   96.12079620    4.76000023    1.51999998
   10.81805515   85.63230133    4.76000023    1.51999998
   10.81999969  111.15200043    4.76000023    1.51999998
   10.82166672   76.35420227    4.73999977    1.53999996
   10.82499981  108.35800171    4.71999979    1.53999996
   10.82805538  100.44000244    4.69999981    1.53999996
   10.83138847  114.41400146    4.69999981    1.55999994
   10.83472157  131.35000610    4.67999983    1.55999994
   10.83777714  106.59899902    4.67999983    1.55999994
   10.84111118  143.85000610    4.65999985    1.55999994
   10.84416676  202.07699585    4.63999987    1.55999994
   10.84749985  231.61999512    4.61999989    1.55999994
   10.85083389  186.69999695    4.61999989    1.58000004
   10.85361195  213.13099670    4.59999990    1.58000004
   10.85444450  240.81500244    4.57999992    1.58000004
   10.85777855  271.30801392    4.55999994    1.60000002
   10.86083412  253.08799744    4.55999994    1.60000002
   10.86416721  279.99899292    4.53999996    1.60000002
   10.86750031  233.11599731    4.53000021    1.60000002
   10.87055588  321.45401001    4.51000023    1.61000001
   10.87277794  289.41400146    4.51000023    1.61000001
   10.87388897  370.69799805    4.51000023    1.61000001
   10.87527752  380.76098633    4.48999977    1.61000001
   10.87666702  369.30398560    4.48999977    1.61000001
   10.87805557  344.21899414    4.48999977    1.61000001
   10.87944412  314.82101440    4.46999979    1.61000001
   10.88083363  393.92199707    4.46999979    1.61000001
   10.88222218  406.08700562    4.46999979    1.61000001
   10.88361073  335.37100220    4.44999981    1.61000001
   10.88500023  322.30899048    4.44999981    1.63000000
   10.88638878  325.17800903    4.42999983    1.63000000
   10.88777733  362.76901245    4.42999983    1.63000000
   10.88916683  342.72799683    4.42999983    1.63000000
   10.89055538  374.93399048    4.42999983    1.63000000
   10.89194393  288.82699585    4.40999985    1.63000000
   10.89333344  349.23498535    4.40999985    1.63000000
   10.89472198  375.56298828    4.38999987    1.63000000
   10.89611053  332.00399780    4.38999987    1.63000000
   10.89750004  285.89099121    4.38999987    1.63000000
   10.89888859  387.26300049    4.38999987    1.63000000
   10.90027714  337.57998657    4.36999989    1.63000000
   10.90166664  325.74398804    4.36999989    1.64999998
   10.90305519  362.80398560    4.34999990    1.64999998
   10.90444374  355.21499634    4.34999990    1.64999998
   10.90583324  294.24099731    4.32999992    1.64999998
   10.90722179  413.09799194    4.32999992    1.64999998
   10.90861034  443.00900269    4.32999992    1.64999998
   10.90999985  424.73001099    4.30999994    1.64999998
   10.91138840  420.24099731    4.30999994    1.66999996
   10.91277695  365.33200073    4.30999994    1.66999996
   10.91416645  327.26000977    4.28999996    1.66999996
   10.91555500  377.60998535    4.28999996    1.66999996
   10.91694450  332.20700073    4.28999996    1.66999996
   10.91833401  355.63101196    4.28999996    1.66999996
   10.91972256  349.14599609    4.26999998    1.66999996
   10.92111111  335.22500610    4.26999998    1.66999996
   10.92250061  334.85800171    4.26999998    1.66999996
   10.92388916  355.57998657    4.26000023    1.66999996
   10.92527771  276.97500610    4.26000023    1.66999996
   10.92666721  323.17199707    4.26000023    1.66999996
   10.92805576  349.85400391    4.26000023    1.69000006
   10.92944431  361.13101196    4.23999977    1.69000006
   10.93083382  366.66101074    4.23999977    1.66999996
   10.93222237  279.36999512    4.23999977    1.69000006
   10.93361092  333.83099365    4.23999977    1.69000006
   10.93500042  350.40899658    4.21999979    1.69000006
   10.93638897  276.16598511    4.21999979    1.69000006
   10.93777752  332.16699219    4.19999981    1.69000006
   10.93916702  277.94000244    4.19999981    1.69000006
   10.94055557  255.38699341    4.19999981    1.71000004
   10.94194412  319.35000610    4.17999983    1.71000004
   10.94333363  351.69799805    4.17999983    1.71000004
   10.94472218  338.38000488    4.17999983    1.71000004
   10.94611073  311.61199951    4.17999983    1.71000004
   10.94750023  312.03601074    4.15999985    1.71000004
   10.94888878  268.34500122    4.15999985    1.71000004
   10.95027733  238.98899841    4.15999985    1.71000004
   10.95055580  186.69999695    4.61999989    1.58000004
   10.95055580  240.81500244    4.57999992    1.58000004
   10.95055580  271.30801392    4.55999994    1.60000002
   10.95083332  253.08799744    4.55999994    1.60000002
   10.95083332  279.99899292    4.53999996    1.60000002
   10.95083332  233.11599731    4.53000021    1.60000002
   10.95111084  321.45401001    4.51000023    1.61000001
   10.95111084  202.07699585    4.63999987    1.55999994
   10.95111084  231.61999512    4.61999989    1.55999994
   10.95166683  343.55801392    4.15999985    1.71000004
   10.95388889  281.80700684    4.13999987    1.71000004
   10.95499992  277.24600220    4.13999987    1.71000004
   10.95638847  290.57299805    4.13999987    1.71000004
   10.95777798  285.91500854    4.11999989    1.73000002
   10.95916653  283.12899780    4.11999989    1.73000002
   10.96055508  287.11801147    4.11999989    1.73000002
   10.96194458  291.66000366    4.11999989    1.73000002
   10.96333313  245.33799744    4.11999989    1.73000002
   10.96361065  343.55801392    4.15999985    1.71000004
   10.96416664  261.71099854    4.09999990    1.73000002
   10.96722221  257.83300781    4.09999990    1.75000000
   10.97055531  260.48400879    4.07999992    1.75000000
   10.97388840  231.83900452    4.07999992    1.75000000
   10.97694397  321.22698975    4.05999994    1.75000000
   10.97916603  329.13699341    4.03999996    1.75000000
   10.98027706  267.86401367    4.03999996    1.75000000
   10.98166656  263.96899414    4.03999996    1.75000000
   10.98305511  262.70401001    4.03999996    1.75000000
   10.98444462  280.70599365    4.03999996    1.75000000
   10.98583317  258.69299316    4.01999998    1.75000000
   10.98722267  276.51800537    4.01999998    1.75000000
   10.98861122  250.82499695    4.01999998    1.76999998
   10.99000072  284.49301147    4.00000000    1.76999998
   10.99138927  222.72599792    4.00000000    1.76999998
   10.99166679  261.71099854    4.09999990    1.73000002
   10.99166679  257.83300781    4.09999990    1.75000000
   10.99166679  260.48400879    4.07999992    1.75000000
   10.99194431  231.83900452    4.07999992    1.75000000
   10.99194431  321.22698975    4.05999994    1.75000000
   10.99250031  275.32901001    4.00000000    1.76999998
   10.99583340  242.64700317    3.99000001    1.76999998
   10.99888897  238.88699341    3.99000001    1.76999998
   11.00222206  233.21299744    3.97000003    1.76999998
   11.00555515  231.21499634    3.97000003    1.78999996
   11.01222229  231.21499634    3.95000005    1.78999996
   11.01638889  227.01400757    3.93000007    1.80999994
   11.01972198  239.33200073    3.91000009    1.78999996
   11.02277756  254.93600464    3.91000009    1.80999994
   11.02527714  237.32099915    3.89000010    1.80999994
   11.02666664  226.51100159    3.89000010    1.80999994
   11.02972221  245.08200073    3.86999989    1.80999994
   11.03305531  215.84700012    3.86999989    1.83000004
   11.03638935  220.96400452    3.84999990    1.83000004
   11.03944492  208.86999512    3.84999990    1.83000004
   11.04277802  244.41200256    3.82999992    1.83000004
   11.04611111  244.23899841    3.82999992    1.83000004
   11.04916668  247.91499329    3.80999994    1.83000004
   11.05500031  247.91499329    3.78999996    1.85000002
   11.05916691  196.15299988    3.76999998    1.85000002
   11.06250000  199.80900574    3.76999998    1.85000002
   11.06583309  229.84199524    3.75000000    1.85000002
   11.06888866  181.84199524    3.75000000    1.86000001
   11.07222176  204.10800171    3.73000002    1.86000001
   11.07555580  206.78900146    3.73000002    1.86000001
   11.07861137  197.91099548    3.72000003    1.86000001
   11.08194447  201.05599976    3.72000003    1.88000000
   11.08527756  191.42799377    3.70000005    1.88000000
   11.08833313  200.81300354    3.68000007    1.86000001
   11.09166622  192.73399353    3.66000009    1.88000000
   11.09222221  195.01800537    3.66000009    1.88000000
   11.09805489  195.01800537    3.64000010    1.88000000
   11.10222244  208.24899292    3.64000010    1.88000000
   11.10527802  185.64799500    3.61999989    1.89999998
   11.10861111  192.31100464    3.61999989    1.88000000
   11.11166668  179.23599243    3.59999990    1.89999998
   11.11500072  209.35600281    3.59999990    1.88000000
   11.11833382  180.87199402    3.57999992    1.89999998
   11.12138939  186.57699585    3.57999992    1.89999998
   11.12472248  200.86700439    3.57999992    1.91999996
   11.12555599  202.41999817    3.57999992    1.91999996
   11.12833309  168.07200623    3.55999994    1.89999998
   11.13166714  181.40100098    3.55999994    1.91999996
   11.13500023  172.50700378    3.53999996    1.91999996
   11.14083290  172.50700378    3.51999998    1.91999996
   11.14499950  170.07200623    3.51999998    1.94000006
   11.14805508  177.83299255    3.50000000    1.94000006
   11.15138817  190.03599548    3.50000000    1.94000006
   11.15472221  182.47599792    3.48000002    1.94000006
   11.15777779  168.17100525    3.48000002    1.94000006
   11.15888882  180.70300293    3.48000002    1.94000006
   11.16138840  163.93299866    3.46000004    1.94000006
   11.16472149  184.83299255    3.46000004    1.94000006
   11.16805553  180.75999451    3.46000004    1.94000006
   11.17111111  159.77499390    3.45000005    1.94000006
   11.17444515  180.30299377    3.45000005    1.96000004
   11.17777824  172.25399780    3.43000007    1.96000004
   11.18361092  172.25399780    3.41000009    1.96000004
   11.18777752  164.24699402    3.41000009    1.98000002
   11.19111156  190.78599548    3.41000009    1.98000002
   11.19250011  148.03700256    3.41000009    1.98000002
   11.19499969  177.95100403    3.39000010    1.98000002
   11.19805527  173.50199890    3.39000010    1.98000002
   11.20138836  186.36599731    3.39000010    1.98000002
   11.20444393  163.26199341    3.36999989    1.98000002
   11.20777798  165.86399841    3.36999989    1.98000002
   11.21111107  152.82200623    3.34999990    1.98000002
   11.21416664  180.16600037    3.32999992    2.00000000
   11.21749973  157.67300415    3.32999992    2.00000000
   11.22083282  157.19900513    3.30999994    2.00000000
   11.22638798  157.19900513    3.30999994    2.00000000
   11.23055553  170.60000610    3.28999996    2.01999998
   11.23388958  168.20599365    3.26999998    2.01999998
   11.23722267  186.69400024    3.26999998    2.01999998
   11.24027824  160.32699585    3.26999998    2.01999998
   11.24361134  172.92300415    3.25000000    2.01999998
   11.24666691  159.98899841    3.25000000    2.01999998
   11.25000000  160.94500732    3.23000002    2.01999998
   11.25333309  141.36199951    3.21000004    2.01999998
   11.25638866  168.35600281    3.21000004    2.03999996
   11.25888920  183.24699402    3.21000004    2.03999996
   11.26000023  173.40600586    3.20000005    2.03999996
   11.26333332  173.08500671    3.20000005    2.03999996
   11.26944447  173.08500671    3.20000005    2.03999996
   11.27361107  190.41799927    3.18000007    2.03999996
   11.27666664  164.92300415    3.18000007    2.05999994
   11.27999973  185.30000305    3.18000007    2.03999996
   11.28305531  170.01800537    3.16000009    2.05999994
   11.28638935  187.05000305    3.16000009    2.05999994
   11.28972244  178.42399597    3.16000009    2.05999994
   11.29222298  183.72000122    3.16000009    2.05999994
   11.29305553  196.46899414    3.16000009    2.05999994
   11.29638958  185.09300232    3.14000010    2.05999994
   11.29972267  178.41499329    3.14000010    2.05999994
   11.30277824  190.11099243    3.14000010    2.05999994
   11.30611134  177.74800110    3.11999989    2.05999994
   11.31222248  177.74800110    3.11999989    2.07999992
   11.31638908  168.31599426    3.09999990    2.07999992
   11.31944466  151.45100403    3.07999992    2.07999992
   11.32277775  179.26499939    3.07999992    2.07999992
   11.32555580  178.26499939    3.07999992    2.07999992
   11.32638836  171.91999817    3.07999992    2.07999992
   11.32972240  173.73699951    3.05999994    2.09999990
   11.33305550  175.60299683    3.05999994    2.07999992
   11.33611107  183.60699463    3.03999996    2.09999990
   11.33944416  168.82699585    3.03999996    2.09999990
   11.34277725  165.83799744    3.03999996    2.09999990
   11.34583282  173.48500061    3.03999996    2.09999990
   11.34916592  179.50500488    3.01999998    2.09999990
   11.35500050  179.50500488    3.01999998    2.09999990
   11.35916710  149.00199890    3.01999998    2.09999990
   11.36250019  161.42300415    3.00000000    2.11999989
   11.36555576  176.26100159    3.00000000    2.11999989
   11.36888885  171.59800720    2.98000002    2.11999989
   11.37222195  168.00300598    3.00000000    2.11999989
   11.37527752  157.46499634    2.98000002    2.11999989
   11.37861156  163.38900757    2.98000002    2.11999989
   11.38166714  153.53700256    2.96000004    2.11999989
   11.38500023  160.95199585    2.96000004    2.13000011
   11.38833332  165.49800110    2.94000006    2.13000011
   11.39138889  161.62600708    2.94000006    2.13000011
   11.39222240  161.92399597    2.94000006    2.13000011
   11.39777756  161.92399597    2.93000007    2.13000011
   11.40194416  168.60800171    2.91000009    2.13000011
   11.40527725  177.30299377    2.91000009    2.13000011
   11.40888882  159.29800415    2.91000009    2.13000011
   11.41194439  149.53199768    2.89000010    2.13000011
   11.41527748  166.85099792    2.89000010    2.13000011
   11.41861153  173.70599365    2.86999989    2.13000011
   11.42166710  170.00500488    2.89000010    2.13000011
   11.42500019  157.59899902    2.86999989    2.15000010
   11.42555618  167.83700562    2.86999989    2.15000010
   11.42861176  170.34100342    2.86999989    2.15000010
   11.43166733  176.39799500    2.86999989    2.15000010
   11.43500042  176.74600220    2.86999989    2.15000010
   11.44083309  176.74600220    2.84999990    2.15000010
   11.44472218  149.86500549    2.84999990    2.15000010
   11.44805527  170.89199829    2.84999990    2.15000010
   11.45138836  164.39900208    2.84999990    2.17000008
   11.45444393  151.88499451    2.82999992    2.17000008
   11.45777798  187.60400391    2.82999992    2.17000008
   11.45888901  167.74400330    2.82999992    2.17000008
   11.46138859  178.42599487    2.82999992    2.17000008
   11.46444416  163.03399658    2.80999994    2.17000008
   11.46777725  168.47999573    2.80999994    2.19000006
   11.47083282  168.56700134    2.80999994    2.17000008
   11.47416592  180.98100281    2.78999996    2.19000006
   11.47749996  161.99000549    2.78999996    2.17000008
   11.48361111  161.99000549    2.78999996    2.17000008
   11.48777771  177.24200439    2.78999996    2.19000006
   11.49083328  170.97200012    2.76999998    2.17000008
   11.49222279  164.89999390    2.76999998    2.19000006
   11.49472237  157.07400513    2.76999998    2.19000006
   11.49777794  155.59899902    2.76999998    2.19000006
   11.50111103  164.64100647    2.76999998    2.19000006
   11.50416660  163.43299866    2.75000000    2.19000006
   11.50749969  159.63800049    2.75000000    2.19000006
   11.51083374  157.18299866    2.75000000    2.21000004
   11.51388931  158.08500671    2.75000000    2.21000004
   11.51722240  173.57400513    2.73000002    2.19000006
   11.52055550  150.24899292    2.73000002    2.21000004
   11.52638817  150.24899292    2.73000002    2.21000004
   11.53055573  158.94400024    2.71000004    2.21000004
   11.53388977  167.12399292    2.71000004    2.21000004
   11.53694534  154.99299622    2.71000004    2.21000004
   11.54027843  158.86999512    2.71000004    2.21000004
   11.54333401  168.15199280    2.69000006    2.21000004
   11.54666710  161.69400024    2.69000006    2.21000004
   11.55000019  148.42100525    2.69000006    2.21000004
   11.55305576  149.35499573    2.69000006    2.21000004
   11.55638885  149.21200562    2.69000006    2.23000002
   11.55888939  156.42999268    2.69000006    2.23000002
   11.56000042  157.49899292    2.69000006    2.23000002
   11.56305599  164.49200439    2.67000008    2.21000004
   11.56916618  164.49200439    2.67000008    2.23000002
   11.57333374  162.86500549    2.67000008    2.23000002
   11.57666683  155.70100403    2.66000009    2.23000002
   11.57972240  144.21400452    2.66000009    2.23000002
   11.58305550  159.16299438    2.66000009    2.23000002
   11.58638859  149.71000671    2.66000009    2.23000002
   11.58944416  162.80299377    2.64000010    2.23000002
   11.59222221  167.84199524    2.64000010    2.23000002
   11.59333324  158.75900269    2.64000010    2.23000002
   11.59638882  156.09700012    2.64000010    2.25000000
   11.59972191  155.50000000    2.64000010    2.23000002
   11.60277843  162.28700256    2.64000010    2.25000000
   11.60611153  160.96099854    2.64000010    2.25000000
   11.61222267  160.96099854    2.61999989    2.25000000
   11.61638927  146.62699890    2.61999989    2.25000000
   11.61944485  164.22700500    2.61999989    2.25000000
   11.62277794  170.74400330    2.59999990    2.25000000
   11.62555599  157.41200256    2.61999989    2.26999998
   11.62638855  154.32499695    2.59999990    2.25000000
   11.62944412  136.50999451    2.59999990    2.25000000
   11.63277817  154.90400696    2.59999990    2.25000000
   11.63583279  158.83299255    2.59999990    2.26999998
   11.63916683  146.98199463    2.59999990    2.26999998
   11.64249992  144.21899414    2.57999992    2.26999998
   11.64555550  161.49299622    2.57999992    2.26999998
   11.64888859  157.07499695    2.57999992    2.26999998
   11.65499973  157.07499695    2.57999992    2.26999998
   11.65916634  144.12399292    2.57999992    2.26999998
   11.66222191  176.89100647    2.55999994    2.26999998
   11.66555500  152.97599792    2.55999994    2.26999998
   11.66888905  150.47599792    2.55999994    2.28999996
   11.67194462  148.99800110    2.55999994    2.28999996
   11.67527771  163.31300354    2.53999996    2.28999996
   11.67833328  158.91000366    2.53999996    2.28999996
   11.68166733  150.45399475    2.53999996    2.28999996
   11.68500042  165.40100098    2.53999996    2.28999996
   11.68805599  162.44299316    2.53999996    2.28999996
   11.69138908  177.67300415    2.53999996    2.28999996
   11.69222260  158.58099365    2.53999996    2.28999996
   11.69777775  158.58099365    2.51999998    2.28999996
   11.70194435  150.74800110    2.51999998    2.28999996
   11.70527744  163.45399475    2.51999998    2.28999996
   11.70833302  156.11399841    2.51999998    2.28999996
   11.71166611  170.37500000    2.51999998    2.28999996
   11.71472168  180.10000610    2.51999998    2.28999996
   11.71805477  169.54899597    2.51999998    2.28999996
   11.72138882  162.65800476    2.51999998    2.28999996
   11.72444439  173.49899292    2.51999998    2.28999996
   11.72555542  170.72500610    2.51999998    2.28999996
   11.72833252  166.12899780    2.51999998    2.30999994
   11.73138809  166.32299805    2.51999998    2.30999994
   11.73472214  167.65800476    2.50000000    2.30999994
   11.74166679  167.65800476    2.50000000    2.30999994
   11.74583340  153.32800293    2.48000002    2.32999992
   11.74888897  155.93099976    2.48000002    2.30999994
   11.75222206  159.42199707    2.46000004    2.30999994
   11.75555515  145.47599792    2.46000004    2.30999994
   11.75861073  159.09399414    2.46000004    2.30999994
   11.75916672  154.83999634    2.46000004    2.32999992
   11.76249981  154.70300293    2.46000004    2.32999992
   11.76555538  147.69999695    2.46000004    2.30999994
   11.76888847  160.72200012    2.46000004    2.32999992
   11.77222157  149.65100098    2.46000004    2.32999992
   11.77527714  141.46000671    2.46000004    2.32999992
   11.77861118  148.04899597    2.46000004    2.32999992
   11.78361130  148.04899597    2.46000004    2.32999992
   11.80416679  160.12899780    2.44000006    2.32999992
   11.80722237  161.47799683    2.42000008    2.32999992
   11.81055546  166.06599426    2.42000008    2.34999990
   11.81361103  158.62899780    2.42000008    2.32999992
   11.81694412  165.82699585    2.42000008    2.32999992
   11.82027817  169.43200684    2.42000008    2.32999992
   11.82638836  169.43200684    2.42000008    2.32999992
   11.83055592  162.30200195    2.44000006    2.32999992
   11.83388901  152.46899414    2.44000006    2.32999992
   11.83722210  164.44999695    2.44000006    2.32999992
   11.83749962  160.61599731    2.44000006    2.32999992
   11.84083271  163.88499451    2.44000006    2.34999990
   11.84388828  158.72200012    2.44000006    2.34999990
   11.84722233  148.30999756    2.42000008    2.34999990
   11.85055637  165.11999512    2.42000008    2.36999989
   11.85361195  163.58599854    2.40000010    2.34999990
   11.85694504  173.39300537    2.42000008    2.34999990
   11.86027813  164.51699829    2.42000008    2.34999990
   11.86333370  176.15600586    2.44000006    2.34999990
   11.86944485  176.15600586    2.44000006    2.34999990
   11.87361145  190.19900513    2.44000006    2.34999990
   11.87666702  169.15499878    2.44000006    2.36999989
   11.88000011  182.34599304    2.42000008    2.36999989
   11.88305569  188.00599670    2.42000008    2.36999989
   11.88777733  162.77999878    2.42000008    2.36999989
   11.89138889  194.76300049    2.40000010    2.36999989
   11.89444447  170.81700134    2.40000010    2.36999989
   11.89805508  154.59800720    2.40000010    2.36999989
   11.90138817  168.25599670    2.40000010    2.36999989
   11.90444374  189.36300659    2.40000010    2.36999989
   11.90499973  159.31700134    2.40000010    2.36999989
   11.90805531  180.70599365    2.42000008    2.36999989
   11.91222191  180.70599365    2.40000010    2.39000010
   11.91638851  138.32699585    2.40000010    2.36999989
   11.91972256  155.78700256    2.40000010    2.36999989
   11.92277813  158.93699646    2.39000010    2.36999989
   11.92611122  155.17100525    2.39000010    2.39000010
   11.92916679  168.09599304    2.39000010    2.36999989
   11.93249989  172.80999756    2.39000010    2.36999989
   11.93583298  157.33700562    2.39000010    2.39000010
   11.93777752  168.88999939    2.39000010    2.36999989
   11.93944454  168.53599548    2.39000010    2.39000010
   11.94250011  161.88499451    2.39000010    2.39000010
   11.94583321  177.44000244    2.39000010    2.39000010
   11.94888878  164.96000671    2.39000010    2.39000010
   11.95499992  164.96000671    2.39000010    2.39000010
   11.95916653  169.64100647    2.39000010    2.39000010
   11.96249962  154.65600586    2.36999989    2.39000010
   11.96555519  164.79400635    2.36999989    2.39000010
   11.96888828  155.50000000    2.36999989    2.39000010
   11.97138882  161.39399719    2.36999989    2.39000010
   11.97249985  157.30799866    2.36999989    2.39000010
   11.97583294  167.40600586    2.36999989    2.39000010
   11.97916603  156.40699768    2.39000010    2.40000010
   11.98222160  163.57099915    2.39000010    2.40000010
   11.98555565  164.05200195    2.39000010    2.40000010
   11.98888874  166.22399902    2.39000010    2.40000010
   11.99194431  181.72399902    2.39000010    2.40000010
   11.99805546  181.72399902    2.39000010    2.40000010
   12.00194454  165.53399658    2.36999989    2.40000010
   12.00472260  172.23399353    2.36999989    2.40000010
   12.00555515  176.73899841    2.36999989    2.40000010
   12.00888920  158.17799377    2.34999990    2.40000010
   12.01222229  159.49899292    2.34999990    2.40000010
   12.01527786  168.89599609    2.34999990    2.40000010
   12.01861095  148.87600708    2.34999990    2.40000010
   12.02194405  180.06900024    2.34999990    2.40000010
   12.02499962  167.06900024    2.36999989    2.40000010
   12.02833271  173.39199829    2.36999989    2.40000010
   12.03138828  177.03100586    2.36999989    2.40000010
   12.03472233  187.88099670    2.39000010    2.40000010
   12.04083347  187.88099670    2.36999989    2.40000010
   12.04500008  174.77400208    2.36999989    2.40000010
   12.04805565  195.69700623    2.36999989    2.42000008
   12.05138874  171.35499573    2.36999989    2.40000010
   12.05472279  169.84399414    2.36999989    2.40000010
   12.05777836  182.19799805    2.34999990    2.40000010
   12.06111145  189.56300354    2.34999990    2.40000010
   12.06416702  180.79100037    2.34999990    2.42000008
   12.06750011  162.94200134    2.34999990    2.42000008
   12.07083321  162.33700562    2.34999990    2.40000010
   12.07166672  186.94900513    2.34999990    2.42000008
   12.07444477  169.51899719    2.34999990    2.42000008
   12.07750034  172.32699585    2.34999990    2.42000008
   12.08361053  172.32699585    2.34999990    2.42000008
   12.08777714  179.00999451    2.34999990    2.42000008
   12.09111118  157.23300171    2.34999990    2.42000008
   12.09416676  177.75199890    2.34999990    2.42000008
   12.09749985  178.35800171    2.32999992    2.42000008
   12.10055637  158.36900330    2.32999992    2.42000008
   12.10388947  164.53300476    2.32999992    2.42000008
   12.10500050  159.03199768    2.32999992    2.44000006
   12.10750008  153.31700134    2.30999994    2.42000008
   12.11083412  154.61399841    2.30999994    2.44000006
   12.11388969  146.13800049    2.30999994    2.44000006
   12.11722279  173.79400635    2.30999994    2.44000006
   12.12027836  148.44799805    2.30999994    2.44000006
   12.12638855  148.44799805    2.30999994    2.44000006
   12.13055611  152.62199402    2.30999994    2.44000006
   12.13388920  138.61300659    2.28999996    2.44000006
   12.13694477  168.88099670    2.28999996    2.44000006
   12.13861084  176.64700317    2.28999996    2.44000006
   12.14055538  167.27099609    2.28999996    2.44000006
   12.14388847  154.67599487    2.28999996    2.44000006
   12.14722252  164.97700500    2.26999998    2.46000004
   12.15027714  149.59500122    2.26999998    2.44000006
   12.15361118  167.10200500    2.26999998    2.44000006
   12.15694427  168.04100037    2.26999998    2.44000006
   12.15999985  154.60099792    2.25000000    2.44000006
   12.16333294  160.40699768    2.25000000    2.44000006
   12.16944504  160.40699768    2.25000000    2.44000006
   12.17333412  145.36999512    2.25000000    2.44000006
   12.17666721  152.48899841    2.25000000    2.46000004
   12.18000031  163.65199280    2.23000002    2.46000004
   12.18305588  151.84199524    2.23000002    2.44000006
   12.18638897  150.82899475    2.23000002    2.46000004
   12.18972206  163.62399292    2.23000002    2.46000004
   12.19277763  163.40899658    2.23000002    2.46000004
   12.19611073  151.87199402    2.23000002    2.46000004
   12.19944477  147.72599792    2.23000002    2.44000006
   12.20249939  160.11799622    2.23000002    2.46000004
   12.20527744  155.75199890    2.23000002    2.44000006
   12.20611095  161.03500366    2.23000002    2.46000004
   12.21222210  161.03500366    2.23000002    2.46000004
   12.21638870  143.57400513    2.23000002    2.46000004
   12.21944427  150.00500488    2.23000002    2.48000002
   12.22277737  143.12800598    2.23000002    2.46000004
   12.22611046  151.08999634    2.23000002    2.46000004
   12.22916603  153.36399841    2.23000002    2.46000004
   12.23249912  156.39100647    2.25000000    2.46000004
   12.23555565  152.94400024    2.25000000    2.46000004
   12.23861122  150.41700745    2.26999998    2.46000004
   12.23916721  151.52299500    2.26999998    2.46000004
   12.24250031  149.75700378    2.26999998    2.46000004
   12.24583340  169.56199646    2.28999996    2.48000002
   12.24888897  165.33900452    2.26999998    2.46000004
   12.25500011  165.33900452    2.25000000    2.48000002
   12.25916672  152.91000366    2.23000002    2.48000002
   12.26249981  159.21899414    2.23000002    2.48000002
   12.26555538  159.84899902    2.21000004    2.48000002
   12.26888847  166.59399414    2.21000004    2.48000002
   12.27194405  158.91099548    2.21000004    2.48000002
   12.27222157  164.08099365    2.21000004    2.48000002
   12.27555561  141.35600281    2.21000004    2.48000002
   12.27888870  157.27699280    2.19000006    2.46000004
   12.28194427  153.75300598    2.19000006    2.48000002
   12.28527832  160.93699646    2.19000006    2.48000002
   12.28861141  157.72099304    2.21000004    2.48000002
   12.29166698  148.11500549    2.21000004    2.48000002
   12.29777813  148.11500549    2.17000008    2.48000002
   12.30194473  155.36799622    2.15000010    2.48000002
   12.30527782  145.50700378    2.13000011    2.48000002
   12.30555534  146.58200073    2.13000011    2.48000002
   12.30888939  156.50399780    2.13000011    2.48000002
   12.31222248  158.87600708    2.13000011    2.48000002
   12.31527805  152.31399536    2.13000011    2.50000000
   12.31861115  146.52099609    2.13000011    2.48000002
   12.32194424  171.02999878    2.09999990    2.50000000
   12.32499981  148.31799316    2.09999990    2.50000000
   12.32833290  160.69000244    2.07999992    2.48000002
   12.33138847  148.44099426    2.07999992    2.48000002
   12.33472157  160.48300171    2.07999992    2.48000002
   12.34055519  160.48300171    2.07999992    2.50000000
   12.34472179  161.10200500    2.07999992    2.48000002
   12.34805489  155.43099976    2.05999994    2.50000000
   12.35138893  158.76499939    2.03999996    2.50000000
   12.35444450  142.47300720    2.03999996    2.51999998
   12.35777855  143.46099854    2.03999996    2.51999998
   12.36111164  151.96899414    2.03999996    2.50000000
   12.36416721  152.20899963    2.05999994    2.50000000
   12.36750031  141.28300476    2.05999994    2.50000000
   12.37055588  164.50199890    2.05999994    2.50000000
   12.37194443  150.19900513    2.03999996    2.50000000
   12.37444496  152.45700073    2.03999996    2.50000000
   12.37750053  155.79400635    2.05999994    2.51999998
   12.38361073  155.79400635    2.03999996    2.50000000
   12.38777733  146.24899292    2.03999996    2.51999998
   12.39083290  166.36999512    2.03999996    2.51999998
   12.39416695  171.28399658    2.03999996    2.50000000
   12.39750004  156.40699768    2.01999998    2.51999998
   12.40055561  164.12100220    2.01999998    2.50000000
   12.40388870  165.76300049    2.01999998    2.51999998
   12.40527725  156.27099609    2.01999998    2.50000000
   12.40749931  153.65400696    2.01999998    2.51999998
   12.41055489  147.55499268    2.01999998    2.51999998
   12.41388893  141.08200073    2.01999998    2.50000000
   12.41694450  153.43499756    2.01999998    2.51999998
   12.42027855  144.03500366    2.00000000    2.51999998
   12.42638874  144.03500366    2.00000000    2.51999998
   12.43055630  144.83200073    2.00000000    2.51999998
   12.43361092  157.72700500    2.00000000    2.51999998
   12.43694496  150.01600647    2.00000000    2.51999998
   12.43888855  166.95399475    2.00000000    2.51999998
   12.44055557  139.44200134    2.00000000    2.51999998
   12.44388866  143.42799377    2.00000000    2.51999998
   12.44722271  143.03399658    2.00000000    2.51999998
   12.45027733  145.13600159    2.00000000    2.53999996
   12.45361137  145.15100098    2.00000000    2.51999998
   12.45666695  155.57400513    2.00000000    2.53999996
   12.46000004  151.17900085    2.00000000    2.53999996
   12.46333313  149.31599426    1.96000004    2.51999998
   12.46916580  149.31599426    1.96000004    2.51999998
   12.47333336  149.21000671    1.96000004    2.51999998
   12.47666645  142.93699646    1.94000006    2.51999998
   12.47972202  141.51300049    1.94000006    2.53999996
   12.48305511  148.86799622    1.94000006    2.51999998
   12.48638916  151.94099426    1.91999996    2.53999996
   12.48944473  149.70799255    1.91999996    2.53999996
   12.49277782  138.14900208    1.89999998    2.53999996
   12.49583340  148.61700439    1.88000000    2.53999996
   12.49916649  135.77600098    1.88000000    2.51999998
   12.50249958  141.38099670    1.86000001    2.53999996
   12.50555515  137.32499695    1.86000001    2.53999996
   12.50583363  133.13200378    1.86000001    2.53999996
   12.51222229  133.13200378    1.86000001    2.51999998
   12.51611137  143.04600525    1.86000001    2.53999996
   12.51944447  135.15699768    1.86000001    2.53999996
   12.52277756  137.50300598    1.85000002    2.53999996
   12.52583313  150.02999878    1.85000002    2.53999996
   12.52916622  160.08200073    1.85000002    2.55999994
   12.53249931  152.87399292    1.85000002    2.55999994
   12.53555584  151.20100403    1.83000004    2.55999994
   12.53888893  148.16999817    1.83000004    2.53999996
   12.53916740  140.96000671    1.83000004    2.53999996
   12.54250050  145.16000366    1.83000004    2.53999996
   12.54583359  144.93200684    1.83000004    2.53999996
   12.54888916  147.71299744    1.83000004    2.55999994
   12.55500031  147.71299744    1.80999994    2.53999996
   12.55916691  139.72300720    1.80999994    2.55999994
   12.56222248  136.85400391    1.80999994    2.57999992
   12.56555557  140.29600525    1.78999996    2.53999996
   12.56861115  137.39599609    1.78999996    2.55999994
   12.57194424  141.62399292    1.78999996    2.55999994
   12.57250023  132.77099609    1.78999996    2.55999994
   12.57583332  138.35000610    1.78999996    2.55999994
   12.57888889  141.50700378    1.76999998    2.53999996
   12.58222198  124.99700165    1.76999998    2.55999994
   12.58555508  143.16900635    1.76999998    2.55999994
   12.58861065  135.17599487    1.75000000    2.55999994
   12.59194374  130.36500549    1.75000000    2.53999996
   12.59777737  130.36500549    1.73000002    2.55999994
   12.60194492  135.64300537    1.71000004    2.53999996
   12.60500050  126.65399933    1.71000004    2.57999992
   12.60583401  137.50799561    1.71000004    2.57999992
   12.60888958  132.52600098    1.73000002    2.55999994
   12.61194515  131.47900391    1.71000004    2.55999994
   12.61527824  134.16099548    1.71000004    2.57999992
   12.61861134  139.80400085    1.69000006    2.55999994
   12.62166691  143.70199585    1.69000006    2.55999994
   12.62500000  130.71800232    1.69000006    2.57999992
   12.62805557  141.98800659    1.69000006    2.55999994
   12.63138866  129.00000000    1.69000006    2.55999994
   12.63472176  132.49699402    1.69000006    2.55999994
   12.64055538  132.49699402    1.69000006    2.57999992
   12.64472198  142.78199768    1.69000006    2.57999992
   12.64805508  141.14799500    1.69000006    2.55999994
   12.65111065  147.33900452    1.69000006    2.57999992
   12.65444374  136.33999634    1.69000006    2.59999990
   12.65777779  150.73100281    1.66999996    2.57999992
   12.66083336  140.65400696    1.66999996    2.57999992
   12.66416645  143.85600281    1.66999996    2.55999994
   12.66750050  149.91900635    1.66999996    2.55999994
   12.67055607  137.63299561    1.64999998    2.55999994
   12.67250061  151.21400452    1.64999998    2.57999992
   12.67444515  149.16700745    1.64999998    2.57999992
   12.67750072  138.21800232    1.64999998    2.57999992
   12.68333340  138.21800232    1.63000000    2.57999992
   12.68750000  155.93499756    1.63000000    2.57999992
   12.69083309  146.38600159    1.63000000    2.57999992
   12.69416714  154.16499329    1.63000000    2.59999990
   12.69722271  156.38299561    1.63000000    2.57999992
   12.70055580  146.33700562    1.63000000    2.57999992
   12.70361137  151.74400330    1.61000001    2.55999994
   12.70583344  148.94599915    1.61000001    2.55999994
   12.70749950  152.72900391    1.61000001    2.57999992
   12.71055508  149.53300476    1.61000001    2.55999994
   12.71388912  155.79299927    1.61000001    2.59999990
   12.71722221  150.32800293    1.61000001    2.57999992
   12.72027779  146.24400330    1.60000002    2.57999992
   12.72638798  146.24400330    1.60000002    2.57999992
   12.73055553  146.53300476    1.60000002    2.57999992
   12.73361111  143.86000061    1.58000004    2.57999992
   12.73694515  149.97099304    1.58000004    2.59999990
   12.73916721  154.61099243    1.58000004    2.57999992
   12.74055576  146.09500122    1.58000004    2.57999992
   12.74361134  155.46400452    1.60000002    2.57999992
   12.74694443  141.22700500    1.60000002    2.59999990
   12.75027752  139.57499695    1.60000002    2.57999992
   12.75333309  147.91600037    1.58000004    2.59999990
   12.75666714  149.96400452    1.60000002    2.59999990
   12.75972176  151.68400574    1.60000002    2.59999990
   12.76305580  147.17999268    1.60000002    2.57999992
   12.76916599  147.17999268    1.60000002    2.59999990
   12.77333355  152.11099243    1.60000002    2.59999990
   12.77666664  151.56799316    1.60000002    2.59999990
   12.77999973  165.56799316    1.60000002    2.57999992
   12.78305531  152.08099365    1.60000002    2.59999990
   12.78638935  144.11900330    1.60000002    2.59999990
   12.78972244  147.16799927    1.61000001    2.59999990
   12.79277802  148.24400330    1.61000001    2.59999990
   12.79611111  146.19500732    1.60000002    2.59999990
   12.79916668  147.36700439    1.60000002    2.59999990
   12.80249977  148.94500732    1.60000002    2.59999990
   12.82083321  151.22599792    1.51999998    2.59999990
   12.82499981  151.22599792    1.51999998    2.57999992
   12.82916641  146.09199524    1.51999998    2.59999990
   12.83222198  139.22900391    1.51999998    2.61999989
   12.83555508  154.35600281    1.51999998    2.61999989
   12.83888817  157.45100403    1.50000000    2.59999990
   12.84194374  148.30499268    1.50000000    2.61999989
   12.84527779  141.46499634    1.50000000    2.59999990
   12.84861088  143.89999390    1.50000000    2.61999989
   12.85166740  129.52499390    1.50000000    2.61999989
   12.85416698  139.97799683    1.50000000    2.59999990
   12.85527802  152.32499695    1.51999998    2.59999990
   12.85861111  150.97200012    1.51999998    2.61999989
   12.86194515  147.74099731    1.51999998    2.61999989
   12.86777782  147.74099731    1.50000000    2.61999989
   12.87194443  144.08700562    1.48000002    2.61999989
   12.87527752  152.05900574    1.48000002    2.61999989
   12.87833309  145.31700134    1.48000002    2.59999990
   12.88166714  143.46800232    1.48000002    2.59999990
   12.88500023  153.52200317    1.46000004    2.59999990
   12.88749981  160.52099609    1.46000004    2.59999990
   12.88861084  164.94700623    1.46000004    2.61999989
   12.89194393  159.92999268    1.44000006    2.61999989
   12.89527798  155.23199463    1.44000006    2.59999990
   12.89833355  151.03199768    1.44000006    2.61999989
   12.90166664  144.20899963    1.46000004    2.61999989
   12.90499973  156.54499817    1.46000004    2.61999989
   12.91055489  156.54499817    1.44000006    2.64000010
   12.91472149  159.09300232    1.44000006    2.61999989
   12.91805553  156.27699280    1.44000006    2.61999989
   12.92083359  149.95599365    1.44000006    2.61999989
   12.92166710  150.96299744    1.44000006    2.61999989
   12.92500019  147.78700256    1.44000006    2.61999989
   12.92833328  145.32800293    1.44000006    2.61999989
   12.93138885  147.35200500    1.44000006    2.61999989
   12.93472195  159.90100098    1.44000006    2.61999989
   12.93805599  160.50700378    1.44000006    2.61999989
   12.94111156  148.65400696    1.41999996    2.64000010
   12.94444466  143.64900208    1.41999996    2.61999989
   12.94750023  158.83900452    1.41999996    2.61999989
   12.95361137  158.83900452    1.41999996    2.61999989
   12.95777798  147.86599731    1.41999996    2.61999989
   12.96083355  157.08900452    1.39999998    2.61999989
   12.96416664  150.80200195    1.41999996    2.59999990
   12.96722221  134.76100159    1.41999996    2.61999989
   12.97055531  142.33799744    1.41999996    2.61999989
   12.97388840  140.59700012    1.41999996    2.64000010
   12.97694397  153.95100403    1.39999998    2.64000010
   12.98027706  147.31900024    1.39999998    2.61999989
   12.98361111  145.24899292    1.39999998    2.61999989
   12.98666668  146.44700623    1.41999996    2.64000010
   12.98861122  145.28100586    1.44000006    2.64000010
   12.99027824  146.24499512    1.46000004    2.61999989
   12.99638939  146.24499512    1.44000006    2.64000010
   13.00055599  138.97000122    1.44000006    2.61999989
   13.00361156  147.25100708    1.41999996    2.61999989
   13.00694466  146.02200317    1.41999996    2.64000010
   13.01027775  140.40299988    1.41999996    2.61999989
   13.01333332  138.22399902    1.41999996    2.64000010
   13.01666641  139.70599365    1.41999996    2.64000010
   13.01972198  143.90199280    1.41999996    2.64000010
   13.02194405  140.65800476    1.41999996    2.64000010
   13.02333355  150.03700256    1.41999996    2.64000010
   13.02666664  140.24699402    1.39999998    2.61999989
   13.02999973  150.35800171    1.39999998    2.64000010
   13.03305531  139.32600403    1.39999998    2.64000010
   13.03916740  139.32600403    1.39999998    2.64000010
   13.04333401  144.72500610    1.38000000    2.64000010
   13.04666710  146.64399719    1.38000000    2.64000010
   13.04972267  139.74699402    1.38000000    2.64000010
   13.05305576  138.11999512    1.36000001    2.64000010
   13.05555534  135.75900269    1.36000001    2.64000010
   13.05666733  142.67500305    1.36000001    2.64000010
   13.06000042  150.81199646    1.34000003    2.64000010
   13.06305599  140.59399414    1.34000003    2.66000009
   13.06638908  148.85200500    1.33000004    2.64000010
   13.06972218  147.39100647    1.33000004    2.64000010
   13.07277775  139.93600464    1.33000004    2.64000010
   13.07611084  140.21899414    1.33000004    2.64000010
   13.08194447  140.21899414    1.33000004    2.64000010
   13.08611107  149.94900513    1.30999994    2.64000010
   13.08888817  144.18499756    1.30999994    2.64000010
   13.08972168  135.22399902    1.30999994    2.66000009
   13.09305477  149.87500000    1.30999994    2.66000009
   13.09611034  133.39700317    1.30999994    2.66000009
   13.09944439  145.81100464    1.30999994    2.64000010
   13.10277843  144.99800110    1.30999994    2.64000010
   13.10583401  134.95399475    1.30999994    2.66000009
   13.10916710  131.71200562    1.30999994    2.64000010
   13.11250019  139.65600586    1.30999994    2.66000009
   13.11555576  130.21099854    1.30999994    2.66000009
   13.11888885  136.63999939    1.30999994    2.66000009
   13.12500000  136.63999939    1.30999994    2.66000009
   13.12916660  141.83799744    1.30999994    2.66000009
   13.13222218  142.83299255    1.30999994    2.66000009
   13.13555527  141.01300049    1.33000004    2.66000009
   13.13861084  140.11700439    1.33000004    2.64000010
   13.14194393  135.81399536    1.33000004    2.64000010
   13.14527798  134.70300293    1.33000004    2.66000009
   13.14861107  137.32499695    1.34000003    2.64000010
   13.15166664  137.50000000    1.34000003    2.64000010
   13.15499973  144.73300171    1.34000003    2.66000009
   13.15583324  134.74899292    1.34000003    2.66000009
   13.15861034  140.84100342    1.34000003    2.67000008
   13.16166592  134.47599792    1.36000001    2.66000009
   13.16777802  134.47599792    1.36000001    2.67000008
   13.17194462  144.65499878    1.36000001    2.66000009
   13.17500019  142.15899658    1.36000001    2.66000009
   13.17833328  131.36999512    1.36000001    2.64000010
   13.18166733  134.21099854    1.36000001    2.67000008
   13.18472195  137.56100464    1.33000004    2.64000010
   13.18805599  121.66300201    1.33000004    2.66000009
   13.18916702  137.05799866    1.33000004    2.66000009
   13.19166660  133.84599304    1.34000003    2.64000010
   13.19472218  139.38699341    1.34000003    2.67000008
   13.19805527  134.05000305    1.34000003    2.64000010
   13.20111084  128.14399719    1.34000003    2.64000010
   13.20444393  137.19099426    1.33000004    2.67000008
   13.21055508  137.19099426    1.34000003    2.66000009
   13.21472168  151.65299988    1.33000004    2.66000009
   13.21805477  143.26600647    1.33000004    2.67000008
   13.22111034  151.72099304    1.30999994    2.67000008
   13.22277737  139.15600586    1.33000004    2.66000009
   13.22499943  134.72200012    1.33000004    2.67000008
   13.22805500  138.48500061    1.33000004    2.67000008
   13.23138809  132.61599731    1.30999994    2.67000008
   13.23444462  137.27799988    1.30999994    2.67000008
   13.23777771  144.77000427    1.30999994    2.67000008
   13.24111176  139.31700134    1.30999994    2.67000008
   13.24416733  148.13600159    1.30999994    2.67000008
   13.24750042  133.13800049    1.33000004    2.67000008
   13.25333309  133.13800049    1.30999994    2.67000008
   13.25749969  121.07700348    1.30999994    2.66000009
   13.26083374  148.11700439    1.28999996    2.67000008
   13.26388931  136.44200134    1.25000000    2.67000008
   13.26722240  142.45700073    1.25000000    2.67000008
   13.27055550  153.34800720    1.25000000    2.67000008
   13.27361107  138.97700500    1.28999996    2.67000008
   13.27694416  141.33500671    1.30999994    2.67000008
   13.28027725  144.32400513    1.30999994    2.67000008
   13.28333378  139.58799744    1.30999994    2.67000008
   13.28666687  127.11499786    1.30999994    2.67000008
   13.28944492  144.58200073    1.33000004    2.66000009
   13.29027843  136.13800049    1.30999994    2.67000008
   13.29638958  136.13800049    1.33000004    2.67000008
   13.30027771  134.57699585    1.30999994    2.67000008
   13.30361176  133.76499939    1.30999994    2.67000008
   13.30694485  138.64300537    1.30999994    2.66000009
   13.31000042  126.68800354    1.28999996    2.66000009
   13.31333351  141.68299866    1.28999996    2.67000008
   13.31666660  162.42500305    1.26999998    2.67000008
   13.31972218  142.55499268    1.26999998    2.66000009
   13.32277775  134.72399902    1.26999998    2.67000008
   13.32333374  135.64300537    1.26999998    2.67000008
   13.32666683  136.52699280    1.26999998    2.67000008
   13.32999992  137.80099487    1.26999998    2.67000008
   13.33305550  141.09599304    1.26999998    2.67000008
   13.33916664  141.09599304    1.25000000    2.67000008
   13.34333324  150.50500488    1.25000000    2.67000008
   13.34638882  141.37399292    1.23000002    2.67000008
   13.34972191  126.88800049    1.23000002    2.67000008
   13.35305595  144.30999756    1.23000002    2.67000008
   13.35611153  133.66200256    1.23000002    2.67000008
   13.35638905  132.31199646    1.23000002    2.67000008
   13.35972214  134.27200317    1.23000002    2.67000008
   13.36305618  128.05099487    1.23000002    2.67000008
   13.36611176  130.24299622    1.21000004    2.69000006
   13.36944485  137.30299377    1.19000006    2.67000008
   13.37250042  138.52499390    1.19000006    2.67000008
   13.37583351  132.57800293    1.19000006    2.67000008
   13.38194466  132.57800293    1.19000006    2.69000006
   13.38611126  128.28300476    1.19000006    2.67000008
   13.38944435  129.68699646    1.21000004    2.69000006
   13.38972187  127.70400238    1.21000004    2.69000006
   13.39305496  122.80999756    1.23000002    2.67000008
   13.39638901  130.19999695    1.25000000    2.71000004
   13.39944458  132.71200562    1.25000000    2.69000006
   13.40277767  138.53100586    1.25000000    2.67000008
   13.40583324  141.60299683    1.25000000    2.67000008
   13.40916634  131.33200073    1.25000000    2.67000008
   13.41249943  139.92599487    1.25000000    2.67000008
   13.41555500  135.01899719    1.25000000    2.67000008
   13.41888905  147.21699524    1.23000002    2.67000008
   13.42472267  147.21699524    1.25000000    2.67000008
   13.42888927  136.30700684    1.23000002    2.69000006
   13.43222237  135.82200623    1.23000002    2.69000006
   13.43527794  144.07000732    1.23000002    2.67000008
   13.43861103  135.88299561    1.25000000    2.69000006
   13.44194412  137.17799377    1.25000000    2.69000006
   13.44499969  141.18400574    1.25000000    2.69000006
   13.44833374  141.01199341    1.25000000    2.67000008
   13.45166683  138.95700073    1.23000002    2.69000006
   13.45472240  136.80299377    1.21000004    2.67000008
   13.45611095  131.50999451    1.21000004    2.67000008
   13.45861053  136.91999817    1.21000004    2.69000006
   13.46166611  140.62300110    1.21000004    2.69000006
   13.46777725  140.62300110    1.21000004    2.67000008
   13.47166634  128.52699280    1.19000006    2.69000006
   13.47499943  126.07900238    1.19000006    2.67000008
   13.47833252  131.97799683    1.16999996    2.69000006
   13.48138809  124.92299652    1.16999996    2.69000006
   13.48472214  124.40100098    1.16999996    2.69000006
   13.48805618  131.77699280    1.16999996    2.69000006
   13.48944473  129.37600708    1.16999996    2.67000008
   13.49138927  130.76699829    1.16999996    2.69000006
   13.49472237  129.09800720    1.16999996    2.69000006
   13.49805546  138.87300110    1.16999996    2.71000004
   13.60722256   -1.00000000   -1.00000000   -1.00000000
   13.70388889   -1.00000000   -1.00000000   -1.00000000
   13.80361176   -1.00000000   -1.00000000   -1.00000000
   13.83444405   91.81610107    0.95999998    2.71000004
   13.83749962  146.33299255    0.95999998    2.73000002
   13.84083271  145.14900208    0.94000000    2.71000004
   13.84388828  147.79499817    0.94000000    2.71000004
   13.84722233  147.24800110    0.92000002    2.71000004
   13.85055637  145.53599548    0.92000002    2.71000004
   13.85472298  145.53599548    0.92000002    2.73000002
   13.85861111  148.67999268    0.92000002    2.71000004
   13.86194515  145.86799622    0.92000002    2.71000004
   13.86527824  143.55200195    0.92000002    2.73000002
   13.86750031  136.76199341    0.92000002    2.71000004
   13.86888885  142.94799805    0.92000002    2.73000002
   13.87194443  133.61500549    0.92000002    2.73000002
   13.87527752  132.25599670    0.92000002    2.73000002
   13.87861156  147.09500122    0.94000000    2.73000002
   13.88166714  140.51899719    0.92000002    2.73000002
   13.88500023  139.54699707    0.92000002    2.73000002
   13.88833332  138.13000488    0.92000002    2.75000000
   13.89138889  139.65400696    0.92000002    2.73000002
   13.89750004  139.65400696    0.92000002    2.73000002
   13.90166664  144.43699646    0.94000000    2.73000002
   13.90472221  130.32899475    0.94000000    2.71000004
   13.90805531  142.83799744    0.94000000    2.73000002
   13.91111088  144.74099731    0.94000000    2.73000002
   13.91444397  145.12100220    0.94000000    2.73000002
   13.91777802  138.57099915    0.94000000    2.73000002
   13.92083359  135.42799377    0.94000000    2.73000002
   13.92416668  142.51400757    0.95999998    2.73000002
   13.92750072  149.77499390    0.95999998    2.71000004
   13.93055630  140.38699341    0.95999998    2.73000002
   13.93388939  147.11799622    0.95999998    2.71000004
   13.93444443  142.73500061    0.95999998    2.71000004
   13.94027805  142.73500061    0.94000000    2.73000002
   13.94444466  139.80099487    0.94000000    2.73000002
   13.94750023  135.01499939    0.94000000    2.73000002
   13.95083332  150.65600586    0.94000000    2.71000004
   13.95416641  150.77400208    0.92000002    2.73000002
   13.95722198  137.78500366    0.92000002    2.73000002
   13.96055508  154.36799622    0.92000002    2.71000004
   13.96388912  145.36799622    0.92000002    2.71000004
   13.96694374  140.60200500    0.92000002    2.75000000
   13.96777725  143.75599670    0.92000002    2.75000000
   13.97055531  141.44999695    0.92000002    2.71000004
   13.97388840  149.12800598    0.92000002    2.75000000
   13.97722149  144.55999756    0.92000002    2.75000000
   13.98305511  144.55999756    0.92000002    2.73000002
   13.98722267  136.48100281    0.92000002    2.73000002
   13.99055576  143.86399841    0.89999998    2.73000002
   13.99361134  142.93099976    0.89999998    2.75000000
   13.99694443  153.25999451    0.89999998    2.73000002
   14.00027752  142.92500305    0.89999998    2.73000002
   14.00111103  144.00900269    0.89999998    2.73000002
   14.00361156  142.16200256    0.89999998    2.73000002
   14.00694466  138.23300171    0.89999998    2.73000002
   14.01027775  133.34100342    0.89999998    2.73000002
   14.01333332  133.75999451    0.89999998    2.73000002
   14.01666641  146.07800293    0.92000002    2.73000002
   14.01999950  151.02200317    0.92000002    2.75000000
   14.02583313  151.02200317    0.92000002    2.73000002
   14.02999973  150.32099915    0.92000002    2.73000002
   14.03333378  157.32200623    0.94000000    2.71000004
   14.03444481  136.08799744    0.94000000    2.71000004
   14.03694534  152.73699951    0.94000000    2.75000000
   14.04027843  149.34100342    0.95999998    2.75000000
   14.04361153  139.71600342    0.95999998    2.75000000
   14.04666710  147.82099915    0.95999998    2.73000002
   14.05000019  140.83200073    0.94000000    2.73000002
   14.05333328  144.05200195    0.94000000    2.71000004
   14.05638885  137.55900574    0.94000000    2.75000000
   14.05972195  139.69799805    0.94000000    2.73000002
   14.06277752  136.57499695    0.94000000    2.73000002
   14.06888866  136.57499695    0.94000000    2.75000000
   14.07305527  147.71699524    0.94000000    2.73000002
   14.07611084  142.57800293    0.92000002    2.73000002
   14.07944393  145.08099365    0.92000002    2.75000000
   14.08249950  145.70799255    0.92000002    2.73000002
   14.08583260  142.50700378    0.94000000    2.73000002
   14.08916664  143.14300537    0.94000000    2.75000000
   14.09222221  136.97099304    0.94000000    2.75000000
   14.09555531  140.61000061    0.94000000    2.75000000
   14.09888840  142.51499939    0.94000000    2.75000000
   14.10111141  145.55400085    0.94000000    2.73000002
   14.10222244  133.95300293    0.94000000    2.75000000
   14.10555553  151.09599304    0.94000000    2.73000002
   14.11166668  151.09599304    0.92000002    2.73000002
   14.11583328  136.80000305    0.92000002    2.73000002
   14.11888885  147.16499329    0.89999998    2.75000000
   14.12222195  136.15400696    0.89999998    2.75000000
   14.12555599  145.55299377    0.89999998    2.73000002
   14.12861156  147.85299683    0.89999998    2.75000000
   14.13194466  145.47399902    0.89999998    2.75000000
   14.13444424  144.27600098    0.89999998    2.75000000
   14.13555527  138.26199341    0.89999998    2.75000000
   14.13888836  141.16900635    0.92000002    2.75000000
   14.14222240  142.10600281    0.92000002    2.75000000
   14.14527798  144.03100586    0.92000002    2.75000000
   14.14861107  135.46899414    0.92000002    2.75000000
   14.15444374  135.46899414    0.89999998    2.75000000
   14.15861034  145.17599487    0.89999998    2.75000000
   14.16194439  143.53399658    0.89999998    2.75000000
   14.16499996  138.98100281    0.88000000    2.75000000
   14.16777802  140.30599976    0.88000000    2.75000000
   14.16888905  147.43299866    0.88000000    2.75000000
   14.17194462  148.05700684    0.88000000    2.75000000
   14.17527771  158.79499817    0.88000000    2.75000000
   14.17833328  149.29899597    0.88000000    2.75000000
   14.18166733  137.63900757    0.88000000    2.75000000
   14.18500042  149.34899902    0.89999998    2.75000000
   14.18805599  129.47900391    0.89999998    2.75000000
   14.19138908  143.33399963    0.92000002    2.75000000
   14.19722271  143.33399963    0.92000002    2.75000000
   14.20138836  139.73399353    0.92000002    2.75000000
   14.20472240  147.33999634    0.92000002    2.73000002
   14.20805550  131.33999634    0.89999998    2.75000000
   14.21111107  137.32400513    0.89999998    2.75000000
   14.21444416  140.53900146    0.92000002    2.75000000
   14.21749973  140.50399780    0.92000002    2.76999998
   14.22083282  143.01199341    0.92000002    2.76999998
   14.22416592  136.26199341    0.92000002    2.75000000
   14.22722149  147.72300720    0.92000002    2.75000000
   14.23055553  141.55999756    0.92000002    2.75000000
   14.23388958  150.97900391    0.92000002    2.75000000
   14.23444462  148.18400574    0.92000002    2.75000000
   14.24027824  148.18400574    0.89999998    2.75000000
   14.24444485  149.11199951    0.89999998    2.75000000
   14.24750042  147.65699768    0.89999998    2.75000000
   14.25083351  142.88000488    0.89999998    2.75000000
   14.25388908  140.77200317    0.89999998    2.75000000
   14.25722218  137.19599915    0.89999998    2.75000000
   14.26055527  141.14900208    0.89999998    2.75000000
   14.26361084  122.14499664    0.92000002    2.75000000
   14.26694393  154.29899597    0.92000002    2.75000000
   14.26777744  151.97999573    0.92000002    2.73000002
   14.27055550  147.59899902    0.92000002    2.75000000
   14.27361107  154.42599487    0.92000002    2.75000000
   14.27694416  142.70799255    0.92000002    2.73000002
   14.28305531  142.70799255    0.94000000    2.73000002
   14.28722286  138.47000122    0.92000002    2.75000000
   14.29055595  134.87699890    0.92000002    2.75000000
   14.29361153  140.85899353    0.92000002    2.75000000
   14.29694462  145.15100098    0.92000002    2.75000000
   14.30000019  141.91099548    0.92000002    2.73000002
   14.30111122  142.23300171    0.92000002    2.73000002
   14.30388927  140.03300476    0.92000002    2.75000000
   14.30694485  140.65499878    0.92000002    2.75000000
   14.31027794  141.08900452    0.92000002    2.75000000
   14.31333351  139.95100403    0.92000002    2.73000002
   14.31666660  139.09599304    0.92000002    2.76999998
   14.31999969  146.88200378    0.89999998    2.76999998
   14.32583332  146.88200378    0.88000000    2.75000000
   14.32999992  136.90600586    0.86000001    2.75000000
   14.33333302  145.39300537    0.86000001    2.75000000
   14.33444405  151.05799866    0.86000001    2.75000000
   14.33694458  136.19500732    0.86000001    2.75000000
   14.34000015  145.59899902    0.86000001    2.75000000
   14.34333324  146.78599548    0.88000000    2.75000000
   14.34638882  141.79699707    0.88000000    2.75000000
   14.34972191  144.11999512    0.88000000    2.75000000
   14.35305595  145.21000671    0.89999998    2.75000000
   14.35611153  145.54100037    0.92000002    2.75000000
   14.35944462  149.35400391    0.92000002    2.75000000
   14.36277771  149.87600708    0.92000002    2.75000000
   14.36861134  149.87600708    0.92000002    2.75000000
   14.37277794  152.30400085    0.95999998    2.75000000
   14.37611103  144.20899963    0.94000000    2.75000000
   14.37944412  146.01699829    0.94000000    2.75000000
   14.38249969  144.40100098    0.94000000    2.75000000
   14.38583279  148.18800354    0.98000002    2.76999998
   14.38888836  150.69400024    1.01999998    2.75000000
   14.39222240  150.27400208    1.01999998    2.75000000
   14.39555550  138.81799316    1.00000000    2.75000000
   14.39861107  142.17100525    1.00000000    2.75000000
   14.40111065  141.66299438    0.94000000    2.75000000
   14.40249920  132.87100220    0.94000000    2.75000000
   14.40555477  136.45300293    0.92000002    2.75000000
   14.41166592  136.45300293    0.88000000    2.75000000
   14.41583252  139.28500366    0.86000001    2.76999998
   14.41888905  143.79600525    0.86000001    2.75000000
   14.42222214  139.83999634    0.86000001    2.76999998
   14.42527771  147.58000183    0.89999998    2.75000000
   14.42861176  141.45799255    0.89999998    2.76999998
   14.43194485  147.55900574    0.89999998    2.75000000
   14.43444443  145.54800415    0.88000000    2.75000000
   14.43555546  139.48899841    0.88000000    2.75000000
   14.43861103  135.80099487    0.83999997    2.75000000
   14.44194412  142.19200134    0.83999997    2.75000000
   14.44499969  130.14700317    0.83999997    2.76999998
   14.44833374  144.39100647    0.81999999    2.75000000
   14.45444393  144.39100647    0.80000001    2.75000000
   14.45861053  148.97399902    0.81999999    2.76999998
   14.46166611  146.12500000    0.81999999    2.75000000
   14.46500015  147.05599976    0.81999999    2.75000000
   14.46777725  144.17700195    0.81999999    2.75000000
   14.46888828  146.29400635    0.81999999    2.75000000
   14.47194386  142.50900269    0.80000001    2.76999998
   14.47527695  133.50999451    0.81999999    2.75000000
   14.47833252  141.49699402    0.81999999    2.75000000
   14.48166656  139.27000427    0.81999999    2.75000000
   14.48500061  143.10699463    0.81999999    2.76999998
   14.48805618  141.94900513    0.81999999    2.76999998
   14.49138927  142.58500671    0.81999999    2.76999998
   14.49722290  142.58500671    0.83999997    2.75000000
   14.50138855  156.47599792    0.86000001    2.76999998
   14.50472260  152.14500427    0.88000000    2.75000000
   14.50777817  152.10699463    0.88000000    2.75000000
   14.51111126  141.40699768    0.88000000    2.76999998
   14.51444435  147.31900024    0.88000000    2.76999998
   14.51749992  147.19999695    0.88000000    2.76999998
   14.52083302  149.48300171    0.89999998    2.76999998
   14.52388859  148.87300110    0.89999998    2.76999998
   14.52722168  122.96099854    0.88000000    2.76999998
   14.53055573  148.22399902    0.88000000    2.75000000
   14.53361130  146.28799438    0.86000001    2.76999998
   14.53444481  147.39900208    0.86000001    2.75000000
   14.54000092  147.39900208    0.86000001    2.76999998
   14.54416752  152.74499512    0.86000001    2.75000000
   14.54750061  147.52400208    0.86000001    2.76999998
   14.55083370  147.63499451    0.83999997    2.75000000
   14.55388927  141.89999390    0.83999997    2.76999998
   14.55722237  144.61300659    0.83999997    2.76999998
   14.56027794  152.02999878    0.83999997    2.76999998
   14.56361103  147.93899536    0.83999997    2.76999998
   14.56694412  144.18400574    0.83999997    2.75000000
   14.56777763  138.24299622    0.83999997    2.76999998
   14.57055569  151.77099609    0.81999999    2.76999998
   14.57361126  133.83700562    0.80000001    2.76999998
   14.57694435  148.81599426    0.80000001    2.75000000
   14.58305550  148.81599426    0.79000002    2.76999998
   14.58722210  145.89300537    0.79000002    2.76999998
   14.59027767  145.43099976    0.79000002    2.76999998
   14.59361076  146.91700745    0.76999998    2.76999998
   14.59666634  159.37800598    0.76999998    2.76999998
   14.60000038  162.17300415    0.75000000    2.75000000
   14.60111141  154.88699341    0.75000000    2.75000000
   14.60388947  149.77699280    0.75000000    2.75000000
   14.60694504  149.94700623    0.76999998    2.76999998
   14.61027813  150.03399658    0.76999998    2.76999998
   14.61361122  151.11099243    0.76999998    2.76999998
   14.61666679  145.91700745    0.76999998    2.76999998
   14.61999989  148.58599854    0.79000002    2.76999998
   14.62583351  148.58599854    0.79000002    2.76999998
   14.63000011  145.28399658    0.79000002    2.76999998
   14.63305569  144.57800293    0.80000001    2.76999998
   14.63444424  149.31599426    0.80000001    2.76999998
   14.63694477  148.79200745    0.81999999    2.76999998
   14.64000034  138.62699890    0.81999999    2.78999996
   14.64333344  148.55900574    0.81999999    2.78999996
   14.64666653  142.85699463    0.81999999    2.78999996
   14.64972210  141.18699646    0.81999999    2.76999998
   14.65305519  144.38299561    0.80000001    2.76999998
   14.65611076  139.87399292    0.80000001    2.76999998
   14.65944386  137.06799316    0.80000001    2.78999996
   14.66277695  147.45599365    0.80000001    2.76999998
   14.66861153  147.45599365    0.79000002    2.76999998
   14.67277813  150.08500671    0.76999998    2.76999998
   14.67611122  138.41400146    0.76999998    2.76999998
   14.67916679  159.48800659    0.76999998    2.78999996
   14.68249989  156.76699829    0.75000000    2.76999998
   14.68583298  161.58000183    0.76999998    2.78999996
   14.68888855  154.16400146    0.76999998    2.76999998
   14.69222260  158.20500183    0.76999998    2.76999998
   14.69527817  153.91900635    0.79000002    2.75000000
   14.69861126  160.96699524    0.83999997    2.76999998
   14.70111084  153.40400696    0.86000001    2.76999998
   14.70222187  156.52600098    0.86000001    2.76999998
   14.70527744  154.21699524    1.23000002    2.75000000
   14.71138859  154.21699524    1.34000003    2.75000000
   14.71555519  145.26499939    1.55999994    2.75000000
   14.71888828  158.66200256    1.76999998    2.75000000
   14.72222137  141.58999634    2.40000010    2.76999998
   14.72527695  144.16400146    2.44000006    2.76999998
   14.72861099  138.58799744    1.94000006    2.75000000
   14.73166656  152.52400208    1.51999998    2.76999998
   14.73444462  165.46899414    1.38000000    2.76999998
   14.73555565  162.63200378    1.34000003    2.76999998
   14.73861122  151.12100220    1.26999998    2.76999998
   14.74194431  168.73300171    1.26999998    2.76999998
   14.74527836  161.65899658    1.09000003    2.76999998
   14.74833393  143.30400085    1.00000000    2.76999998
   14.75444412  143.30400085    0.95999998    2.78999996
   14.75861073  167.75000000    0.94000000    2.78999996
   14.76166630  168.54600525    0.88000000    2.76999998
   14.76500034  161.13900757    0.88000000    2.76999998
   14.76777744  165.86199951    0.88000000    2.78999996
   14.76861095  167.99200439    0.88000000    2.76999998
   14.77166653  149.17599487    0.88000000    2.76999998
   14.77499962  156.31700134    0.88000000    2.76999998
   14.77833271  167.32600403    0.88000000    2.76999998
   14.78138828  172.92599487    0.83999997    2.76999998
   14.78472233  166.88900757    0.83999997    2.76999998
   14.78777790  151.98199463    0.83999997    2.76999998
   14.79111195  183.44400024    0.86000001    2.76999998
   14.79722309  183.44400024    0.86000001    2.78999996
   14.80138874  164.11399841    0.83999997    2.76999998
   14.80444431  171.32000732    0.83999997    2.76999998
   14.80777836  162.32499695    0.81999999    2.76999998
   14.81111145  156.97399902    0.81999999    2.78999996
   14.81416702  159.38000488    0.83999997    2.76999998
   14.81750011  162.22599792    0.83999997    2.78999996
   14.82083321  172.03199768    0.83999997    2.76999998
   14.82388878  175.79800415    0.83999997    2.76999998
   14.82722187  173.01300049    0.83999997    2.76999998
   14.83027744  175.42700195    0.80000001    2.76999998
   14.83361053  167.55400085    0.80000001    2.78999996
   14.83444405  164.39300537    0.80000001    2.78999996
   14.85527802  164.39300537    0.79000002    2.76999998
   14.85944462  190.58200073    0.79000002    2.76999998
   14.86250019  179.54299927    0.79000002    2.76999998
   14.86583328  181.42799377    0.75000000    2.76999998
   14.86777782  183.93600464    0.75000000    2.78999996
   14.86944485  176.94799805    0.75000000    2.78999996
   14.87277794  172.18899536    0.76999998    2.76999998
   14.87583351  179.27400208    0.75000000    2.76999998
   14.87916660  178.19500732    0.75000000    2.76999998
   14.88222218  175.51199341    0.75000000    2.76999998
   14.88555527  171.36700439    0.76999998    2.78999996
   14.88888836  161.26899719    0.79000002    2.76999998
   14.89194393  178.65499878    0.79000002    2.76999998
   14.89805508  178.65499878    0.76999998    2.78999996
   14.90194416  159.34899902    0.76999998    2.76999998
   14.90527725  187.03500366    0.76999998    2.78999996
   14.90861034  167.06700134    0.76999998    2.76999998
   14.91166592  176.46400452    0.76999998    2.78999996
   14.91499996  166.40100098    0.76999998    2.78999996
   14.91833401  168.67599487    0.79000002    2.76999998
   14.92138958  179.28199768    0.76999998    2.78999996
   14.92472267  172.13699341    0.76999998    2.76999998
   14.92777824  157.28999329    0.76999998    2.78999996
   14.93111134  181.37899780    0.76999998    2.76999998
   14.93444443  185.92700195    0.76999998    2.76999998
   14.93500042  171.39300537    0.76999998    2.78999996
   14.94083309  171.39300537    0.75000000    2.76999998
   14.94499969  166.04499817    0.76999998    2.76999998
   14.94805527  164.77499390    0.76999998    2.76999998
   14.95138836  171.75000000    0.79000002    2.76999998
   14.95472240  152.18499756    0.76999998    2.78999996
   14.95777798  159.91900635    0.79000002    2.76999998
   14.96111107  171.97099304    0.79000002    2.76999998
   14.96416664  165.08299255    0.79000002    2.78999996
   14.96749973  147.55400085    0.79000002    2.76999998
   14.96833324  173.30499268    0.79000002    2.76999998
   14.97111034  180.93299866    0.79000002    2.76999998
   14.97444439  162.80299377    0.79000002    2.78999996
   14.97777748  158.01699829    0.79000002    2.76999998
   14.98361111  158.01699829    0.79000002    2.78999996
   14.98777771  147.62100220    0.79000002    2.78999996
   14.99111176  158.06399536    0.76999998    2.78999996
   14.99416733  140.61199951    0.76999998    2.76999998
   14.99750042  154.91499329    0.75000000    2.78999996
   15.00055599  162.02400208    0.75000000    2.78999996
   15.00166702  154.80900574    0.75000000    2.78999996
   15.00416660  149.02299500    0.75000000    2.78999996
   15.00749969  167.68099976    0.75000000    2.76999998
   15.01083374  160.55099487    0.75000000    2.78999996
   15.01388931  164.65299988    0.75000000    2.78999996
   15.01722240  137.58299255    0.75000000    2.78999996
   15.02055550  167.05900574    0.75000000    2.78999996
   15.02638817  167.05900574    0.75000000    2.78999996
   15.03055573  141.84199524    0.75000000    2.78999996
   15.03388977  159.03399658    0.75000000    2.78999996
   15.03500080  155.66700745    0.75000000    2.78999996
   15.03750038  148.53100586    0.75000000    2.76999998
   15.04083347  166.65699768    0.75000000    2.78999996
   15.04416752  152.77200317    0.75000000    2.78999996
   15.04722309  160.53399658    0.75000000    2.78999996
   15.05055618  155.46200562    0.75000000    2.78999996
   15.05361176  164.46600342    0.73000002    2.78999996
   15.05694485  166.23100281    0.73000002    2.78999996
   15.06027794  171.38099670    0.73000002    2.78999996
   15.06333351  157.46299744    0.73000002    2.78999996
   15.06944466  157.46299744    0.70999998    2.78999996
   15.07333374  155.69099426    0.70999998    2.78999996
   15.07666683  158.11799622    0.70999998    2.78999996
   15.07999992  162.31100464    0.70999998    2.78999996
   15.08305550  161.92199707    0.70999998    2.78999996
   15.08638859  157.25599670    0.70999998    2.78999996
   15.08972168  166.03300476    0.73000002    2.78999996
   15.09277725  155.12800598    0.73000002    2.78999996
   15.09611034  162.81500244    0.73000002    2.78999996
   15.09916592  157.50500488    0.73000002    2.76999998
   15.10166740  157.71600342    0.73000002    2.78999996
   15.10277843  165.87800598    0.73000002    2.78999996
   15.10611153  170.89799500    0.70999998    2.78999996
   15.11222267  170.89799500    0.70999998    2.78999996
   15.11638927  159.51699829    0.70999998    2.78999996
   15.11944485  161.07800293    0.73000002    2.78999996
   15.12277794  155.52900696    0.73000002    2.78999996
   15.12611103  169.94900513    0.73000002    2.78999996
   15.12916660  172.47200012    0.73000002    2.78999996
   15.13249969  154.61500549    0.73000002    2.80999994
   15.13500023  169.39300537    0.73000002    2.78999996
   15.13611126  157.70599365    0.73000002    2.78999996
   15.13944435  149.90800476    0.70999998    2.78999996
   15.14277744  171.22700500    0.70999998    2.78999996
   15.14583302  159.73300171    0.70999998    2.78999996
   15.14916611  171.73399353    0.70999998    2.78999996
   15.15499973  171.73399353    0.73000002    2.78999996
   15.15916634  137.31900024    0.73000002    2.78999996
   15.16249943  173.21899414    0.73000002    2.78999996
   15.16555500  168.51600647    0.73000002    2.80999994
   15.16833401  173.53700256    0.73000002    2.78999996
   15.16916656  167.79600525    0.73000002    2.78999996
   15.17250061  168.52600098    0.73000002    2.80999994
   15.17583370  156.35600281    0.73000002    2.80999994
   15.17888927  170.68400574    0.75000000    2.78999996
   15.18222237  171.03700256    0.75000000    2.78999996
   15.18527794  161.85499573    0.75000000    2.78999996
   15.18861103  154.80000305    0.75000000    2.78999996
   15.19194412  167.02000427    0.75000000    2.78999996
   15.19777775  167.02000427    0.75000000    2.78999996
   15.20194435  179.42500305    0.75000000    2.78999996
   15.20527744  178.74800110    0.73000002    2.78999996
   15.20833302  160.24800110    0.73000002    2.80999994
   15.21166611  152.75999451    0.70999998    2.78999996
   15.21500015  169.59800720    0.70999998    2.78999996
   15.21805477  167.75199890    0.70999998    2.80999994
   15.22138882  155.59599304    0.70999998    2.78999996
   15.22472191  165.51699829    0.70999998    2.78999996
   15.22777748  171.04800415    0.70999998    2.78999996
   15.23111057  169.58999634    0.70999998    2.78999996
   15.23416710  168.48399353    0.70999998    2.78999996
   15.23500061  168.36999512    0.70999998    2.78999996
   15.24083328  168.36999512    0.70999998    2.80999994
   15.24472237  163.42599487    0.70999998    2.78999996
   15.24805546  182.96899414    0.70999998    2.78999996
   15.25138855  160.15100098    0.70999998    2.78999996
   15.25444412  165.44900513    0.70999998    2.78999996
   15.25777817  164.29699707    0.70999998    2.78999996
   15.26111126  166.39100647    0.70999998    2.78999996
   15.26416683  156.68200684    0.69000000    2.78999996
   15.26749992  164.98399353    0.69000000    2.78999996
   15.26833344  163.46699524    0.69000000    2.80999994
   15.27111053  185.10600281    0.70999998    2.80999994
   15.27416611  162.09100342    0.69000000    2.78999996
   15.27750015  153.93699646    0.69000000    2.80999994
   15.28361130  153.93699646    0.69000000    2.78999996
   15.28777790  169.77200317    0.67000002    2.78999996
   15.29111195  171.07000732    0.69000000    2.78999996
   15.29416752  169.30099487    0.67000002    2.78999996
   15.29750061  140.19200134    0.67000002    2.78999996
   15.30083370  157.55799866    0.67000002    2.78999996
   15.30166721  168.00799561    0.67000002    2.78999996
   15.30416679  151.86199951    0.67000002    2.80999994
   15.30749989  170.23100281    0.67000002    2.80999994
   15.31083393  166.03999329    0.67000002    2.78999996
   15.31388950  190.70399475    0.69000000    2.78999996
   15.31722260  165.58399963    0.69000000    2.78999996
   15.32055569  159.82600403    0.69000000    2.78999996
   15.32638836  159.82600403    0.69000000    2.78999996
   15.33055592  155.22200012    0.69000000    2.78999996
   15.33388901  161.09399414    0.67000002    2.78999996
   15.33500004  163.52200317    0.67000002    2.78999996
   15.33722210  166.71600342    0.67000002    2.78999996
   15.34055519  165.60400391    0.67000002    2.80999994
   15.34388828  175.58299255    0.67000002    2.78999996
   15.34694386  179.76600647    0.67000002    2.78999996
   15.35027790  176.84599304    0.67000002    2.80999994
   15.35361195  172.40199280    0.69000000    2.78999996
   15.35666752  169.93800354    0.69000000    2.78999996
   15.36000061  166.42399597    0.70999998    2.78999996
   15.36333370  164.49099731    0.70999998    2.78999996
   15.36916637  164.49099731    0.70999998    2.78999996
   15.37333393  152.23500061    0.69000000    2.78999996
   15.37666702  165.01899719    0.70999998    2.78999996
   15.37972260  148.92300415    0.69000000    2.78999996
   15.38305569  165.72000122    0.69000000    2.78999996
   15.38638878  164.45599365    0.69000000    2.78999996
   15.38944435  160.74400330    0.70999998    2.78999996
   15.39277744  162.58299255    0.69000000    2.78999996
   15.39611053  160.41299438    0.69000000    2.78999996
   15.39916611  151.64100647    0.69000000    2.76999998
   15.40166664  156.07200623    0.69000000    2.78999996
   15.40305519  162.88299561    0.69000000    2.78999996
   15.40611076  162.27000427    0.69000000    2.78999996
   15.41194439  162.27000427    0.69000000    2.78999996
   15.41611099  153.10499573    0.69000000    2.78999996
   15.41944504  170.00399780    0.69000000    2.78999996
   15.42277813  159.47700500    0.69000000    2.78999996
   15.42583370  159.12399292    0.69000000    2.78999996
   15.42916679  151.19799805    0.69000000    2.78999996
   15.43222237  161.21299744    0.69000000    2.78999996
   15.43500042  158.35099792    0.69000000    2.80999994
   15.43583298  162.66200256    0.69000000    2.78999996
   15.43916702  160.78999329    0.69000000    2.80999994
   15.44250011  166.34399414    0.69000000    2.78999996
   15.44583321  175.20599365    0.69000000    2.80999994
   15.44888878  171.67199707    0.69000000    2.80999994
   15.45499992  171.67199707    0.69000000    2.78999996
   15.45916653  164.66499329    0.69000000    2.78999996
   15.46222210  168.24600220    0.67000002    2.78999996
   15.46555519  163.23399353    0.67000002    2.78999996
   15.46833324  156.58299255    0.67000002    2.78999996
   15.46888828  156.10099792    0.67000002    2.78999996
   15.47222137  160.52000427    0.67000002    2.78999996
   15.47555542  171.97300720    0.69000000    2.78999996
   15.47861099  154.62899780    0.69000000    2.78999996
   15.48194408  163.45199585    0.69000000    2.78999996
   15.48527813  169.82600403    0.69000000    2.78999996
   15.48833370  163.00700378    0.69000000    2.78999996
   15.49166679  161.04899597    0.69000000    2.80999994
   15.49777794  161.04899597    0.69000000    2.78999996
   15.50194454  163.90199280    0.69000000    2.78999996
   15.50500011  162.56799316    0.69000000    2.78999996
   15.50833321  153.18699646    0.69000000    2.78999996
   15.51166630  158.02699280    0.69000000    2.80999994
   15.51472187  153.69299316    0.69000000    2.82999992
   15.51805496  152.35000610    0.70999998    2.78999996
   15.52138901  160.20700073    0.67000002    2.80999994
   15.52444458  156.40600586    0.67000002    2.78999996
   15.52777767  159.80099487    0.69000000    2.80999994
   15.53083324  160.24600220    0.67000002    2.80999994
   15.53416729  155.72700500    0.67000002    2.78999996
   15.53500080  162.82000732    0.67000002    2.80999994
   15.54055595  162.82000732    0.69000000    2.78999996
   15.54472256  159.49600220    0.69000000    2.80999994
   15.54805565  160.99600220    0.70999998    2.80999994
   15.55111122  159.45100403    0.70999998    2.80999994
   15.55444431  142.15699768    0.70999998    2.78999996
   15.55777836  155.54800415    0.70999998    2.78999996
   15.56083393  156.30700684    0.69000000    2.78999996
   15.56416702  162.98899841    0.70999998    2.78999996
   15.56722260  156.38900757    0.70999998    2.80999994
   15.56833363  156.98100281    0.70999998    2.80999994
   15.57111073  151.11300659    0.69000000    2.78999996
   15.57416630  158.03599548    0.69000000    2.80999994
   15.57750034  154.28999329    0.69000000    2.80999994
   15.58333302  154.28999329    0.69000000    2.78999996
   15.58749962  155.27799988    0.69000000    2.78999996
   15.59083271  168.40699768    0.69000000    2.78999996
   15.59416676  164.00799561    0.69000000    2.80999994
   15.59722233  153.68400574    0.69000000    2.80999994
   15.60055637  146.66900635    0.70999998    2.78999996
   15.60166740  164.54899597    0.70999998    2.78999996
   15.60416698  164.61300659    0.70999998    2.78999996
   15.60722256  160.38699341    0.70999998    2.78999996
   15.61055565  157.37100220    0.70999998    2.78999996
   15.61388969  157.21800232    0.70999998    2.80999994
   15.61694431  158.75000000    0.70999998    2.80999994
   15.62027836  157.25500488    0.73000002    2.80999994
   15.62638855  157.25500488    0.73000002    2.78999996
   15.63055611  165.16799927    0.70999998    2.78999996
   15.63361073  159.56500244    0.70999998    2.78999996
   15.63500023  157.30499268    0.70999998    2.78999996
   15.63749981  156.02499390    0.70999998    2.78999996
   15.64055538  162.96899414    0.69000000    2.80999994
   15.64388847  172.61399841    0.69000000    2.78999996
   15.64694405  164.20300293    0.69000000    2.80999994
   15.65027714  161.32499695    0.69000000    2.80999994
   15.65361118  157.86799622    0.69000000    2.80999994
   15.65666676  168.11799622    0.69000000    2.78999996
   15.65999985  161.29100037    0.69000000    2.78999996
   15.66333294  144.16400146    0.69000000    2.80999994
   15.66916656  144.16400146    0.69000000    2.78999996
   15.67333412  155.23399353    0.69000000    2.80999994
   15.67638874  167.06500244    0.69000000    2.78999996
   15.67972279  160.75500488    0.69000000    2.80999994
   15.68305588  161.77200317    0.69000000    2.80999994
   15.68611145  165.96499634    0.70999998    2.80999994
   15.68944454  167.09700012    0.70999998    2.80999994
   15.69277763  162.74499512    0.70999998    2.80999994
   15.69583321  162.99099731    0.70999998    2.78999996
   15.69916630  165.71499634    0.70999998    2.80999994
   15.70166683  160.96600342    0.69000000    2.80999994
   15.70277786  153.64399719    0.70999998    2.80999994
   15.70583344  154.15199280    0.70999998    2.80999994
   15.71194458  154.15199280    0.69000000    2.80999994
   15.71611118  161.16099548    0.69000000    2.80999994
   15.71944427  173.25100708    0.69000000    2.80999994
   15.72249985  157.13699341    0.69000000    2.80999994
   15.72583294  161.46299744    0.69000000    2.80999994
   15.72916603  158.12899780    0.69000000    2.78999996
   15.73222160  158.52999878    0.69000000    2.78999996
   15.73500061  156.63499451    0.69000000    2.80999994
   15.73611164  165.42799377    0.69000000    2.80999994
   15.73916721  153.36799622    0.70999998    2.78999996
   15.74250031  156.80000305    0.70999998    2.80999994
   15.74583340  156.36700439    0.70999998    2.78999996
   15.74888897  144.60000610    0.70999998    2.80999994
   15.75472260  144.60000610    0.69000000    2.80999994
   15.75888920  146.74699402    0.67000002    2.80999994
   15.76222229  175.80999756    0.67000002    2.80999994
   15.76555538  170.09899902    0.67000002    2.80999994
   15.76833344  162.27099609    0.67000002    2.78999996
   15.76916599  172.33000183    0.67000002    2.78999996
   15.77222157  161.83900452    0.69000000    2.78999996
   15.77555561  168.88900757    0.69000000    2.80999994
   15.77888870  173.47200012    0.69000000    2.80999994
   15.78194427  172.10600281    0.69000000    2.80999994
   15.78527832  169.23399353    0.70999998    2.80999994
   15.78861141  171.99000549    0.70999998    2.80999994
   15.79166698  162.35499573    0.73000002    2.80999994
   15.79777813  162.35499573    0.70999998    2.78999996
   15.80194473  177.09800720    0.70999998    2.78999996
   15.80500031  179.20100403    0.73000002    2.78999996
   15.80833340  163.27299500    0.73000002    2.80999994
   15.81138897  176.31300354    0.73000002    2.78999996
   15.81472206  163.90499878    0.70999998    2.78999996
   15.81805515  169.81500244    0.70999998    2.80999994
   15.82111073  145.27200317    0.70999998    2.80999994
   15.82444477  185.04600525    0.70999998    2.78999996
   15.82777786  176.99200439    0.70999998    2.80999994
   15.83083344  177.41700745    0.70999998    2.78999996
   15.83416653  169.22900391    0.70999998    2.78999996
   15.83500004  184.26699829    0.70999998    2.80999994
   15.84055519  184.26699829    0.70999998    2.80999994
   15.84472179  181.41200256    0.70999998    2.80999994
   15.84777737  163.94400024    0.70999998    2.80999994
   15.85111141  176.96400452    0.70999998    2.80999994
   15.86888885  155.40299988    0.70999998    2.80999994
   15.87111092  160.67799377    0.73000002    2.80999994
   15.87444496  167.12399292    0.73000002    2.78999996
   15.87750053  167.26899719    0.70999998    2.80999994
   15.88361073  167.26899719    0.70999998    2.80999994
   15.88777733  178.74800110    0.70999998    2.80999994
   15.89083290  176.04899597    0.70999998    2.80999994
   15.89416695  176.03100586    0.70999998    2.80999994
   15.89750004  165.78799438    0.70999998    2.80999994
   15.90055561  172.86399841    0.69000000    2.80999994
   15.90194416  172.15400696    0.69000000    2.80999994
   15.90444374  164.87600708    0.69000000    2.80999994
   15.90749931  168.48199463    0.67000002    2.80999994
   15.91083336  164.62600708    0.67000002    2.80999994
   15.91416645  173.14900208    0.64999998    2.80999994
   15.91722298  175.12600708    0.64999998    2.80999994
   15.92055607  174.02200317    0.64999998    2.82999992
   15.92638874  174.02200317    0.64999998    2.80999994
   15.93055630  176.60600281    0.64999998    2.78999996
   15.93388939  168.00700378    0.64999998    2.78999996
   15.93527794  165.99899292    0.64999998    2.78999996
   15.93750000  165.51400757    0.64999998    2.80999994
   15.94055557  171.24400330    0.67000002    2.80999994
   15.94388866  167.38200378    0.67000002    2.80999994
   15.94722271  156.05999756    0.67000002    2.78999996
   15.95055580  175.75300598    0.69000000    2.80999994
   15.95361137  160.94799805    0.69000000    2.80999994
   15.95694447  160.56399536    0.69000000    2.80999994
   15.96027756  161.52200317    0.67000002    2.80999994
   15.96333313  157.00399780    0.67000002    2.80999994
   15.96944427  157.00399780    0.69000000    2.78999996
   15.97361088  166.23800659    0.69000000    2.78999996
   15.97666645  160.47099304    0.69000000    2.80999994
   15.97999954  150.74099731    0.69000000    2.80999994
   15.98333359  154.59800720    0.69000000    2.80999994
   15.98638916  152.16499329    0.70999998    2.80999994
   15.98972225  152.57499695    0.70999998    2.80999994
   15.99305534  150.16799927    0.70999998    2.80999994
   15.99611092  167.34399414    0.69000000    2.80999994
   15.99944496  158.18099976    0.69000000    2.80999994
   16.00194359  153.00000000    0.67000002    2.80999994
   16.00305557  147.47900391    0.67000002    2.80999994
   16.00611115  155.82400513    0.67000002    2.80999994
   16.01222229  155.82400513    0.69000000    2.82999992
   16.01611137  164.20700073    0.69000000    2.78999996
   16.01944351  160.18400574    0.69000000    2.80999994
   16.02277756  157.95599365    0.67000002    2.80999994
   16.02583313  160.78300476    0.69000000    2.80999994
   16.02916718  161.97500610    0.69000000    2.78999996
   16.03249931  164.09199524    0.69000000    2.80999994
   16.03527641  166.65699768    0.70999998    2.78999996
   16.03610992  158.98199463    0.70999998    2.80999994
   16.03944397  160.29200745    0.70999998    2.80999994
   16.04249954  159.38299561    0.70999998    2.80999994
   16.04583359  157.30400085    0.70999998    2.80999994
   16.04916573  168.18699646    0.70999998    2.80999994
   16.05499840  168.18699646    0.70999998    2.78999996
   16.05916595  155.43200684    0.70999998    2.82999992
   16.06222153  145.58900452    0.70999998    2.80999994
   16.06555557  161.34599304    0.70999998    2.80999994
   16.06861115  141.78700256    0.69000000    2.80999994
   16.06916809  140.27099609    0.69000000    2.80999994
   16.07222366  155.47599792    0.69000000    2.80999994
   16.07555580  158.16700745    0.69000000    2.80999994
   16.07888985  160.97000122    0.69000000    2.80999994
   16.08194542  156.20199585    0.69000000    2.78999996
   16.08527756  148.78300476    0.69000000    2.80999994
   16.08861160  143.37300110    0.69000000    2.80999994
   16.09166718  152.63499451    0.69000000    2.80999994
   16.09777832  152.63499451    0.69000000    2.82999992
   16.10194397  159.86199951    0.69000000    2.80999994
   16.10250092  157.54100037    0.69000000    2.80999994
   16.10555649  160.30299377    0.69000000    2.80999994
   16.10888863  153.20100403    0.69000000    2.82999992
   16.11222267  161.53599548    0.69000000    2.80999994
   16.11527824  149.61599731    0.69000000    2.80999994
   16.11861038  160.46899414    0.69000000    2.80999994
   16.12194443  154.13200378    0.70999998    2.82999992
   16.12500000  158.52999878    0.70999998    2.80999994
   16.12833405  145.79600525    0.69000000    2.80999994
   16.13166618  151.50500488    0.69000000    2.80999994
   16.13472176  156.29600525    0.69000000    2.80999994
   16.13527679  148.97599792    0.69000000    2.78999996
   16.14055634  148.97599792    0.69000000    2.80999994
   16.14472198  149.37300110    0.69000000    2.80999994
   16.14805603  153.51300049    0.69000000    2.80999994
   16.15111160  154.28999329    0.69000000    2.80999994
   16.15444374  152.75399780    0.70999998    2.80999994
   16.15777779  153.54800415    0.70999998    2.80999994
   16.16083336  146.77200317    0.73000002    2.80999994
   16.16416550  154.23399353    0.70999998    2.80999994
   16.16749954  156.37500000    0.69000000    2.80999994
   16.16860962  163.82099915    0.69000000    2.80999994
   16.17111015  150.21899414    0.69000000    2.82999992
   16.17444420  154.22599792    0.69000000    2.80999994
   16.17749977  154.23899841    0.69000000    2.80999994
   16.18361092  154.23899841    0.69000000    2.78999996
   16.18750000  152.61000061    0.69000000    2.80999994
   16.19083214  140.75300598    0.69000000    2.82999992
   16.19416618  154.30099487    0.69000000    2.80999994
   16.19722176  146.40400696    0.69000000    2.82999992
   16.20055580  146.65199280    0.69000000    2.82999992
   16.20194435  148.64900208    0.69000000    2.80999994
   16.20416832  154.67399597    0.69000000    2.78999996
   16.20750046  148.66900635    0.69000000    2.80999994
   16.21055603  154.23300171    0.69000000    2.80999994
   16.21389008  149.55799866    0.69000000    2.78999996
   16.21694565  151.42999268    0.67000002    2.80999994
   16.22027779  146.30599976    0.67000002    2.80999994
   16.22638893  146.30599976    0.67000002    2.78999996
   16.23055649  152.29699707    0.64999998    2.80999994
   16.23361206  146.53100586    0.64999998    2.80999994
   16.23527718  152.91299438    0.64999998    2.80999994
   16.23722267  156.79100037    0.67000002    2.80999994
   16.24055672  139.26499939    0.67000002    2.82999992
   16.24361229  139.23399353    0.69000000    2.78999996
   16.24694443  151.81399536    0.69000000    2.80999994
   16.25000000  155.66499329    0.69000000    2.80999994
   16.25333405  145.80499268    0.69000000    2.80999994
   16.25666618  147.87800598    0.69000000    2.80999994
   16.25972176  153.23199463    0.69000000    2.80999994
   16.26305580  157.90699768    0.70999998    2.82999992
   16.26916695  157.90699768    0.73000002    2.80999994
   16.27333260  145.55799866    0.73000002    2.82999992
   16.27666664  151.66299438    0.70999998    2.78999996
   16.27972221  151.44500732    0.70999998    2.78999996
   16.28305435  151.52299500    0.70999998    2.78999996
   16.28610992  150.97099304    0.73000002    2.80999994
   16.28944397  149.44400024    0.75000000    2.80999994
   16.29277802  149.22300720    0.76999998    2.80999994
   16.29611015  148.08900452    0.75000000    2.82999992
   16.29916573  157.80799866    0.75000000    2.82999992
   16.30194283  153.94700623    0.76999998    2.80999994
   16.30277634  150.50700378    0.76999998    2.80999994
   16.30611038  153.66999817    0.76999998    2.82999992
   16.31194305  153.66999817    0.76999998    2.80999994
   16.31611061  151.24499512    0.79000002    2.80999994
   16.31944466  144.50199890    0.79000002    2.80999994
   16.32250023  142.13200378    0.80000001    2.80999994
   16.32583427  152.97500610    0.83999997    2.80999994
   16.32916832  157.50799561    0.89999998    2.80999994
   16.33222389  157.17199707    0.94000000    2.80999994
   16.33527756  147.37399292    1.01999998    2.80999994
   16.33583450  157.09100342    1.01999998    2.80999994
   16.33916664  149.70799255    1.01999998    2.80999994
   16.34222221  142.33200073    0.83999997    2.80999994
   16.34555626  148.63200378    0.80000001    2.80999994
   16.34861183  149.91299438    0.76999998    2.80999994
   16.35499954  149.91299438    0.76999998    2.80999994
   16.35916710  147.74200439    0.69000000    2.80999994
   16.36222267  142.85499573    0.69000000    2.82999992
   16.36555672  152.23800659    0.67000002    2.80999994
   16.36861038  152.97399902    0.67000002    2.82999992
   16.36916733  149.45300293    0.67000002    2.82999992
   16.37249947  163.52299500    0.64999998    2.82999992
   16.37555504  149.45100403    0.64999998    2.82999992
   16.37888908  150.63200378    0.64999998    2.78999996
   16.38194466  154.38200378    0.64999998    2.80999994
   16.38527679  145.23100281    0.63000000    2.82999992
   16.38861084  146.48800659    0.63000000    2.82999992
   16.39166641  150.52799988    0.63000000    2.82999992
   16.39777756  150.52799988    0.63000000    2.80999994
   16.40194321  147.68200684    0.63000000    2.80999994
   16.40250015  143.33099365    0.63000000    2.80999994
   16.40555573  149.97200012    0.64999998    2.82999992
   16.40888786  156.18099976    0.64999998    2.82999992
   16.41222191  150.03500366    0.64999998    2.82999992
   16.41527748  147.39999390    0.64999998    2.82999992
   16.41860962  149.98500061    0.64999998    2.82999992
   16.42166519  151.31199646    0.67000002    2.80999994
   16.42499924  142.18400574    0.69000000    2.80999994
   16.42833328  137.98699951    0.69000000    2.80999994
   16.43138885  147.20899963    0.76999998    2.80999994
   16.43472099  139.72999573    0.76999998    2.80999994
   16.43583298  146.52799988    0.76999998    2.80999994
   16.44055557  146.52799988    0.81999999    2.78999996
   16.44472122  159.21800232    0.73000002    2.82999992
   16.44805527  152.49800110    0.98000002    2.80999994
   16.45111275  154.78199768    0.80000001    2.80999994
   16.45444489  145.00900269    0.73000002    2.80999994
   16.45777893  150.13200378    0.69000000    2.80999994
   16.46083450  144.07200623    0.67000002    2.80999994
   16.46416664  147.52699280    0.67000002    2.80999994
   16.46750069  144.98599243    0.67000002    2.80999994
   16.46916771  146.85699463    0.67000002    2.82999992
   16.47083473  151.39100647    0.67000002    2.80999994
   16.47416687  149.71600342    0.69000000    2.80999994
   16.47750092  144.01699829    0.69000000    2.82999992
   16.48333359  144.01699829    0.69000000    2.82999992
   16.48750114  140.55999756    0.64999998    2.82999992
   16.49083328  155.73599243    0.63000000    2.80999994
   16.49416733  150.66799927    0.63000000    2.82999992
   16.49722290  148.39599609    0.63000000    2.82999992
   16.50055504  141.94799805    0.61000001    2.80999994
   16.50250053  146.95700073    0.63000000    2.80999994
   16.50416756  156.71099854    0.63000000    2.80999994
   16.50749969  154.03399658    0.58999997    2.80999994
   16.51083374  146.22000122    0.58999997    2.80999994
   16.51388931  151.54100037    0.58999997    2.82999992
   16.51722145  154.09700012    0.56999999    2.80999994
   16.52027702  146.39100647    0.58999997    2.82999992
   16.52638817  146.39100647    0.56999999    2.82999992
   16.53027725  152.77000427    0.56999999    2.82999992
   16.53361130  153.29499817    0.56999999    2.82999992
   16.53583336  146.13299561    0.56999999    2.82999992
   16.53722191  146.30499268    0.58999997    2.82999992
   16.54055595  151.47300720    0.58999997    2.82999992
   16.54388809  159.00100708    0.58999997    2.80999994
   16.54694366  159.99800110    0.58999997    2.80999994
   16.55027771  158.97399902    0.58999997    2.80999994
   16.55333328  157.03500366    0.58999997    2.80999994
   16.55666542  156.57099915    0.58999997    2.80999994
   16.55999947  145.38699341    0.58999997    2.82999992
   16.56305504  155.81599426    0.61000001    2.80999994
   16.56916809  155.81599426    0.61000001    2.82999992
   16.57333374  156.76199341    0.61000001    2.82999992
   16.57638931  150.92399597    0.61000001    2.82999992
   16.57972336  156.10499573    0.58999997    2.82999992
   16.58305550  158.90199280    0.61000001    2.80999994
   16.58611107  149.58599854    0.61000001    2.80999994
   16.58944511  165.78100586    0.58999997    2.80999994
   16.59250069  144.53999329    0.58999997    2.80999994
   16.59583473  142.00799561    0.58999997    2.82999992
   16.59916687  152.69400024    0.61000001    2.82999992
   16.60222244  155.95500183    0.61000001    2.82999992
   16.60277748  160.38099670    0.61000001    2.80999994
   16.60611153  164.69500732    0.58999997    2.80999994
   16.61194420  164.69500732    0.61000001    2.80999994
   16.61611176  141.24299622    0.61000001    2.82999992
   16.61944389  154.82000732    0.63000000    2.82999992
   16.62249947  161.87399292    0.63000000    2.80999994
   16.62583351  156.67300415    0.63000000    2.80999994
   16.62888908  154.00500488    0.63000000    2.80999994
   16.63222313  160.70599365    0.67000002    2.82999992
   16.63555527  162.21299744    0.64999998    2.82999992
   16.63611031  157.88400269    0.64999998    2.82999992
   16.63916588  145.74299622    0.67000002    2.82999992
   16.64249992  151.82899475    0.67000002    2.82999992
   16.64555550  147.93899536    0.67000002    2.82999992
   16.64888954  152.50900269    0.69000000    2.78999996
   16.65472221  152.50900269    0.69000000    2.80999994
   16.65888786  153.17399597    0.69000000    2.80999994
   16.66222191  142.96899414    0.64999998    2.82999992
   16.66527748  156.51199341    0.64999998    2.80999994
   16.66860962  154.44299316    0.63000000    2.82999992
   16.66944313  153.12100220    0.63000000    2.82999992
   16.67222214  155.92300415    0.63000000    2.82999992
   16.67555428  150.91799927    0.63000000    2.82999992
   16.67860985  156.97000122    0.63000000    2.82999992
   16.68194389  148.77400208    0.63000000    2.82999992
   16.68499947  154.50399780    0.63000000    2.80999994
   16.68833160  158.08399963    0.63000000    2.82999992
   16.69166565  153.16400146    0.63000000    2.82999992
   16.69777679  153.16400146    0.67000002    2.82999992
   16.70166779  146.08299255    0.73000002    2.80999994
   16.70277786  138.19299316    0.73000002    2.82999992
   16.70555687  146.75799561    0.70999998    2.80999994
   16.70888901  143.42399597    0.70999998    2.82999992
   16.71194458  151.66200256    0.70999998    2.82999992
   16.71527863  146.33099365    0.69000000    2.82999992
   16.71833420  137.15800476    0.69000000    2.80999994
   16.72166634  153.33099365    0.64999998    2.80999994
   16.72500038  150.35600281    0.64999998    2.82999992
   16.72805595  158.02099609    0.63000000    2.80999994
   16.73139000  157.46600342    0.63000000    2.82999992
   16.73444557  154.59700012    0.63000000    2.82999992
   16.73611069  157.54299927    0.63000000    2.82999992
   16.74055672  157.54299927    0.63000000    2.82999992
   16.74472237  158.03100586    0.63000000    2.82999992
   16.74777794  142.40800476    0.64999998    2.82999992
   16.75111198  156.79100037    0.64999998    2.82999992
   16.75416756  153.50199890    0.64999998    2.80999994
   16.75749969  162.38999939    0.64999998    2.80999994
   16.76083374  154.76400757    0.64999998    2.82999992
   16.76388931  157.26600647    0.64999998    2.80999994
   16.76722145  159.40499878    0.67000002    2.82999992
   16.76944351  154.05299377    0.64999998    2.82999992
   16.77083397  148.75999451    0.64999998    2.82999992
   16.77388954  148.34100342    0.64999998    2.82999992
   16.77722168  157.83000183    0.67000002    2.82999992
   16.78333282  157.83000183    0.64999998    2.82999992
   16.78750038  151.53399658    0.64999998    2.82999992
   16.79083252  157.06599426    0.64999998    2.82999992
   16.79388809  151.37699890    0.64999998    2.82999992
   16.79722214  146.86000061    0.64999998    2.82999992
   16.80055428  154.77000427    0.64999998    2.82999992
   16.80277634  158.21000671    0.63000000    2.82999992
   16.80416679  154.81500244    0.64999998    2.82999992
   16.80722237  153.64900208    0.64999998    2.82999992
   16.81055450  153.79800415    0.63000000    2.82999992
   16.81388855  153.25500488    0.63000000    2.82999992
   16.81694603  153.50199890    0.63000000    2.82999992
   16.82027817  161.25900269    0.61000001    2.82999992
   16.82611275  161.25900269    0.61000001    2.82999992
   16.83027840  157.43099976    0.61000001    2.82999992
   16.83361244  146.49400330    0.58999997    2.82999992
   16.83611107  157.60899353    0.61000001    2.80999994
   16.83722305  149.13299561    0.61000001    2.80999994
   16.84055710  152.48399353    0.58999997    2.82999992
   16.84361267  153.59800720    0.58999997    2.82999992
   16.84694481  149.78599548    0.58999997    2.82999992
   16.85027885  155.33399963    0.56999999    2.82999992
   16.85333443  149.47700500    0.56999999    2.82999992
   16.85666656  159.94700623    0.56999999    2.80999994
   16.85972214  162.83700562    0.56999999    2.82999992
   16.86305618  153.90800476    0.56999999    2.82999992
   16.86916733  153.90800476    0.58999997    2.82999992
   16.88750076  164.13600159    0.58999997    2.80999994
   16.89055634  162.32400513    0.58999997    2.82999992
   16.89388847  152.79499817    0.58999997    2.82999992
   16.89722252  163.70100403    0.58999997    2.82999992
   16.90027809  155.09700012    0.61000001    2.82999992
   16.90361023  158.18400574    0.63000000    2.82999992
   16.90694427  147.25000000    0.63000000    2.82999992
   16.91222191  147.25000000    0.63000000    2.82999992
   16.91611099  151.98699951    0.63000000    2.82999992
   16.91944313  147.30200195    0.61000001    2.82999992
   16.92055511  150.86199951    0.61000001    2.82999992
   16.92305565  156.12899780    0.63000000    2.82999992
   16.92638779  153.05700684    0.63000000    2.82999992
   16.92972183  162.48500061    0.61000001    2.82999992
   16.93277740  163.68800354    0.61000001    2.80999994
   16.93610954  159.55999756    0.61000001    2.80999994
   16.93916512  163.81599426    0.63000000    2.80999994
   16.94249916  159.01899719    0.63000000    2.82999992
   16.94583321  151.70700073    0.61000001    2.82999992
   16.94888878  153.87199402    0.61000001    2.82999992
   16.95499992  153.87199402    0.61000001    2.82999992
   16.95916748  155.19299316    0.61000001    2.82999992
   16.96222305  156.20700073    0.61000001    2.82999992
   16.96555710  159.37399292    0.61000001    2.80999994
   16.96888924  156.98199463    0.61000001    2.82999992
   16.97194481  156.86199951    0.63000000    2.80999994
   16.97527885  163.04899597    0.63000000    2.80999994
   16.97833443  161.72599792    0.63000000    2.80999994
   16.98166656  167.24400330    0.61000001    2.80999994
   16.98500061  156.48699951    0.61000001    2.82999992
   16.98722267  144.87100220    0.58999997    2.82999992
   16.98833275  154.30799866    0.58999997    2.82999992
   16.99166679  156.04600525    0.56999999    2.82999992
   16.99777794  156.04600525    0.56999999    2.82999992
   17.00194359  151.40800476    0.56999999    2.80999994
   17.00527763  141.16600037    0.56999999    2.82999992
   17.00833321  144.03599548    0.56999999    2.82999992
   17.01166725  160.49200439    0.58999997    2.80999994
   17.01499939  141.63099670    0.58999997    2.80999994
   17.01805496  158.81100464    0.58999997    2.82999992
   17.02055550  158.64399719    0.58999997    2.82999992
   17.02166557  159.08000183    0.56999999    2.82999992
   17.02499962  156.01600647    0.56999999    2.82999992
   17.02833366  163.89300537    0.56999999    2.82999992
   17.03138924  153.54800415    0.56999999    2.80999994
   17.03472137  169.17700195    0.58999997    2.82999992
   17.04055595  169.17700195    0.61000001    2.80999994
   17.04472160  157.27200317    0.61000001    2.82999992
   17.04805565  158.00599670    0.58999997    2.82999992
   17.05111122  150.86799622    0.58999997    2.82999992
   17.05388832  151.03100586    0.58999997    2.82999992
   17.05499840  157.01800537    0.58999997    2.82999992
   17.05805397  160.41099548    0.58999997    2.80999994
   17.06138802  153.22500610    0.58999997    2.82999992
   17.06444359  169.34800720    0.58999997    2.80999994
   17.06777954  158.81300354    0.61000001    2.82999992
   17.07111168  170.37399292    0.58999997    2.82999992
   17.07416725  166.71099854    0.61000001    2.82999992
   17.07750130  163.02699280    0.58999997    2.80999994
   17.08361244  163.02699280    0.61000001    2.82999992
   17.08750153  167.02499390    0.61000001    2.82999992
   17.09083366  162.04400635    0.64999998    2.82999992
   17.09416771  146.38800049    0.63000000    2.80999994
   17.09722328  156.95599365    0.61000001    2.82999992
   17.10055542  152.96499634    0.61000001    2.82999992
   17.10388947  153.97200012    0.61000001    2.82999992
   17.10694504  156.80499268    0.61000001    2.80999994
   17.11027908  164.69400024    0.61000001    2.82999992
   17.11333466  165.19400024    0.63000000    2.80999994
   17.11666679  159.72900391    0.63000000    2.82999992
   17.12000084  159.45300293    0.64999998    2.80999994
   17.12055588  156.98599243    0.64999998    2.80999994
   17.12638855  156.98599243    0.67000002    2.82999992
   17.13055611  158.07800293    0.67000002    2.82999992
   17.13361168  173.22000122    0.61000001    2.82999992
   17.13694382  156.53399658    0.61000001    2.80999994
   17.14027786  155.38400269    0.58999997    2.82999992
   17.14333344  152.36099243    0.61000001    2.82999992
   17.14666748  165.06599426    0.61000001    2.82999992
   17.14999962  158.93600464    0.58999997    2.82999992
   17.15305519  162.44700623    0.58999997    2.82999992
   17.15388870  167.38800049    0.61000001    2.82999992
   17.15666580  154.63299561    0.58999997    2.82999992
   17.15999985  148.53500366    0.56999999    2.82999992
   17.16333389  146.49600220    0.55000001    2.82999992
   17.16916656  146.49600220    0.55000001    2.82999992
   17.17333221  167.07400513    0.55000001    2.82999992
   17.17666626  163.22799683    0.55000001    2.82999992
   17.17972183  166.96800232    0.56999999    2.82999992
   17.18305397  169.19200134    0.56999999    2.78999996
   17.18610954  155.48500061    0.56999999    2.80999994
   17.18722153  164.80400085    0.56999999    2.82999992
   17.18972206  164.63499451    0.56999999    2.82999992
   17.19305420  165.78100586    0.56999999    2.82999992
   17.19638824  158.64999390    0.56999999    2.80999994
   17.19944382  170.68600464    0.55000001    2.80999994
   17.20277786  171.85000610    0.55000001    2.82999992
   17.20611191  172.39900208    0.55000001    2.82999992
   17.21194458  172.39900208    0.56999999    2.80999994
   17.21611214  154.35699463    0.58999997    2.82999992
   17.21944427  167.52699280    0.58999997    2.80999994
   17.22055626  177.50300598    0.58999997    2.80999994
   17.22277832  172.30299377    0.55000001    2.80999994
   17.22611237  172.66799927    0.55000001    2.82999992
   17.22944450  172.06399536    0.52999997    2.82999992
   17.23250008  175.32200623    0.52999997    2.82999992
   17.23583412  164.14599609    0.52999997    2.82999992
   17.23916626  163.73699951    0.52999997    2.82999992
   17.24222183  169.98300171    0.52999997    2.82999992
   17.24555588  151.20599365    0.52999997    2.82999992
   17.24861145  162.93099976    0.52999997    2.82999992
   17.25499916  162.93099976    0.52999997    2.82999992
   17.25916672  168.28399658    0.51999998    2.82999992
   17.26222229  161.00199890    0.52999997    2.82999992
   17.26555634  149.62800598    0.52999997    2.80999994
   17.26861000  156.62399292    0.52999997    2.82999992
   17.27194405  152.80999756    0.52999997    2.82999992
   17.27527809  162.28999329    0.52999997    2.82999992
   17.27833366  162.40400696    0.52999997    2.82999992
   17.28166580  173.65499878    0.52999997    2.82999992
   17.28499985  166.24000549    0.52999997    2.82999992
   17.28722191  155.14399719    0.52999997    2.82999992
   17.28833199  165.05000305    0.52999997    2.82999992
   17.29166603  168.32400513    0.55000001    2.80999994
   17.29777718  168.32400513    0.52999997    2.82999992
   17.30194283  181.04200745    0.52999997    2.80999994
   17.30499840  193.48899841    0.52999997    2.80999994
   17.30833244  178.29600525    0.52999997    2.80999994
   17.31166649  182.17700195    0.52999997    2.80999994
   17.31472206  180.43400574    0.52999997    2.82999992
   17.31805611  167.05599976    0.52999997    2.82999992
   17.32055664  162.39300537    0.52999997    2.82999992
   17.32139015  171.15699768    0.52999997    2.82999992
   17.32472229  177.91600037    0.52999997    2.82999992
   17.32805634  185.55799866    0.52999997    2.82999992
   17.33111191  176.66499329    0.52999997    2.82999992
   17.33444595  179.77900696    0.52999997    2.78999996
   17.34055710  179.77900696    0.55000001    2.80999994
   17.34472275  168.08599854    0.55000001    2.82999992
   17.34805679  164.18699646    0.55000001    2.82999992
   17.35111237  166.99600220    0.55000001    2.82999992
   17.35388947  165.63099670    0.55000001    2.82999992
   17.35472298  150.51300049    0.55000001    2.82999992
   17.35805511  150.00300598    0.55000001    2.82999992
   17.36138916  166.73100281    0.55000001    2.80999994
   17.36444473  161.75399780    0.55000001    2.82999992
   17.36777878  162.65299988    0.55000001    2.82999992
   17.37111092  164.33599854    0.55000001    2.80999994
   17.37416649  161.78500366    0.55000001    2.82999992
   17.37750053  148.96099854    0.55000001    2.82999992
   17.38333321  148.96099854    0.55000001    2.82999992
   17.38750076  170.14300537    0.55000001    2.82999992
   17.39083290  164.53700256    0.55000001    2.82999992
   17.39416695  176.37199402    0.56999999    2.82999992
   17.39722252  161.11399841    0.56999999    2.82999992
   17.40055466  162.79400635    0.56999999    2.82999992
   17.40388870  160.33599854    0.56999999    2.82999992
   17.40694427  165.27900696    0.55000001    2.82999992
   17.41027832  168.43099976    0.55000001    2.80999994
   17.41333389  160.77600098    0.55000001    2.82999992
   17.41666603  148.69099426    0.55000001    2.80999994
   17.42000008  156.70799255    0.55000001    2.80999994
   17.42055511  155.22300720    0.55000001    2.80999994
   17.42638779  155.22300720    0.55000001    2.82999992
   17.43027687  173.36799622    0.52999997    2.82999992
   17.43361092  166.21200562    0.52999997    2.82999992
   17.43694305  166.58399963    0.52999997    2.82999992
   17.43999863  167.24699402    0.52999997    2.82999992
   17.44333267  159.16499329    0.52999997    2.82999992
   17.44666672  154.47599792    0.52999997    2.82999992
   17.44972038  164.88099670    0.52999997    2.82999992
   17.45305634  156.22700500    0.52999997    2.82999992
   17.45388985  164.36999512    0.52999997    2.82999992
   17.45666695  144.43299866    0.52999997    2.82999992
   17.45972252  160.31199646    0.52999997    2.82999992
   17.46305656  157.57899475    0.52999997    2.80999994
   17.46916771  157.57899475    0.52999997    2.82999992
   17.47333336  165.54200745    0.51999998    2.82999992
   17.47638893  155.87399292    0.51999998    2.82999992
   17.47972298  159.61700439    0.52999997    2.82999992
   17.48305511  158.06500244    0.52999997    2.82999992
   17.48611069  158.30799866    0.52999997    2.82999992
   17.48722267  159.60600281    0.52999997    2.80999994
   17.48999977  157.21699524    0.52999997    2.82999992
   17.49305534  161.44999695    0.51999998    2.80999994
   17.49638939  168.69500732    0.52999997    2.82999992
   17.49944496  150.99600220    0.52999997    2.82999992
   17.50277710  166.97399902    0.52999997    2.82999992
   17.50611115  151.05499268    0.52999997    2.82999992
   17.51194382  151.05499268    0.52999997    2.82999992
   17.51611137  170.53199768    0.52999997    2.82999992
   17.51944351  151.47799683    0.52999997    2.82999992
   17.52055550  151.71699524    0.52999997    2.82999992
   17.52305603  166.49499512    0.52999997    2.80999994
   17.52611160  165.06399536    0.52999997    2.82999992
   17.52944374  156.63299561    0.52999997    2.82999992
   17.53249931  169.95700073    0.52999997    2.80999994
   17.53583336  148.28199768    0.52999997    2.82999992
   17.53916550  159.12899780    0.52999997    2.80999994
   17.54222107  146.02400208    0.52999997    2.80999994
   17.54555511  163.45300293    0.52999997    2.82999992
   17.54888916  157.74499512    0.52999997    2.80999994
   17.55472183  157.74499512    0.52999997    2.82999992
   17.55888748  156.01499939    0.52999997    2.80999994
   17.56222153  165.58700562    0.52999997    2.80999994
   17.56527710  171.08500671    0.55000001    2.82999992
   17.56861115  176.36199951    0.55000001    2.82999992
   17.57194519  162.96000671    0.55000001    2.80999994
   17.57500076  151.34500122    0.55000001    2.82999992
   17.57833481  164.08099365    0.55000001    2.82999992
   17.58166695  162.47399902    0.55000001    2.80999994
   17.58472252  164.84500122    0.52999997    2.82999992
   17.58722305  163.57299805    0.55000001    2.80999994
   17.58861160  169.69999695    0.55000001    2.82999992
   17.59166718  163.46200562    0.52999997    2.82999992
   17.59777832  163.46200562    0.52999997    2.80999994
   17.60194397  160.62100220    0.52999997    2.82999992
   17.60499954  157.90800476    0.52999997    2.82999992
   17.60833359  166.85200500    0.52999997    2.82999992
   17.61138916  166.18899536    0.52999997    2.82999992
   17.61472321  162.73500061    0.52999997    2.82999992
   17.61805534  159.92900085    0.52999997    2.82999992
   17.62055588  169.61199951    0.52999997    2.80999994
   17.62166595  162.87399292    0.52999997    2.80999994
   17.62472153  167.50599670    0.52999997    2.82999992
   17.62805557  161.51800537    0.52999997    2.82999992
   17.63111115  165.34300232    0.52999997    2.82999992
   17.63444519  162.41499329    0.52999997    2.82999992
   17.64055634  162.41499329    0.55000001    2.80999994
   17.64472198  162.47099304    0.52999997    2.82999992
   17.64777756  164.58999634    0.55000001    2.80999994
   17.65111160  173.50999451    0.55000001    2.82999992
   17.65388870  162.36700439    0.55000001    2.82999992
   17.65472221  164.03700256    0.55000001    2.82999992
   17.65777779  169.91900635    0.55000001    2.82999992
   17.66110992  157.52299500    0.55000001    2.78999996
   17.66416550  155.36599731    0.55000001    2.82999992
   17.66749954  158.42599487    0.55000001    2.82999992
   17.67083359  161.98100281    0.55000001    2.82999992
   17.67388916  163.03500366    0.55000001    2.82999992
   17.67722130  155.68099976    0.55000001    2.80999994
   17.68333244  155.68099976    0.55000001    2.80999994
   17.68750000  166.15600586    0.55000001    2.80999994
   17.69083214  172.36399841    0.55000001    2.82999992
   17.69388771  176.02799988    0.55000001    2.82999992
   17.69722176  179.67500305    0.52999997    2.80999994
   17.70027924  172.95700073    0.52999997    2.82999992
   17.70361137  166.81500244    0.55000001    2.80999994
   17.70694542  177.38400269    0.52999997    2.82999992
   17.71000099  172.66499329    0.52999997    2.80999994
   17.71333504  165.44500732    0.52999997    2.82999992
   17.71666718  160.85499573    0.52999997    2.82999992
   17.71972275  165.00900269    0.52999997    2.80999994
   17.72055626  163.80799866    0.52999997    2.80999994
   17.72611237  163.80799866    0.52999997    2.80999994
   17.73027802  166.71600342    0.52999997    2.82999992
   17.73361206  161.09700012    0.52999997    2.82999992
   17.73694420  164.59899902    0.52999997    2.80999994
   17.73999977  174.22900391    0.51999998    2.82999992
   17.74333382  166.53100586    0.52999997    2.80999994
   17.74666786  153.96099854    0.52999997    2.80999994
   17.74972153  159.50799561    0.52999997    2.80999994
   17.75305557  158.74699402    0.52999997    2.82999992
   17.75388908  163.91000366    0.52999997    2.82999992
   17.75666618  157.16000366    0.52999997    2.80999994
   17.75972176  150.25799561    0.52999997    2.82999992
   17.76305580  161.05099487    0.52999997    2.80999994
   17.76916695  161.05099487    0.52999997    2.80999994
   17.77333260  153.89300537    0.52999997    2.80999994
   17.77638817  165.29299927    0.52999997    2.80999994
   17.77972221  162.15899658    0.55000001    2.82999992
   17.78277779  162.11199951    0.52999997    2.80999994
   17.78610992  160.10499573    0.52999997    2.82999992
   17.78722191  156.92500305    0.55000001    2.78999996
   17.78972244  157.83099365    0.55000001    2.82999992
   17.79277802  166.06900024    0.55000001    2.82999992
   17.79611015  159.01600647    0.55000001    2.80999994
   17.79944420  169.03599548    0.52999997    2.80999994
   17.80249977  157.81300354    0.52999997    2.80999994
   17.80583191  157.80900574    0.52999997    2.80999994
   17.81194305  157.80900574    0.52999997    2.80999994
   17.81611061  162.11799622    0.52999997    2.80999994
   17.81916809  151.12800598    0.52999997    2.82999992
   17.82055664  164.65899658    0.52999997    2.80999994
   17.82305717  158.84899902    0.52999997    2.80999994
   17.82611275  152.10400391    0.52999997    2.82999992
   17.82944489  145.89399719    0.55000001    2.80999994
   17.83277893  166.15899658    0.55000001    2.80999994
   17.83583450  161.96600342    0.55000001    2.82999992
   17.83916664  171.24299622    0.55000001    2.80999994
   17.84222221  168.38299561    0.55000001    2.82999992
   17.84555626  159.44500732    0.55000001    2.80999994
   17.84889030  158.15199280    0.52999997    2.82999992
   17.85472298  158.15199280    0.52999997    2.80999994
   17.85888863  164.27299500    0.51999998    2.80999994
   17.86222267  159.66799927    0.50000000    2.80999994
   17.86527824  166.79200745    0.50000000    2.80999994
   17.86861038  162.56500244    0.50000000    2.80999994
   17.87166595  165.16000366    0.50000000    2.80999994
   17.87500000  150.90800476    0.50000000    2.80999994
   17.87833405  159.19799805    0.50000000    2.80999994
   17.88138962  169.47500610    0.50000000    2.80999994
   17.88472176  160.06799316    0.50000000    2.80999994
   17.88722229  144.27999878    0.50000000    2.80999994
   17.90777779  144.27999878    0.50000000    2.80999994
   17.91194344  155.35200500    0.50000000    2.82999992
   17.91527748  163.92199707    0.50000000    2.80999994
   17.91860962  153.63499451    0.50000000    2.80999994
   17.92055511  154.64100647    0.50000000    2.80999994
   17.92222214  154.78500366    0.50000000    2.80999994
   17.92555428  148.11099243    0.50000000    2.80999994
   17.92860985  152.72200012    0.50000000    2.80999994
   17.93194389  154.29499817    0.50000000    2.78999996
   17.93499947  160.98800659    0.51999998    2.82999992
   17.93833160  148.49600220    0.51999998    2.80999994
   17.94166565  161.88299561    0.51999998    2.80999994
   17.94472122  159.47500610    0.51999998    2.80999994
   17.95055580  159.47500610    0.52999997    2.82999992
   17.95472336  165.22300720    0.52999997    2.80999994
   17.95805550  162.32499695    0.52999997    2.80999994
   17.96111107  159.07699585    0.52999997    2.80999994
   17.96444511  173.15600586    0.52999997    2.80999994
   17.96777916  166.43099976    0.51999998    2.78999996
   17.97083473  158.63499451    0.51999998    2.80999994
   17.97416687  151.78500366    0.51999998    2.80999994
   17.97750092  159.86500549    0.51999998    2.80999994
   17.98055649  164.91099548    0.51999998    2.80999994
   17.98388863  155.35299683    0.50000000    2.78999996
   17.98694420  163.41299438    0.50000000    2.82999992
   17.98750114  167.20599365    0.50000000    2.82999992
   17.99361229  167.20599365    0.50000000    2.78999996
   17.99749947  158.02099609    0.50000000    2.82999992
   18.00083351  159.58200073    0.47999999    2.80999994
   18.00416756  167.38200378    0.47999999    2.78999996
   18.00722313  155.21299744    0.47999999    2.80999994
   18.01055527  152.80499268    0.47999999    2.80999994
   18.01388931  164.74600220    0.47999999    2.80999994
   18.01694489  156.49299622    0.47999999    2.80999994
   18.02027702  156.17100525    0.47999999    2.82999992
   18.02083397  164.02999878    0.47999999    2.80999994
   18.02388954  165.25599670    0.47999999    2.78999996
   18.02722168  156.13200378    0.47999999    2.80999994
   18.03027725  160.81900024    0.47999999    2.80999994
   18.03638840  160.81900024    0.47999999    2.78999996
   18.04055595  154.54299927    0.47999999    2.80999994
   18.04361153  160.96600342    0.47999999    2.80999994
   18.04694366  157.54299927    0.47999999    2.82999992
   18.04999924  162.30799866    0.47999999    2.80999994
   18.05333328  156.15299988    0.47999999    2.80999994
   18.05416679  163.31399536    0.47999999    2.80999994
   18.05694389  158.69900513    0.47999999    2.80999994
   18.06027794  152.81900024    0.50000000    2.78999996
   18.06333351  154.19400024    0.50000000    2.80999994
   18.06666756  148.66400146    0.50000000    2.80999994
   18.07000160  156.63000488    0.50000000    2.80999994
   18.07305717  152.22500610    0.50000000    2.80999994
   18.07916832  152.22500610    0.50000000    2.80999994
   18.08333397  222.68800354    0.50000000    2.80999994
   18.08666801  148.64300537    0.47999999    2.80999994
   18.08750153  159.47700500    0.47999999    2.80999994
   18.09027863  159.07800293    0.50000000    2.80999994
   18.09361267  156.08999634    0.51999998    2.80999994
   18.09666824  154.23800659    0.51999998    2.80999994
   18.10000038  158.56199646    0.51999998    2.80999994
   18.10333443  152.14500427    0.51999998    2.80999994
   18.10639000  155.85800171    0.51999998    2.78999996
   18.10972214  160.97599792    0.51999998    2.80999994
   18.11277771  160.46000671    0.51999998    2.78999996
   18.11611176  150.16799927    0.51999998    2.78999996
   18.12194443  150.16799927    0.50000000    2.80999994
   18.12611198   69.07589722    0.50000000    2.80999994
   18.12944412   60.30820084    0.50000000    2.78999996
   18.13249969  160.55099487    0.50000000    2.80999994
   18.13583374  163.70399475    0.50000000    2.80999994
   18.13916588  163.41900635    0.50000000    2.80999994
   18.14222145  155.00900269    0.50000000    2.78999996
   18.14555550  149.74600220    0.50000000    2.80999994
   18.14861107  152.96099854    0.50000000    2.80999994
   18.15194321  159.88200378    0.50000000    2.80999994
   18.15416718  154.84100342    0.50000000    2.80999994
   18.15555573  159.26899719    0.50000000    2.80999994
   18.15888786  150.84500122    0.50000000    2.78999996
   18.16499901  150.84500122    0.50000000    2.80999994
   18.16888809  160.25000000    0.47999999    2.80999994
   18.17222214   -1.00000000    0.50000000    2.80999994
   18.17555428  154.91900635    0.50000000    2.80999994
   18.17860985  160.20599365    0.50000000    2.78999996
   18.18194389  154.56399536    0.50000000    2.80999994
   18.18499947  158.62300110    0.50000000    2.80999994
   18.18777657  143.45199585    0.50000000    2.80999994
   18.18861008  155.53500366    0.50000000    2.80999994
   18.19194412  151.12800598    0.50000000    2.80999994
   18.19499969  150.64700317    0.50000000    2.78999996
   18.19833183  144.29499817    0.51999998    2.80999994
   18.20166779  142.07000732    0.51999998    2.78999996
   18.20777893  142.07000732    0.51999998    2.78999996
   18.21194458  155.19900513    0.51999998    2.78999996
   18.21500015   -1.00000000    0.51999998    2.80999994
   18.21833420   -1.00000000    0.52999997    2.78999996
   18.22111130  142.03100586    0.51999998    2.80999994
   18.22194481  129.95399475    0.52999997    2.80999994
   18.22527885  149.43699646    0.51999998    2.80999994
   18.22833443  151.16299438    0.51999998    2.78999996
   18.23166656  143.33999634    0.51999998    2.78999996
   18.23500061  145.59599304    0.51999998    2.78999996
   18.23805618  150.49899292    0.51999998    2.78999996
   18.24166679  150.13800049    0.51999998    2.78999996
   18.24472237  149.29400635    0.51999998    2.80999994
   18.25055504  149.29400635    0.51999998    2.80999994
   18.25472260  151.91600037    0.51999998    2.78999996
   18.25777817  148.36700439    0.51999998    2.80999994
   18.26111031  155.46899414    0.50000000    2.78999996
   18.26444435  154.36199951    0.50000000    2.78999996
   18.26749992   -1.00000000    0.51999998    2.78999996
   18.27083397   -1.00000000    0.51999998    2.78999996
   18.27416611   -1.00000000    0.51999998    2.78999996
   18.27722168   -1.00000000    0.51999998    2.80999994
   18.28055573   -1.00000000    0.51999998    2.78999996
   18.28361130  160.80700684    0.51999998    2.80999994
   18.28694344  162.82800293    0.51999998    2.80999994
   18.28777695  161.18499756    0.51999998    2.78999996
   18.29333305  161.18499756    0.51999998    2.80999994
   18.29749870  162.78999329    0.51999998    2.78999996
   18.30083275  159.44400024    0.51999998    2.80999994
   18.30388832  164.70700073    0.52999997    2.78999996
   18.30722237  160.16099548    0.52999997    2.78999996
   18.31055450  166.52200317    0.51999998    2.78999996
   18.31361008  162.22300720    0.52999997    2.78999996
   18.31694603  164.23100281    0.52999997    2.78999996
   18.32000160  161.43200684    0.52999997    2.80999994
   18.32111168  167.05299377    0.52999997    2.80999994
   18.32361221  163.38200378    0.52999997    2.80999994
   18.32694626  164.09899902    0.52999997    2.80999994
   18.33000183  163.49000549    0.52999997    2.78999996
   18.33638954  163.49000549    0.52999997    2.78999996
   18.34027863  171.35400391    0.52999997    2.78999996
   18.34361267  160.71600342    0.52999997    2.78999996
   18.34694481  162.78399658    0.52999997    2.78999996
   18.35000038  165.70899963    0.52999997    2.78999996
   18.35333443  163.38999939    0.52999997    2.78999996
   18.35444450  162.48500061    0.52999997    2.80999994
   18.35694504  165.57899475    0.52999997    2.78999996
   18.36027908  166.35200500    0.52999997    2.78999996
   18.36361122  169.57600403    0.52999997    2.78999996
   18.36666679  166.24899292    0.52999997    2.78999996
   18.37000084  161.88000488    0.52999997    2.78999996
   18.37305641  161.18899536    0.52999997    2.78999996
   18.37916756  161.18899536    0.52999997    2.78999996
   18.38333321  170.48500061    0.52999997    2.78999996
   18.38638878  164.66799927    0.55000001    2.80999994
   18.38777733  166.25000000    0.55000001    2.80999994
   18.38999939  165.58399963    0.55000001    2.78999996
   18.39333344  161.79100037    0.55000001    2.78999996
   18.39638901  169.45399475    0.55000001    2.78999996
   18.39972115  163.11099243    0.55000001    2.78999996
   18.40305519  167.22500610    0.52999997    2.78999996
   18.40611076  176.00199890    0.52999997    2.78999996
   18.40944481  177.83099365    0.52999997    2.78999996
   18.41277695  172.27099609    0.52999997    2.78999996
   18.41583252  166.72700500    0.52999997    2.78999996
   18.42194366  166.72700500    0.52999997    2.78999996
   18.42611122  167.52200317    0.51999998    2.80999994
   18.42916679  179.56100464    0.51999998    2.78999996
   18.43249893  175.68800354    0.51999998    2.80999994
   18.43583298  175.41900635    0.51999998    2.78999996
   18.43888855  171.02799988    0.51999998    2.78999996
   18.44222069  175.25500488    0.51999998    2.78999996
   18.44555473  180.62800598    0.51999998    2.78999996
   18.44861031  169.49400330    0.51999998    2.78999996
   18.45194435  171.37399292    0.50000000    2.78999996
   18.45444489  169.53700256    0.50000000    2.78999996
   18.45555687  170.29299927    0.50000000    2.78999996
   18.45888901  167.60800171    0.50000000    2.78999996
   18.46472359  167.60800171    0.51999998    2.80999994
   18.46888924  183.06100464    0.51999998    2.78999996
   18.47222328  181.27799988    0.51999998    2.78999996
   18.47527885  165.78900146    0.51999998    2.78999996
   18.47861099  176.10400391    0.51999998    2.78999996
   18.48194504  170.39700317    0.51999998    2.78999996
   18.48500061  182.49000549    0.51999998    2.78999996
   18.48777771  170.92900085    0.52999997    2.80999994
   18.48861122  186.65600586    0.52999997    2.78999996
   18.49194527  167.84399414    0.52999997    2.78999996
   18.49527740  160.56199646    0.51999998    2.78999996
   18.49833298  166.41700745    0.51999998    2.78999996
   18.50166702  177.02499390    0.52999997    2.78999996
   18.50749969  177.02499390    0.52999997    2.78999996
   18.51166725  166.45399475    0.52999997    2.78999996
   18.51499939  185.92100525    0.52999997    2.78999996
   18.51833344  167.94999695    0.52999997    2.78999996
   18.52111053  184.68499756    0.52999997    2.78999996
   18.52166557  181.41799927    0.52999997    2.78999996
   18.52499962  179.84399414    0.52999997    2.78999996
   18.52805519  170.01600647    0.52999997    2.78999996
   18.53138924  176.80499268    0.52999997    2.78999996
   18.53472137  187.34899902    0.52999997    2.78999996
   18.53777695  182.57400513    0.52999997    2.78999996
   18.54111099  179.52799988    0.52999997    2.78999996
   18.54444313  180.07600403    0.52999997    2.78999996
   18.55055428  180.07600403    0.52999997    2.78999996
   18.55472183  191.49200439    0.52999997    2.78999996
   18.55777740  190.14199829    0.51999998    2.78999996
   18.56110954  184.77299500    0.51999998    2.78999996
   18.56444359  181.46899414    0.51999998    2.78999996
   18.56750107  179.88000488    0.51999998    2.78999996
   18.57083511  184.05099487    0.51999998    2.78999996
   18.57389069  182.26600647    0.51999998    2.78999996
   18.57722282  186.48599243    0.51999998    2.78999996
   18.58055687  171.03399658    0.51999998    2.78999996
   18.58361244  185.90199280    0.51999998    2.78999996
   18.58694458  169.41900635    0.51999998    2.76999998
   18.58777809  165.00999451    0.51999998    2.78999996
   18.59333420  165.00999451    0.51999998    2.78999996
   18.59749985  184.31199646    0.51999998    2.76999998
   18.60083389  184.49299622    0.51999998    2.78999996
   18.60388947  176.55099487    0.51999998    2.78999996
   18.60722351  185.58900452    0.51999998    2.78999996
   18.61055565  179.02699280    0.51999998    2.78999996
   18.61361122  184.75100708    0.50000000    2.78999996
   18.61694527  165.70300293    0.50000000    2.78999996
   18.62027740  183.63099670    0.50000000    2.78999996
   18.62111092  177.98800659    0.50000000    2.78999996
   18.62361145  182.99200439    0.50000000    2.78999996
   18.62694550  189.72999573    0.50000000    2.78999996
   18.63027763  183.02299500    0.50000000    2.78999996
   18.63611031  183.02299500    0.51999998    2.78999996
   18.64027786  187.60800171    0.52999997    2.78999996
   18.64361191  179.94999695    0.52999997    2.78999996
   18.64666748  183.00199890    0.52999997    2.78999996
   18.64999962  173.96200562    0.52999997    2.78999996
   18.65333366  183.41000366    0.52999997    2.78999996
   18.65444374  170.66700745    0.52999997    2.78999996
   18.65666580  176.14199829    0.52999997    2.78999996
   18.65999985  178.37199402    0.52999997    2.78999996
   18.66333389  178.25300598    0.52999997    2.78999996
   18.66638756  185.81900024    0.52999997    2.78999996
   18.66972160  175.25300598    0.55000001    2.78999996
   18.67305565  190.40499878    0.55000001    2.78999996
   18.67888832  190.40499878    0.52999997    2.78999996
   18.68305397  177.99699402    0.52999997    2.78999996
   18.68638802  184.36799622    0.52999997    2.76999998
   18.68777657  186.20399475    0.55000001    2.76999998
   18.68999863  179.89599609    0.52999997    2.78999996
   18.69333267  181.46299744    0.55000001    2.78999996
   18.69666672  180.25399780    0.52999997    2.78999996
   18.69972038  191.45399475    0.52999997    2.78999996
   18.70305634  188.14799500    0.52999997    2.78999996
   18.70611191  178.23699951    0.55000001    2.76999998
   18.70944595  178.27400208    0.55000001    2.78999996
   18.71277809  169.50799561    0.55000001    2.78999996
   18.71583366  163.61500549    0.52999997    2.78999996
   18.72194481  163.61500549    0.52999997    2.78999996
   18.72611237  172.17199707    0.52999997    2.78999996
   18.72916794  164.55700684    0.52999997    2.76999998
   18.73250008  171.91600037    0.52999997    2.76999998
   18.73583412  173.71899414    0.52999997    2.78999996
   18.73888969  179.84100342    0.52999997    2.78999996
   18.74222183  176.52299500    0.52999997    2.76999998
   18.74527740  180.24699402    0.55000001    2.76999998
   18.74861145  173.69200134    0.55000001    2.76999998
   18.75194359  176.38800049    0.55000001    2.78999996
   18.75444412  182.89599609    0.56999999    2.78999996
   18.75527763  181.15699768    0.56999999    2.78999996
   18.75861168  175.10000610    0.56999999    2.76999998
   18.76472282  175.10000610    0.56999999    2.76999998
   18.76888847  170.12800598    0.56999999    2.78999996
   18.77194405  179.77099609    0.56999999    2.78999996
   18.77527809  175.95199585    0.56999999    2.76999998
   18.77861023  169.83200073    0.58999997    2.76999998
   18.78166580  162.53500366    0.58999997    2.76999998
   18.78499985  169.84800720    0.58999997    2.76999998
   18.78777695  169.20700073    0.58999997    2.76999998
   18.78861046  176.49899292    0.58999997    2.76999998
   18.79194450  180.49400330    0.61000001    2.78999996
   18.79527664  180.70599365    0.58999997    2.78999996
   18.79833221  182.80000305    0.58999997    2.76999998
   18.80166626  166.65100098    0.58999997    2.76999998
   18.80749893  166.65100098    0.58999997    2.76999998
   18.81166649  166.26800537    0.58999997    2.78999996
   18.81499863  166.84500122    0.58999997    2.78999996
   18.81805611  166.91600037    0.56999999    2.76999998
   18.82111168  172.20799255    0.56999999    2.75000000
   18.82166672  182.72700500    0.56999999    2.75000000
   18.82500076  172.48500061    0.56999999    2.76999998
   18.82833481  159.07400513    0.56999999    2.76999998
   18.83222389  176.39500427    0.58999997    2.76999998
   18.83527756  174.07800293    0.58999997    2.76999998
   18.83861160  149.73599243    0.56999999    2.78999996
   18.84194565  161.10299683    0.56999999    2.76999998
   18.84500122  175.40800476    0.56999999    2.76999998
   18.85027885  175.40800476    0.55000001    2.76999998
   18.85444450  177.85099792    0.55000001    2.76999998
   18.85777855  177.19799805    0.55000001    2.76999998
   18.86111069  175.76400757    0.55000001    2.76999998
   18.86416626  179.05000305    0.55000001    2.76999998
   18.86750031  161.56100464    0.55000001    2.76999998
   18.87055588  167.39999390    0.56999999    2.78999996
   18.87388992  179.11999512    0.58999997    2.76999998
   18.87722206  169.20599365    0.58999997    2.76999998
   18.88027763  164.90199280    0.61000001    2.76999998
   18.88361168  158.68400574    0.61000001    2.75000000
   18.88694382  169.00100708    0.61000001    2.75000000
   18.88777733  164.47599792    0.61000001    2.75000000
   18.89333344  164.47599792    0.58999997    2.76999998
   18.89749908  170.38800049    0.58999997    2.76999998
   18.90055466  170.91000366    0.58999997    2.75000000
   18.90388870  164.95599365    0.58999997    2.76999998
   18.92138863  184.76499939    0.61000001    2.76999998
   18.92388916  207.92500305    0.61000001    2.76999998
   18.92694473  190.64100647    0.61000001    2.75000000
   18.93027687  182.39599609    0.61000001    2.76999998
   18.93638802  182.39599609    0.61000001    2.75000000
   18.94027710  150.16000366    0.63000000    2.76999998
   18.94361115  182.95199585    0.61000001    2.75000000
   18.94694328  183.93200684    0.63000000    2.75000000
   18.95000076  165.15499878    0.63000000    2.75000000
   18.95333481  191.52000427    0.63000000    2.75000000
   18.95472336  170.69400024    0.63000000    2.76999998
   18.95722389  176.77699280    0.61000001    2.75000000
   18.96027946  183.11599731    0.61000001    2.76999998
   18.96361160  188.16299438    0.61000001    2.76999998
   18.96666718  176.66499329    0.61000001    2.75000000
   18.97000122  173.34899902    0.61000001    2.76999998
   18.97333336  156.90400696    0.61000001    2.76999998
   18.97916794  156.90400696    0.61000001    2.75000000
   18.98333359  179.33299255    0.61000001    2.76999998
   18.98638916  178.63600159    0.58999997    2.75000000
   18.98805618  162.68200684    0.58999997    2.76999998
   18.98999977  176.75100708    0.58999997    2.75000000
   18.99333382  180.60000610    0.56999999    2.75000000
   18.99666786  169.01899719    0.56999999    2.76999998
   18.99972153  187.82299805    0.55000001    2.76999998
   19.00305557  163.89900208    0.56999999    2.76999998
   19.00611115  187.30999756    0.55000001    2.76999998
   19.00944519  170.28799438    0.55000001    2.76999998
   19.01277733  175.25100708    0.55000001    2.76999998
   19.01583290  182.93600464    0.55000001    2.76999998
   19.02194405  182.93600464    0.55000001    2.76999998
   19.02611160  185.70899963    0.55000001    2.76999998
   19.02944374  195.22999573    0.55000001    2.75000000
   19.03249931  189.41400146    0.52999997    2.75000000
   19.03583336  181.39799500    0.55000001    2.76999998
   19.03916550  170.63800049    0.55000001    2.76999998
   19.04222107  167.57200623    0.55000001    2.76999998
   19.04555511  177.26199341    0.55000001    2.76999998
   19.04888916  190.34300232    0.55000001    2.75000000
   19.05194283  165.50300598    0.55000001    2.75000000
   19.05472183  165.24099731    0.56999999    2.75000000
   19.05555534  165.06500244    0.56999999    2.75000000
   19.05888748  180.67300415    0.58999997    2.75000000
   19.06472206  180.67300415    0.61000001    2.75000000
   19.06888962  190.12399292    0.61000001    2.75000000
   19.07222366  180.13200378    0.61000001    2.75000000
   19.07527924  190.38299561    0.63000000    2.75000000
   19.07861137  180.54200745    0.64999998    2.76999998
   19.08194542  177.52299500    0.64999998    2.76999998
   19.08500099  194.89300537    0.64999998    2.76999998
   19.08805656  189.31900024    0.67000002    2.75000000
   19.08861160  186.50900269    0.67000002    2.75000000
   19.09194565  187.44599915    0.69000000    2.75000000
   19.09527779  182.24699402    0.69000000    2.75000000
   19.09833336  181.21200562    0.69000000    2.75000000
   19.10166740  190.01699829    0.69000000    2.75000000
   19.10777855  190.01699829    0.70999998    2.75000000
   19.11166763  195.94200134    0.76999998    2.76999998
   19.11499977  194.16299438    0.75000000    2.75000000
   19.11833382  184.11799622    0.75000000    2.75000000
   19.12138939  175.55299377    0.76999998    2.75000000
   19.12166595  193.90800476    0.76999998    2.75000000
   19.12500000  191.61700439    0.75000000    2.75000000
   19.12833405  193.05400085    0.73000002    2.75000000
   19.13138962  171.14700317    0.70999998    2.75000000
   19.13472176  194.30799866    0.70999998    2.75000000
   19.13805580  195.52900696    0.70999998    2.75000000
   19.14111137  170.03799438    0.70999998    2.75000000
   19.14444351  190.94599915    0.70999998    2.75000000
   19.15055466  190.94599915    0.70999998    2.75000000
   19.15472221  199.80299377    0.69000000    2.75000000
   19.15777779  190.78700256    0.67000002    2.75000000
   19.16110992  195.69500732    0.64999998    2.75000000
   19.16444397  176.69799805    0.64999998    2.75000000
   19.16749954  188.50500488    0.64999998    2.75000000
   19.17083359  210.26699829    0.64999998    2.75000000
   19.17388916  195.35899353    0.64999998    2.75000000
   19.17722130  191.27499390    0.67000002    2.75000000
   19.18055534  174.25199890    0.67000002    2.75000000
   19.18361092  182.28500366    0.69000000    2.75000000
   19.18694305  183.67700195    0.69000000    2.75000000
   19.18805504  184.13600159    0.69000000    2.73000002
   19.19333267  184.13600159    0.69000000    2.75000000
   19.19749832  198.40400696    0.69000000    2.75000000
   19.20083427  182.72500610    0.69000000    2.75000000
   19.20388985  181.00999451    0.69000000    2.75000000
   19.20722389  195.59300232    0.69000000    2.75000000
   19.21027946  185.98500061    0.69000000    2.76999998
   19.21361160  177.36700439    0.69000000    2.75000000
   19.21694565  188.28599548    0.73000002    2.75000000
   19.22000122  170.62699890    0.73000002    2.75000000
   19.22138977  179.41799927    0.73000002    2.75000000
   19.22361183  190.86999512    0.70999998    2.75000000
   19.22694588  174.23699951    0.70999998    2.73000002
   19.23027802  178.05799866    0.70999998    2.75000000
   19.23611069  178.05799866    0.73000002    2.75000000
   19.24027824  184.13400269    0.73000002    2.73000002
   19.24361229  184.47000122    0.70999998    2.75000000
   19.24666786  169.55499268    0.70999998    2.75000000
   19.25000000  181.07099915    0.70999998    2.75000000
   19.25333405  178.29600525    0.70999998    2.75000000
   19.25472260  178.59800720    0.69000000    2.75000000
   19.25666618  167.80400085    0.69000000    2.75000000
   19.26000023  173.62500000    0.69000000    2.75000000
   19.26333427  165.38499451    0.67000002    2.75000000
   19.26638794  175.28500366    0.67000002    2.73000002
   19.26972198  175.54499817    0.69000000    2.75000000
   19.27305603  184.12300110    0.67000002    2.71000004
   19.27916718  184.12300110    0.67000002    2.75000000
   19.28305435  186.34199524    0.67000002    2.75000000
   19.28638840  181.07899475    0.64999998    2.75000000
   19.28805542  172.14700317    0.64999998    2.75000000
   19.28999901  165.99899292    0.67000002    2.73000002
   19.29333305  164.48199463    0.64999998    2.73000002
   19.29666710  188.21600342    0.63000000    2.73000002
   19.29972076  178.79200745    0.64999998    2.73000002
   19.30305481  172.46699524    0.64999998    2.73000002
   19.30638885  186.04499817    0.64999998    2.73000002
   19.30944443  167.97599792    0.67000002    2.75000000
   19.31277657  166.20899963    0.67000002    2.75000000
   19.31583214  175.72900391    0.69000000    2.73000002
   19.32194519  175.72900391    0.73000002    2.75000000
   19.32611275  172.91999817    0.70999998    2.75000000
   19.32916832  180.22700500    0.70999998    2.75000000
   19.33250046  182.61099243    0.69000000    2.73000002
   19.33583450  181.12600708    0.69000000    2.73000002
   19.33889008  183.13600159    0.70999998    2.73000002
   19.34222221  166.11700439    0.70999998    2.75000000
   19.34527779  170.17500305    0.69000000    2.73000002
   19.34861183  170.24099731    0.69000000    2.73000002
   19.35194397  179.12399292    0.69000000    2.73000002
   19.35472298  171.76800537    0.69000000    2.75000000
   19.35527802  168.65100098    0.69000000    2.75000000
   19.35861206  176.64799500    0.69000000    2.73000002
   19.36472321  176.64799500    0.70999998    2.73000002
   19.36888885  180.31399536    0.70999998    2.73000002
   19.37222290  172.50599670    0.79000002    2.73000002
   19.37527847  181.49800110    0.75000000    2.71000004
   19.37861061  176.94099426    0.73000002    2.75000000
   19.38166618  163.33900452    0.80000001    2.73000002
   19.38500023  158.68299866    0.76999998    2.73000002
   19.38805580  179.50000000    0.76999998    2.73000002
   19.38861084  176.41900635    0.73000002    2.73000002
   19.39194489  166.46499634    0.76999998    2.73000002
   19.39527702  167.05400085    0.76999998    2.73000002
   19.39833260  168.19000244    0.75000000    2.73000002
   19.40166664  172.41700745    0.73000002    2.73000002
   19.40749931  172.41700745    0.70999998    2.71000004
   19.41166687  179.67599487    0.70999998    2.71000004
   19.41499901  170.08900452    0.69000000    2.71000004
   19.41805458  169.30400085    0.67000002    2.73000002
   19.42138863  175.28700256    0.64999998    2.73000002
   19.42166519  171.69599915    0.64999998    2.73000002
   19.42499924  168.27299500    0.64999998    2.73000002
   19.42833328  172.38200378    0.63000000    2.73000002
   19.43138885  176.38900757    0.63000000    2.71000004
   19.43472099  170.47999573    0.61000001    2.73000002
