    HOUR (UT)   FLARE FACTOR    SKY TESTER    SUN TESTER
   11.58361053   -1.00000000   -1.00000000   -1.00000000
   11.68222237   -1.00000000    4.90999985    1.16999996
   11.68555546   -1.00000000    4.90999985    1.19000006
   11.68888855   -1.00000000    4.90999985    1.19000006
   11.69194412   -1.00000000    4.90999985    1.21000004
   11.69527817   -1.00000000    4.90999985    1.21000004
   11.70333290   -1.00000000    4.90999985    1.21000004
   11.70666695   -1.00000000    4.90999985    1.23000002
   11.71000004   -1.00000000    4.90999985    1.23000002
   11.71333313   -1.00000000    4.90999985    1.23000002
   11.71666622   -1.00000000    4.90999985    1.23000002
   11.71972179   -1.00000000    4.90999985    1.25000000
   11.72305489   -1.00000000    4.90999985    1.23000002
   11.72638798   -1.00000000    4.90999985    1.25000000
   11.72944355   -1.00000000    4.90999985    1.25000000
   11.73277760   -1.00000000    4.90999985    1.25000000
   11.73611164   -1.00000000    4.90999985    1.25000000
   11.74222279   -1.00000000    4.90999985    1.25000000
   11.74638939   -1.00000000    4.90999985    1.26999998
   11.74972248   -1.00000000    4.90999985    1.26999998
   11.75277805   -1.00000000    4.90999985    1.28999996
   11.75611115   -1.00000000    4.90999985    1.28999996
   11.75944424   -1.00000000    4.90999985    1.28999996
   11.76249981   -1.00000000    4.90999985    1.28999996
   11.76583290   -1.00000000    4.90999985    1.28999996
   11.76888847   -1.00000000    4.90999985    1.28999996
   11.77222157   -1.00000000    4.90999985    1.30999994
   11.77555561   -1.00000000    4.90999985    1.30999994
   11.77861118   -1.00000000    4.90999985    1.30999994
   11.78916740   -1.00000000    4.90999985    1.30999994
   11.79250050   -1.00000000    4.90999985    1.33000004
   11.79555607   -1.00000000    4.90999985    1.33000004
   11.84694386   44.20679855    4.90999985    1.38000000
   11.85000038   65.27739716    4.90999985    1.38000000
   11.85333347   42.00540161    4.90999985    1.38000000
   11.85638905   53.18220139    4.90999985    1.38000000
   11.85972214   58.12049866    4.90999985    1.38000000
   11.86305618   59.72729874    4.90999985    1.38000000
   11.86722279   59.72729874    4.90999985    1.39999998
   11.87111092   69.40879822    4.90999985    1.38000000
   11.87444496   82.59490204    4.90999985    1.39999998
   11.87777805   61.13930130    4.90999985    1.39999998
   11.88027763   62.75350189    4.90999985    1.39999998
   11.88138866   82.85839844    4.90999985    1.41999996
   11.88472176   70.28130341    4.90999985    1.41999996
   11.88777733   49.49440002    4.90999985    1.41999996
   11.89111137   64.34190369    4.90999985    1.41999996
   11.89444447   80.19159698    4.90999985    1.44000006
   11.89750004   76.25199890    4.90999985    1.44000006
   11.90083313   86.19580078    4.90999985    1.44000006
   11.90388870   84.67600250    4.90999985    1.46000004
   11.90999985   84.67600250    4.90999985    1.46000004
   11.91416645   93.69020081    4.90999985    1.46000004
   11.91722298   99.69349670    4.90999985    1.46000004
   11.92055607  111.52400208    4.90999985    1.48000002
   11.92361164   93.57219696    4.90999985    1.48000002
   11.92694473   86.43499756    4.90999985    1.48000002
   11.93027782   89.75920105    4.90999985    1.48000002
   11.93333340   91.19490051    4.90999985    1.48000002
   11.93666649   96.48190308    4.90999985    1.48000002
   11.94000053  113.52999878    4.90999985    1.48000002
   11.94305515   81.95290375    4.90999985    1.50000000
   11.94638920  108.51999664    4.90999985    1.50000000
   11.94694424  117.83000183    4.90999985    1.50000000
   11.95277786  117.83000183    4.90999985    1.50000000
   11.95694447  112.37699890    4.90999985    1.50000000
   11.96000004  110.42299652    4.90999985    1.51999998
   11.96333313  117.28500366    4.90999985    1.51999998
   11.96666622  107.81500244    4.90999985    1.51999998
   11.96972179  106.15499878    4.90999985    1.51999998
   11.97305489  130.40199280    4.90999985    1.51999998
   11.97638798  127.92099762    4.90999985    1.51999998
   11.97944355  117.82099915    4.90999985    1.51999998
   11.98027706  126.71800232    4.90999985    1.51999998
   11.98305511  130.37600708    4.90999985    1.53999996
   11.98638916  114.65799713    4.90999985    1.53999996
   11.98972225  141.41000366    4.90999985    1.53999996
   11.99555588  141.41000366    4.90999985    1.53999996
   11.99972248  134.02299500    4.90999985    1.53999996
   12.00305557  125.21399689    4.90999985    1.55999994
   12.00611115  130.43600464    4.90999985    1.55999994
   12.00944424  130.39500427    4.90999985    1.55999994
   12.01277733  132.33999634    4.90999985    1.55999994
   12.01361084  133.58999634    4.90999985    1.55999994
   12.01638889  130.42100525    4.90999985    1.58000004
   12.01944447  134.13400269    4.90999985    1.58000004
   12.02277756  137.62500000    4.90999985    1.58000004
   12.02583313  136.36199951    4.90999985    1.58000004
   12.02916622  133.54400635    4.90999985    1.58000004
   12.03249931  145.36000061    4.90999985    1.58000004
   12.03861141  145.36000061    4.90999985    1.58000004
   12.04250050  122.74099731    4.90999985    1.58000004
   12.04583359  111.81900024    4.90999985    1.60000002
   12.04694462  123.49700165    4.90999985    1.60000002
   12.04972267  145.88400269    4.90999985    1.60000002
   12.05277824  126.60600281    4.90999985    1.60000002
   12.05611134  136.44999695    4.90999985    1.60000002
   12.05916691  147.05400085    4.90999985    1.60000002
   12.06250000  131.89199829    4.90999985    1.60000002
   12.06555557  131.78999329    4.90999985    1.61000001
   12.06888866  142.74699402    4.90999985    1.61000001
   12.07222176  129.46299744    4.90999985    1.61000001
   12.07527733  136.49800110    4.90999985    1.61000001
   12.08138847  136.49800110    4.90999985    1.61000001
   12.08555508  146.50999451    4.90999985    1.61000001
   12.08861065  143.96600342    4.90999985    1.61000001
   12.09194374  161.06100464    4.90999985    1.61000001
   12.09499931  139.60800171    4.90999985    1.61000001
   12.09833336  167.06500244    4.90999985    1.63000000
   12.10166740  175.77400208    4.90999985    1.63000000
   12.10472298  203.81399536    4.90999985    1.63000000
   12.10805607  212.26499939    4.90999985    1.64999998
   12.11111164  235.08599854    4.90999985    1.64999998
   12.11361122  248.88200378    4.90999985    1.64999998
   12.11500072  262.65899658    4.90999985    1.64999998
   12.11805534  269.44500732    4.90999985    1.66999996
   12.12416649  269.44500732    4.90999985    1.64999998
   12.12833309  321.17199707    4.90999985    1.66999996
   12.13027763  365.31698608    4.90999985    1.66999996
   12.13166714  360.82998657    4.90999985    1.66999996
   12.13305569  347.89801025    4.90999985    1.66999996
   12.13444424  376.01800537    4.90999985    1.66999996
   12.13583279  358.26501465    4.90999985    1.66999996
   12.13722229  336.71398926    4.90999985    1.66999996
   12.13861084  361.20498657    4.90999985    1.66999996
   12.14000034  365.85998535    4.90999985    1.66999996
   12.14138889  363.63699341    4.90999985    1.66999996
   12.14277744  385.68301392    4.90999985    1.66999996
   12.14416695  369.05099487    4.90999985    1.66999996
   12.14555550  396.87701416    4.90999985    1.69000006
   12.14694405  398.20001221    4.90999985    1.69000006
   12.14833355  405.03298950    4.90999985    1.69000006
   12.14972210  402.51000977    4.90999985    1.69000006
   12.15111065  396.29901123    4.90999985    1.69000006
   12.15249920  405.61300659    4.90999985    1.69000006
   12.15388870  456.95800781    4.90999985    1.69000006
   12.15527725  417.32598877    4.90999985    1.69000006
   12.15666676  444.00799561    4.90999985    1.69000006
   12.15805531  557.89501953    4.90999985    1.71000004
   12.15944386  434.64801025    4.90999985    1.69000006
   12.16083336  487.37899780    4.90999985    1.69000006
   12.16222191  575.36901855    4.90999985    1.69000006
   12.16361046  632.19000244    4.90999985    1.69000006
   12.16499996  472.48498535    4.90999985    1.69000006
   12.16638851  557.56298828    4.90999985    1.69000006
   12.16777802  545.50000000    4.90999985    1.71000004
   12.16916656  480.99700928    4.90999985    1.71000004
   12.17055607  635.50402832    4.90999985    1.71000004
   12.17194462  518.38800049    4.90999985    1.71000004
   12.17333412  570.05297852    4.90999985    1.71000004
   12.17472267  578.32897949    4.90999985    1.71000004
   12.17611122  566.15502930    4.90999985    1.71000004
   12.17750072  690.57598877    4.90999985    1.71000004
   12.17888927  632.65600586    4.90999985    1.71000004
   12.18027782  627.01300049    4.90999985    1.73000002
   12.18166733  637.58697510    4.90999985    1.71000004
   12.18305588  609.80200195    4.90999985    1.73000002
   12.18444443  610.97399902    4.90999985    1.73000002
   12.18583298  587.93402100    4.90999985    1.73000002
   12.18722248  575.99401855    4.90999985    1.73000002
   12.18861103  583.05200195    4.90999985    1.73000002
   12.19000053  642.60302734    4.90999985    1.73000002
   12.19138908  560.10998535    4.90999985    1.73000002
   12.19277763  577.95202637    4.90999985    1.75000000
   12.19416714  570.23901367    4.90999985    1.73000002
   12.19555569  632.65301514    4.90999985    1.75000000
   12.19694424  630.95001221    4.90999985    1.73000002
   12.19833374  615.72601318    4.90999985    1.73000002
   12.19972229  590.98999023    4.90999985    1.73000002
   12.20111084  656.09399414    4.90999985    1.73000002
   12.20249939  602.05102539    4.90999985    1.73000002
   12.20388889  614.29699707    4.90999985    1.73000002
   12.20527744  600.27301025    4.90999985    1.73000002
   12.20666695  617.59399414    4.90999985    1.73000002
   12.20805550  596.21002197    4.90999985    1.73000002
   12.20944405  604.52899170    4.90999985    1.73000002
   12.21083355  608.52099609    4.90999985    1.73000002
   12.21222210  652.26800537    4.90999985    1.73000002
   12.21361065  622.65600586    4.90999985    1.73000002
   12.21500015  622.46502686    4.90999985    1.73000002
   12.21638870  646.45599365    4.90999985    1.73000002
   12.21777725  613.51000977    4.90999985    1.73000002
   12.21916580  640.68597412    4.90999985    1.75000000
   12.22055531  639.85198975    4.90999985    1.75000000
   12.22194386  663.97100830    4.90999985    1.75000000
   12.22333336  643.76397705    4.90999985    1.75000000
   12.22472191  628.98498535    4.90999985    1.75000000
   12.22611046  658.78100586    4.90999985    1.75000000
   12.22749996  638.63397217    4.90999985    1.75000000
   12.22888851  586.08697510    4.90999985    1.75000000
   12.23027706  660.09802246    4.90999985    1.75000000
   12.23166656  645.98999023    4.90999985    1.75000000
   12.23305511  623.00097656    4.90999985    1.75000000
   12.23444462  635.12200928    4.90999985    1.76999998
   12.23583317  645.89300537    4.90999985    1.76999998
   12.23722267  631.32800293    4.90999985    1.76999998
   12.23861122  634.91400146    4.90999985    1.76999998
   12.24000072  654.40197754    4.90999985    1.76999998
   12.24138927  640.48901367    4.90999985    1.76999998
   12.24277782  645.15899658    4.90999985    1.76999998
   12.24416733  600.20501709    4.90999985    1.76999998
   12.24555588  604.52801514    4.90999985    1.76999998
   12.24694443  654.37402344    4.90999985    1.76999998
   12.24833393  666.84698486    4.90999985    1.76999998
   12.24972248  605.38800049    4.90999985    1.76999998
   12.25111103  605.69500732    4.90999985    1.78999996
   12.25249958  627.81500244    4.90999985    1.78999996
   12.25388908  621.71398926    4.90999985    1.78999996
   12.25527763  678.42199707    4.90999985    1.78999996
   12.25666714  540.49298096    4.90999985    1.78999996
   12.25805569  521.55297852    4.90999985    1.78999996
   12.25944424  559.24499512    4.90999985    1.78999996
   12.26083374  560.84802246    4.90999985    1.78999996
   12.26222229  593.46899414    4.90999985    1.78999996
   12.26361084  535.26098633    4.90999985    1.78999996
   12.26500034  530.12799072    4.90999985    1.78999996
   12.26638889  603.93798828    4.90999985    1.78999996
   12.26777744  587.95397949    4.90999985    1.78999996
   12.26916599  529.99102783    4.90999985    1.80999994
   12.27055550  597.45300293    4.90999985    1.78999996
   12.27194405  554.17297363    4.90999985    1.80999994
   12.27333355  557.37701416    4.90999985    1.78999996
   12.27472210  588.15600586    4.90999985    1.80999994
   12.27611065  524.99499512    4.90999985    1.80999994
   12.27750015  563.84301758    4.90999985    1.80999994
   12.27888870  603.16900635    4.90999985    1.80999994
   12.28027725  536.30499268    4.90999985    1.78999996
   12.28166676  534.36401367    4.90999985    1.80999994
   12.28305531  568.29602051    4.90999985    1.78999996
   12.28444481  570.94000244    4.90999985    1.80999994
   12.28583336  596.23602295    4.90999985    1.80999994
   12.28722286  551.27398682    4.90999985    1.78999996
   12.28861141  581.33801270    4.90999985    1.80999994
   12.29000092  540.45800781    4.90999985    1.80999994
   12.29138947  621.99298096    4.90999985    1.78999996
   12.29277802  597.47998047    4.90999985    1.80999994
   12.29416752  593.31799316    4.90999985    1.80999994
   12.29555607  650.50799561    4.90999985    1.80999994
   12.29694462  539.23400879    4.90999985    1.80999994
   12.29833412  544.42297363    4.90999985    1.80999994
   12.29972267  561.52001953    4.90999985    1.80999994
   12.30111122  558.16998291    4.90999985    1.80999994
   12.30249977  565.77099609    4.90999985    1.80999994
   12.30388927  554.96398926    4.90999985    1.80999994
   12.30527782  533.42401123    4.90999985    1.80999994
   12.30666733  549.21002197    4.90999985    1.80999994
   12.30805588  573.90899658    4.90999985    1.80999994
   12.30944443  510.38500977    4.90999985    1.80999994
   12.31083393  501.36599731    4.90999985    1.80999994
   12.31222248  604.93902588    4.90999985    1.80999994
   12.31361103  499.95199585    4.90999985    1.80999994
   12.31500053  566.27398682    4.90999985    1.80999994
   12.31638908  524.06597900    4.90999985    1.80999994
   12.31777763  517.59002686    4.90999985    1.80999994
   12.31916618  539.58898926    4.90999985    1.80999994
   12.32055569  555.92199707    4.90999985    1.83000004
   12.32194424  535.39001465    4.90999985    1.80999994
   12.32333374  553.54400635    4.90999985    1.83000004
   12.32472229  553.10302734    4.90999985    1.83000004
   12.32611084  584.19799805    4.90999985    1.83000004
   12.32750034  535.66900635    4.90999985    1.83000004
   12.32888889  527.03997803    4.90999985    1.83000004
   12.33027744  557.40899658    4.90999985    1.83000004
   12.33166695  505.96600342    4.90999985    1.83000004
   12.33305550  477.94900513    4.90999985    1.83000004
   12.33444405  512.92199707    4.90999985    1.83000004
   12.33583260  522.02600098    4.90999985    1.83000004
   12.33722210  493.51501465    4.90999985    1.83000004
   12.33861065  548.91900635    4.90999985    1.83000004
   12.34000015  483.42700195    4.90999985    1.83000004
   12.34138870  481.10800171    4.90999985    1.83000004
   12.34277725  540.59802246    4.90999985    1.83000004
   12.34416676  532.65899658    4.90999985    1.83000004
   12.34555531  541.31298828    4.90999985    1.85000002
   12.34694386  547.33801270    4.90999985    1.85000002
   12.34833336  515.15502930    4.90999985    1.83000004
   12.34972191  502.42098999    4.90999985    1.83000004
   12.35111141  492.44000244    4.90999985    1.85000002
   12.35249996  479.04800415    4.90999985    1.83000004
   12.35388947  530.78997803    4.90999985    1.85000002
   12.35527802  482.04998779    4.90999985    1.85000002
   12.35666752  487.38800049    4.90999985    1.85000002
   12.35805607  489.10299683    4.90999985    1.85000002
   12.35944462  484.00900269    4.90999985    1.85000002
   12.36083412  475.97399902    4.90999985    1.85000002
   12.36222267  497.78799438    4.90999985    1.85000002
   12.36361122  457.37500000    4.90999985    1.85000002
   12.36500072  470.70199585    4.90999985    1.85000002
   12.36638927  513.71398926    4.90999985    1.85000002
   12.36777782  523.26501465    4.90999985    1.85000002
   12.36916637  491.23599243    4.90999985    1.85000002
   12.37055588  446.63400269    4.90999985    1.85000002
   12.37194443  496.32101440    4.90999985    1.85000002
   12.37333393  445.89999390    4.90999985    1.85000002
   12.37472248  447.34899902    4.90999985    1.85000002
   12.37611103  470.80499268    4.90999985    1.85000002
   12.37750053  476.62100220    4.90999985    1.85000002
   12.37888908  451.76199341    4.90999985    1.85000002
   12.38027763  482.31100464    4.90999985    1.85000002
   12.38166714  456.16000366    4.90999985    1.85000002
   12.38305569  476.26199341    4.90999985    1.85000002
   12.38444424  442.40701294    4.90999985    1.85000002
   12.38583279  505.64001465    4.90999985    1.85000002
   12.38722229  493.32400513    4.90999985    1.85000002
   12.38861084  437.90798950    4.90999985    1.85000002
   12.39000034  508.68600464    4.90999985    1.86000001
   12.39138889  478.75100708    4.90999985    1.85000002
   12.39277744  429.38198853    4.90999985    1.86000001
   12.39416695  427.36599731    4.90999985    1.86000001
   12.39555550  438.50201416    4.90999985    1.86000001
   12.39694405  468.49200439    4.90999985    1.86000001
   12.39833355  481.58300781    4.90999985    1.86000001
   12.39972210  498.81900024    4.90999985    1.85000002
   12.40111065  470.13101196    4.90999985    1.86000001
   12.40249920  448.55899048    4.90999985    1.85000002
   12.40388870  414.83200073    4.90999985    1.86000001
   12.40527725  469.57501221    4.90999985    1.86000001
   12.40666676  465.85000610    4.90999985    1.86000001
   12.40805531  404.10400391    4.90999985    1.86000001
   12.40944386  458.93099976    4.90999985    1.86000001
   12.41083336  477.59201050    4.90999985    1.86000001
   12.41222191  432.99600220    4.90999985    1.86000001
   12.41361046  421.23800659    4.90999985    1.86000001
   12.41499996  413.00698853    4.90999985    1.86000001
   12.41638851  435.14001465    4.90999985    1.86000001
   12.41777802  435.47900391    4.90999985    1.86000001
   12.41916656  456.86300659    4.90999985    1.86000001
   12.42055607  500.06201172    4.90999985    1.86000001
   12.42194462  480.55899048    4.90999985    1.86000001
   12.42333412  438.57501221    4.90999985    1.86000001
   12.42472267  469.06100464    4.90999985    1.86000001
   12.42611122  470.20498657    4.90999985    1.86000001
   12.42750072  471.85101318    4.90999985    1.88000000
   12.42888927  467.43899536    4.90999985    1.88000000
   12.43027782  453.76599121    4.90999985    1.88000000
   12.43166733  425.38400269    4.90999985    1.88000000
   12.43305588  380.75201416    4.90999985    1.88000000
   12.43444443  425.82199097    4.90999985    1.88000000
   12.43583298  434.10101318    4.90999985    1.88000000
   12.43722248  443.77801514    4.90999985    1.88000000
   12.43861103  396.67498779    4.90999985    1.88000000
   12.44000053  422.09201050    4.90999985    1.88000000
   12.44138908  405.77099609    4.90999985    1.88000000
   12.44277763  397.18499756    4.90999985    1.88000000
   12.44416714  367.37701416    4.90999985    1.88000000
   12.44555569  425.85101318    4.90999985    1.88000000
   12.44694424  412.66799927    4.90999985    1.88000000
   12.44833374  413.90600586    4.90999985    1.88000000
   12.44972229  399.65499878    4.90999985    1.88000000
   12.45111084  394.93899536    4.90999985    1.88000000
   12.45249939  378.14599609    4.90999985    1.88000000
   12.45388889  417.59899902    4.90999985    1.88000000
   12.45527744  409.19699097    4.90999985    1.88000000
   12.45666695  375.01199341    4.90999985    1.88000000
   12.45805550  366.60699463    4.90999985    1.88000000
   12.45944405  381.05200195    4.90999985    1.88000000
   12.46083355  379.67401123    4.90999985    1.88000000
   12.46222210  381.15200806    4.90999985    1.89999998
   12.46361065  344.77099609    4.90999985    1.89999998
   12.46500015  351.69601440    4.90999985    1.88000000
   12.46638870  365.07000732    4.90999985    1.88000000
   12.46777725  379.93099976    4.90999985    1.89999998
   12.46916580  392.22299194    4.90999985    1.89999998
   12.47055531  374.49398804    4.90999985    1.89999998
   12.47194386  353.82998657    4.90999985    1.89999998
   12.47333336  328.32699585    4.90999985    1.89999998
   12.47472191  347.84799194    4.90999985    1.89999998
   12.47611046  338.05700684    4.90999985    1.89999998
   12.47749996  371.59899902    4.90999985    1.89999998
   12.47888851  319.39401245    4.90999985    1.89999998
   12.48027706  315.54299927    4.90999985    1.89999998
   12.48166656  352.66500854    4.90999985    1.89999998
   12.48305511  341.79098511    4.90999985    1.89999998
   12.48444462  354.40399170    4.90999985    1.89999998
   12.48583317  327.92199707    4.90999985    1.91999996
   12.48722267  337.59399414    4.90999985    1.89999998
   12.48861122  314.83898926    4.90999985    1.89999998
   12.49000072  337.58099365    4.90999985    1.91999996
   12.49138927  348.54098511    4.90999985    1.89999998
   12.49277782  335.97299194    4.90999985    1.91999996
   12.49416733  345.37200928    4.90999985    1.91999996
   12.49555588  335.82598877    4.90999985    1.91999996
   12.49694443  349.66299438    4.90999985    1.91999996
   12.49833393  334.36898804    4.90999985    1.91999996
   12.49972248  374.22100830    4.90999985    1.91999996
   12.50111103  329.69400024    4.90999985    1.91999996
   12.50249958  344.10400391    4.90999985    1.91999996
   12.50388908  348.11499023    4.90999985    1.91999996
   12.50527763  388.07998657    4.90999985    1.91999996
   12.50666714  357.19198608    4.90999985    1.91999996
   12.50805569  355.10598755    4.90999985    1.91999996
   12.50944424  356.23199463    4.90999985    1.91999996
   12.51083374  399.29000854    4.90999985    1.91999996
   12.51222229  376.93499756    4.90999985    1.91999996
   12.51361084  359.35400391    4.90999985    1.91999996
   12.51500034  347.22799683    4.90999985    1.91999996
   12.51638889  427.08300781    4.90999985    1.91999996
   12.51777744  334.95498657    4.90999985    1.94000006
   12.51916599  358.81298828    4.90999985    1.91999996
   12.52055550  340.56500244    4.90999985    1.91999996
   12.52194405  324.51699829    4.90999985    1.94000006
   12.52333355  351.64700317    4.90999985    1.94000006
   12.52472210  361.82598877    4.90999985    1.91999996
   12.52611065  321.00799561    4.90999985    1.91999996
   12.52750015  350.56100464    4.90999985    1.91999996
   12.52888870  370.40100098    4.90999985    1.94000006
   12.53027725  337.90499878    4.90999985    1.94000006
   12.53166676  352.71499634    4.90999985    1.94000006
   12.53305531  357.88000488    4.90999985    1.94000006
   12.53444481  346.43600464    4.90999985    1.94000006
   12.53583336  367.60501099    4.90999985    1.94000006
   12.53722286  340.53500366    4.90999985    1.94000006
   12.53861141  351.76000977    4.90999985    1.94000006
   12.54000092  343.01501465    4.90999985    1.94000006
   12.54138947  362.69601440    4.90999985    1.94000006
   12.54277802  373.86700439    4.90999985    1.94000006
   12.54416752  375.24200439    4.90999985    1.94000006
   12.54555607  362.71899414    4.90999985    1.94000006
   12.54694462  353.22299194    4.90999985    1.94000006
   12.54833412  375.27999878    4.90999985    1.94000006
   12.54972267  351.53601074    4.90999985    1.94000006
   12.55111122  367.81201172    4.90999985    1.94000006
   12.55249977  348.39300537    4.90999985    1.94000006
   12.55388927  340.96398926    4.90999985    1.94000006
   12.55527782  353.43200684    4.90999985    1.94000006
   12.55666733  356.17599487    4.90999985    1.94000006
   12.55805588  340.80499268    4.90999985    1.94000006
   12.55944443  334.44100952    4.90999985    1.94000006
   12.56083393  323.53601074    4.90999985    1.94000006
   12.56222248  358.47900391    4.90999985    1.96000004
   12.56361103  369.51501465    4.90999985    1.96000004
   12.56500053  378.20800781    4.90999985    1.96000004
   12.56638908  343.56799316    4.90999985    1.96000004
   12.56777763  356.90301514    4.90999985    1.96000004
   12.56916618  363.26800537    4.90999985    1.96000004
   12.57055569  354.85998535    4.90999985    1.96000004
   12.57194424  366.97601318    4.90999985    1.94000006
   12.57333374  330.05300903    4.90999985    1.96000004
   12.57472229  323.44799805    4.90999985    1.96000004
   12.57611084  347.86199951    4.90999985    1.96000004
   12.57750034  340.85800171    4.90999985    1.96000004
   12.57888889  314.83700562    4.90999985    1.96000004
   12.58027744  345.65100098    4.90999985    1.96000004
   12.58166695  368.91900635    4.90999985    1.94000006
   12.58305550  408.68701172    4.90999985    1.96000004
   12.58444405  347.46899414    4.90999985    1.96000004
   12.58583260  308.98901367    4.90999985    1.96000004
   12.58722210  352.09600830    4.90999985    1.96000004
   12.58861065  326.36401367    4.90999985    1.96000004
   12.59000015  376.22799683    4.90999985    1.96000004
   12.59138870  411.57299805    4.90999985    1.96000004
   12.59277725  276.60299683    4.90999985    1.96000004
   12.59416676  334.27801514    4.90999985    1.96000004
   12.59555531  347.11499023    4.90999985    1.96000004
   12.59694386  335.68200684    4.90999985    1.96000004
   12.59833336  384.26699829    4.90999985    1.96000004
   12.59972191  357.32400513    4.90999985    1.96000004
   12.60111141  372.67098999    4.90999985    1.96000004
   12.60249996  415.48300171    4.90999985    1.96000004
   12.60388947  376.51800537    4.90999985    1.94000006
   12.60527802  326.77600098    4.90999985    1.96000004
   12.60666752  303.99499512    4.90999985    1.96000004
   12.60805607  350.39898682    4.90999985    1.96000004
   12.60944462  342.09899902    4.90999985    1.96000004
   12.61083412  332.37701416    4.90999985    1.96000004
   12.61222267  314.04800415    4.90999985    1.96000004
   12.61361122  337.91198730    4.90999985    1.96000004
   12.61500072  316.97900391    4.90999985    1.96000004
   12.61638927  312.35101318    4.90999985    1.96000004
   12.61777782  336.51000977    4.90999985    1.98000002
   12.61916637  303.98400879    4.90999985    1.96000004
   12.62055588  317.73400879    4.90999985    1.96000004
   12.62194443  292.49899292    4.90999985    1.98000002
   12.62333393  329.22601318    4.90999985    1.98000002
   12.62472248  306.63400269    4.90999985    1.98000002
   12.62611103  346.49200439    4.90999985    1.98000002
   12.62750053  335.00698853    4.90999985    1.98000002
   12.62888908  318.48699951    4.90999985    1.98000002
   12.63027763  324.12899780    4.90999985    1.98000002
   12.63166714  305.04098511    4.90999985    1.98000002
   12.63305569  324.65899658    4.90999985    1.98000002
   12.63444424  319.94000244    4.90999985    1.98000002
   12.63583279  336.93600464    4.90999985    1.98000002
   12.63722229  324.24499512    4.90999985    1.98000002
   12.63861084  321.49798584    4.90999985    2.00000000
   12.64000034  310.07800293    4.90999985    2.00000000
   12.64138889  331.36499023    4.90999985    2.00000000
   12.64277744  311.50698853    4.90999985    2.00000000
   12.64416695  334.00399780    4.90999985    2.00000000
   12.64555550  312.21398926    4.90999985    2.00000000
   12.64694405  326.43200684    4.90999985    2.00000000
   12.64833355  326.86999512    4.90999985    2.00000000
   12.64972210  303.95199585    4.90999985    2.00000000
   12.65111065  315.22100830    4.90999985    2.00000000
   12.65249920  314.57501221    4.90999985    2.00000000
   12.65388870  317.38000488    4.90999985    2.00000000
   12.65527725  322.65600586    4.90999985    1.98000002
   12.65666676  308.21200562    4.90999985    2.00000000
   12.65805531  295.27600098    4.90999985    2.01999998
   12.65944386  292.97000122    4.90999985    2.00000000
   12.66083336  303.15701294    4.90999985    2.00000000
   12.66222191  304.61499023    4.90999985    2.00000000
   12.66361046  310.60501099    4.90999985    2.00000000
   12.66499996  302.17700195    4.90999985    2.00000000
   12.66638851  294.89898682    4.90999985    2.00000000
   12.66777802  304.48599243    4.90999985    2.00000000
   12.66916656  281.42700195    4.90999985    2.00000000
   12.67055607  298.92300415    4.90999985    2.00000000
   12.67194462  305.50399780    4.90999985    2.00000000
   12.67333412  288.25399780    4.90999985    2.00000000
   12.67472267  305.90399170    4.90999985    2.00000000
   12.67611122  297.63699341    4.90999985    2.01999998
   12.67750072  294.25299072    4.90999985    2.01999998
   12.67888927  300.24899292    4.90999985    2.00000000
   12.68027782  294.50900269    4.90999985    2.01999998
   12.68166733  290.17001343    4.90999985    2.00000000
   12.68305588  276.50698853    4.90999985    2.01999998
   12.68444443  302.25399780    4.90999985    2.00000000
   12.68583298  285.58801270    4.90999985    2.00000000
   12.68722248  282.82998657    4.90999985    2.00000000
   12.68861103  272.22900391    4.90999985    2.00000000
   12.69000053  260.57400513    4.90999985    2.01999998
   12.69138908  270.85198975    4.90999985    2.00000000
   12.69277763  295.62100220    4.90999985    2.01999998
   12.69416714  268.19400024    4.90999985    2.01999998
   12.69555569  270.86099243    4.90999985    2.01999998
   12.69694424  262.72799683    4.90999985    2.00000000
   12.69833374  294.43798828    4.90999985    2.01999998
   12.69972229  271.31698608    4.90999985    2.01999998
   12.70111084  283.53698730    4.90999985    2.01999998
   12.70249939  279.55899048    4.90999985    2.01999998
   12.70388889  263.27700806    4.90999985    2.01999998
   12.70527744  279.64199829    4.90999985    2.01999998
   12.70666695  270.97500610    4.90999985    2.01999998
   12.70805550  284.23599243    4.90999985    2.01999998
   12.70944405  295.82901001    4.90999985    2.01999998
   12.71083355  282.60900879    4.90999985    2.01999998
   12.71222210  278.19900513    4.90999985    2.01999998
   12.71361065  279.70098877    4.90999985    2.01999998
   12.71500015  272.22799683    4.90999985    2.01999998
   12.71638870  266.37298584    4.90999985    2.00000000
   12.71777725  267.94900513    4.90999985    2.01999998
   12.71916580  292.17498779    4.90999985    2.01999998
   12.72055531  279.00500488    4.90999985    2.01999998
   12.72194386  252.46800232    4.90999985    2.00000000
   12.72333336  276.08898926    4.90999985    2.01999998
   12.72472191  277.04699707    4.90999985    2.01999998
   12.72611046  268.14801025    4.90999985    2.01999998
   12.72749996  269.82901001    4.90999985    2.01999998
   12.72888851  287.18600464    4.90999985    2.01999998
   12.73027706  271.19799805    4.90999985    2.01999998
   12.73166656  275.59799194    4.90999985    2.01999998
   12.73305511  274.11401367    4.90999985    2.01999998
   12.73444462  259.57400513    4.90999985    2.01999998
   12.73583317  279.66900635    4.90999985    2.01999998
   12.73722267  274.43099976    4.90999985    2.01999998
   12.73861122  260.43600464    4.90999985    2.01999998
   12.74000072  257.44100952    4.90999985    2.03999996
   12.74138927  271.76000977    4.90999985    2.03999996
   12.74277782  288.78900146    4.90999985    2.03999996
   12.74416733  283.97399902    4.90999985    2.03999996
   12.74555588  245.77000427    4.90999985    2.03999996
   12.74555588  139.60800171    4.90999985    1.61000001
   12.74583340  167.06500244    4.90999985    1.63000000
   12.74583340  175.77400208    4.90999985    1.63000000
   12.74583340  203.81399536    4.90999985    1.63000000
   12.74611092  212.26499939    4.90999985    1.64999998
   12.74611092  235.08599854    4.90999985    1.64999998
   12.74611092  262.65899658    4.90999985    1.64999998
   12.74638939  269.44500732    4.90999985    1.66999996
   12.74638939  321.17199707    4.90999985    1.66999996
   12.74694443  277.55801392    4.90999985    2.03999996
   12.75000000  277.97299194    4.90999985    2.03999996
   12.75333309  266.34799194    4.90999985    2.05999994
   12.75666714  272.00900269    4.90999985    2.03999996
   12.75972176  267.51199341    4.90999985    2.05999994
   12.76638889  267.51199341    4.90999985    2.05999994
   12.77055550  251.89399719    4.90999985    2.05999994
   12.77361107  263.83099365    4.90999985    2.03999996
   12.77694416  262.80300903    4.90999985    2.05999994
   12.77944374  270.27301025    4.90999985    2.05999994
   12.78027725  257.21301270    4.90999985    2.05999994
   12.78361130  253.81100464    4.90999985    2.05999994
   12.78694534  254.88099670    4.90999985    2.05999994
   12.79000092  244.13200378    4.90999985    2.05999994
   12.79333401  243.22799683    4.90999985    2.05999994
   12.79638958  254.33999634    4.90999985    2.05999994
   12.79972267  245.13299561    4.90999985    2.07999992
   12.80277824  250.85400391    4.90999985    2.05999994
   12.80916691  250.85400391    4.90999985    2.07999992
   12.81333351  269.50000000    4.90999985    2.07999992
   12.81666660  267.63299561    4.90999985    2.09999990
   12.81972218  266.67700195    4.90999985    2.09999990
   12.82305527  247.57099915    4.90999985    2.07999992
   12.82611084  271.23400879    4.90999985    2.09999990
   12.82944393  253.02600098    4.90999985    2.07999992
   12.83277798  249.61799622    4.90999985    2.07999992
   12.83583260  259.80999756    4.90999985    2.07999992
   12.83916664  251.53500366    4.90999985    2.09999990
   12.84222221  235.22500610    4.90999985    2.09999990
   12.84555531  226.84199524    4.90999985    2.09999990
   12.84611034  254.05000305    4.90999985    2.09999990
   12.86722279  254.05000305    4.90999985    2.11999989
   12.87138939  263.81799316    4.90999985    2.11999989
   12.87472248  248.91099548    4.90999985    2.11999989
   12.87777805  225.21899414    4.90999985    2.11999989
   12.87944412  239.53300476    4.90999985    2.11999989
   12.88138866  241.05900574    4.90999985    2.13000011
   12.88472176  242.04699707    4.90999985    2.13000011
   12.88805580  203.07699585    4.90999985    2.13000011
   12.89111137  232.77400208    4.90999985    2.13000011
   12.89444447  207.50599670    4.90999985    2.13000011
   12.89750004  211.79400635    4.90999985    2.13000011
   12.90083313  227.99099731    4.90999985    2.13000011
   12.90388870  224.06100464    4.90999985    2.13000011
   12.90999985  224.06100464    4.90999985    2.13000011
   12.91416645  221.02600098    4.90999985    2.13000011
   12.91750050  222.14100647    4.90999985    2.15000010
   12.92055607  238.63200378    4.90999985    2.15000010
   12.92388916  223.60600281    4.90999985    2.15000010
   12.92694473  230.77499390    4.90999985    2.15000010
   12.93027782  217.21200562    4.90999985    2.15000010
   12.93361092  230.09500122    4.90999985    2.15000010
   12.93666649  224.37500000    4.90999985    2.15000010
   12.94000053  211.19700623    4.90999985    2.15000010
   12.94305515  215.19099426    4.90999985    2.15000010
   12.94611073  207.19200134    4.90999985    2.13000011
   12.94666672  220.38099670    4.90999985    2.15000010
   12.95305538  220.38099670    4.90999985    2.17000008
   12.95694447  293.95901489    4.90999985    2.15000010
   12.96027756  307.57800293    4.90999985    2.15000010
   12.96222210  220.68699646    4.90999985    2.15000010
   12.96249962  224.37500000    4.90999985    2.15000010
   12.96249962  211.19700623    4.90999985    2.15000010
   12.96249962  215.19099426    4.90999985    2.15000010
   12.96277714  220.38099670    4.90999985    2.15000010
   12.96277714  293.95901489    4.90999985    2.15000010
   12.96277714  307.57800293    4.90999985    2.15000010
   12.96305561  230.77499390    4.90999985    2.15000010
   12.96305561  217.21200562    4.90999985    2.15000010
   12.96305561  230.09500122    4.90999985    2.15000010
   12.96472168  199.95799255    4.90999985    2.15000010
   12.96805477  221.33900452    4.90999985    2.15000010
   12.97111034  221.78100586    4.90999985    2.15000010
   12.97444439  230.44599915    4.90999985    2.17000008
   12.97777748  242.72000122    4.90999985    2.15000010
   12.98305511  242.72000122    4.90999985    2.15000010
   12.98722267  247.84300232    4.90999985    2.17000008
   12.99055576  229.37199402    4.90999985    2.17000008
   12.99361134  262.37200928    4.90999985    2.17000008
   12.99611092  246.74099731    4.90999985    2.17000008
   12.99722290  247.31900024    4.90999985    2.17000008
   13.00027752  248.34599304    4.90999985    2.17000008
   13.00361156  255.97200012    4.90999985    2.17000008
   13.00694466  231.20199585    4.90999985    2.19000006
   13.01000023  260.52600098    4.90999985    2.17000008
   13.01333332  239.19500732    4.90999985    2.17000008
   13.01638889  261.63299561    4.90999985    2.17000008
   13.01972198  241.44500732    4.90999985    2.17000008
   13.02583313  241.44500732    4.90999985    2.17000008
   13.02999973  230.02699280    4.90999985    2.19000006
   13.03333378  252.63900757    4.90999985    2.19000006
   13.03638935  242.96800232    4.90999985    2.19000006
   13.03972244  231.66900635    4.90999985    2.19000006
   13.04305553  210.16000366    4.90999985    2.19000006
   13.04611111  243.90899658    4.90999985    2.19000006
   13.04944515  252.28300476    4.90999985    2.19000006
   13.05249977  234.16200256    4.90999985    2.19000006
   13.05583382  227.68899536    4.90999985    2.21000004
   13.05888939  226.47200012    4.90999985    2.21000004
   13.06222248  239.03900146    4.90999985    2.21000004
   13.06277752  236.88200378    4.90999985    2.21000004
   13.06888866  236.88200378    4.90999985    2.21000004
   13.07305527  219.30099487    4.90999985    2.21000004
   13.07611084  216.17900085    4.90999985    2.21000004
   13.07944393  210.52600098    4.90999985    2.21000004
   13.08249950  206.31799316    4.90999985    2.21000004
   13.08583260  220.24400330    4.90999985    2.21000004
   13.08888817  233.78999329    4.90999985    2.21000004
   13.09222221  219.79600525    4.90999985    2.21000004
   13.09555531  232.80799866    4.90999985    2.21000004
   13.09611034  222.53500366    4.90999985    2.21000004
   13.09916592  220.14500427    4.90999985    2.21000004
   13.10222244  216.68600464    4.90999985    2.23000002
   13.10555553  208.33000183    4.90999985    2.23000002
   13.11166668  208.33000183    4.90999985    2.23000002
   13.11583328  208.24099731    4.90999985    2.23000002
   13.11888885  205.13099670    4.90999985    2.23000002
   13.12222195  208.29699707    4.90999985    2.25000000
   13.12527752  169.71099854    4.90999985    2.23000002
   13.12861156  204.23100281    4.90999985    2.25000000
   13.12944412  219.80200195    4.90999985    2.23000002
   13.13222218  223.04899597    4.90999985    2.25000000
   13.13527775  196.64199829    4.90999985    2.25000000
   13.13861084  226.84500122    4.90999985    2.23000002
   13.14194393  202.66000366    4.90999985    2.23000002
   13.14499950  200.32600403    4.90999985    2.25000000
   13.14833355  200.27999878    4.90999985    2.25000000
   13.15444374  200.27999878    4.90999985    2.25000000
   13.15861034  221.01400757    4.90999985    2.25000000
   13.16194439  223.70899963    4.90999985    2.25000000
   13.16277695  193.22599792    4.90999985    2.25000000
   13.16555500  203.28999329    4.90999985    2.26999998
   13.16888905  194.58000183    4.90999985    2.25000000
   13.17194462  203.63499451    4.90999985    2.25000000
   13.17527771  195.65899658    4.90999985    2.25000000
   13.17833328  204.79899597    4.90999985    2.25000000
   13.18166733  182.97000122    4.90999985    2.23000002
   13.18472195  205.08099365    4.90999985    2.25000000
   13.18805599  212.11900330    4.90999985    2.25000000
   13.19138908  207.78799438    4.90999985    2.25000000
   13.19722271  207.78799438    4.90999985    2.25000000
   13.20138836  223.33399963    4.90999985    2.25000000
   13.20472240  207.55099487    4.90999985    2.26999998
   13.20777798  218.38200378    4.90999985    2.26999998
   13.21111107  201.98399353    4.90999985    2.26999998
   13.21444416  197.78199768    4.90999985    2.26999998
   13.21749973  197.26100159    4.90999985    2.26999998
   13.22083282  200.03500366    4.90999985    2.26999998
   13.22388840  201.15800476    4.90999985    2.26999998
   13.22722149  191.99499512    4.90999985    2.26999998
   13.22944355  192.19599915    4.90999985    2.28999996
   13.23083305  197.20799255    4.90999985    2.28999996
   13.23416710  213.36500549    4.90999985    2.28999996
   13.24027824  213.36500549    4.90999985    2.26999998
   13.24444485  197.07299805    4.90999985    2.26999998
   13.24750042  185.78500366    4.90999985    2.28999996
   13.25083351  188.64900208    4.90999985    2.26999998
   13.25388908  207.37800598    4.90999985    2.28999996
   13.25722218  192.95199585    4.90999985    2.28999996
   13.26027775  192.25399780    4.90999985    2.28999996
   13.26277733  186.61999512    4.90999985    2.30999994
   13.26416683  206.14100647    4.90999985    2.28999996
   13.26749992  198.87500000    4.90999985    2.30999994
   13.27055550  190.77499390    4.90999985    2.28999996
   13.27388859  200.98899841    4.90999985    2.28999996
   13.27694416  189.85400391    4.90999985    2.28999996
   13.28305531  189.85400391    4.90999985    2.28999996
   13.28722286  203.89100647    4.90999985    2.28999996
   13.29027843  182.63299561    4.90999985    2.28999996
   13.29361153  214.40400696    4.90999985    2.28999996
   13.29611111  191.90699768    4.90999985    2.28999996
   13.29722309  179.46299744    4.90999985    2.30999994
   13.30055618  175.78999329    4.90999985    2.28999996
   13.30361176  190.13299561    4.90999985    2.28999996
   13.30694485  183.40699768    4.90999985    2.28999996
   13.31000042  186.47900391    4.90999985    2.30999994
   13.31333351  189.11199951    4.90999985    2.28999996
   13.31638908  191.72999573    4.90999985    2.28999996
   13.31972218  207.03300476    4.90999985    2.28999996
   13.32583332  207.03300476    4.90999985    2.28999996
   13.32999992  184.66299438    4.90999985    2.28999996
   13.33333302  186.23599243    4.90999985    2.30999994
   13.33638859  190.08799744    4.90999985    2.30999994
   13.33972168  189.04800415    4.90999985    2.28999996
   13.34277725  197.00000000    4.90999985    2.30999994
   13.34611034  193.47700500    4.90999985    2.30999994
   13.34916592  198.79600525    4.90999985    2.30999994
   13.35249996  174.43899536    4.90999985    2.30999994
   13.35583401  174.37600708    4.90999985    2.30999994
   13.35888958  166.72999573    4.90999985    2.30999994
   13.36222267  183.65100098    4.90999985    2.30999994
   13.36277771  179.11099243    4.90999985    2.30999994
   13.36861134  179.11099243    4.90999985    2.32999992
   13.37277794  184.57099915    4.90999985    2.30999994
   13.37611103  174.92199707    4.90999985    2.32999992
   13.37916660  179.78700256    4.90999985    2.30999994
   13.38249969  188.05200195    4.90999985    2.30999994
   13.38583279  167.95599365    4.90999985    2.30999994
   13.38888836  183.51699829    4.90999985    2.32999992
   13.39222240  179.92799377    4.90999985    2.32999992
   13.39555550  194.52400208    4.90999985    2.32999992
   13.39611053  184.62699890    4.90999985    2.32999992
   13.39916611  191.80700684    4.90999985    2.32999992
   13.40249920  188.72000122    4.90999985    2.32999992
   13.40555477  175.33799744    4.90999985    2.32999992
   13.41166592  175.33799744    4.90999985    2.32999992
   13.41583252  172.51300049    4.90999985    2.32999992
   13.41888905  193.92799377    4.90999985    2.32999992
   13.42222214  160.10800171    4.90999985    2.32999992
   13.42527771  174.45300293    4.90999985    2.32999992
   13.42861176  167.53199768    4.90999985    2.32999992
   13.42944431  170.06100464    4.90999985    2.32999992
   13.43222237  185.64300537    4.90999985    2.32999992
   13.43555546  190.57899475    4.90999985    2.34999990
   13.43861103  175.75300598    4.90999985    2.34999990
   13.44194412  189.19400024    4.90999985    2.34999990
   13.44499969  187.07800293    4.90999985    2.34999990
   13.44833374  204.88400269    4.90999985    2.34999990
   13.45444393  204.88400269    4.90999985    2.34999990
   13.45861053  172.55799866    4.90999985    2.30999994
   13.46166611  172.66999817    4.90999985    2.32999992
   13.46277714  186.21099854    4.90999985    2.34999990
   13.46527767  186.66499329    4.90999985    2.34999990
   13.46861076  179.80900574    4.90999985    2.34999990
   13.47166634  177.43800354    4.90999985    2.34999990
   13.47499943  167.31300354    4.90999985    2.36999989
   13.47805500  169.16600037    4.90999985    2.36999989
   13.48138809  145.06700134    4.90999985    2.36999989
   13.48472214  186.02499390    4.90999985    2.34999990
   13.48777771  173.95100403    4.90999985    2.34999990
   13.49111176  180.64999390    4.90999985    2.34999990
   13.49722290  180.64999390    4.90999985    2.34999990
   13.50138855  154.87199402    4.90999985    2.34999990
   13.50472260  177.85000610    4.90999985    2.36999989
   13.50777817  177.22500610    4.90999985    2.36999989
   13.51111126  179.34599304    4.90999985    2.34999990
   13.51416683  156.84300232    4.90999985    2.34999990
   13.51749992  182.67700195    4.90999985    2.34999990
   13.52055550  156.29699707    4.90999985    2.34999990
   13.52388859  181.38400269    4.90999985    2.36999989
   13.52722168  166.67900085    4.90999985    2.36999989
   13.52944374  179.71099854    4.90999985    2.36999989
   13.53083324  179.60000610    4.90999985    2.36999989
   13.53416729  173.37199402    4.90999985    2.36999989
   13.54000092  173.37199402    4.90999985    2.36999989
   13.54416752  165.22799683    4.90999985    2.36999989
   13.54750061  186.73599243    4.90999985    2.36999989
   13.55055618  162.85600281    4.90999985    2.36999989
   13.55388927  176.14599609    4.90999985    2.36999989
   13.55722237  174.63099670    4.90999985    2.36999989
   13.56027794  172.95199585    4.90999985    2.36999989
   13.56277752  167.85499573    4.90999985    2.36999989
   13.56388950  152.31500244    4.90999985    2.39000010
   13.56722260  173.88600159    4.90999985    2.36999989
   13.57027817  169.79299927    4.90999985    2.36999989
   13.57361126  167.71699524    4.90999985    2.39000010
   13.57666683  148.98800659    4.90999985    2.39000010
   13.58305550  148.98800659    4.90999985    2.39000010
   13.58694458  169.91799927    4.90999985    2.39000010
   13.59027767  158.50100708    4.90999985    2.36999989
   13.59361076  179.20500183    4.90999985    2.39000010
   13.59611034  170.27900696    4.90999985    2.39000010
   13.59722233  167.80000305    4.90999985    2.36999989
   13.60055637  170.67199707    4.90999985    2.39000010
   13.60361195  168.91000366    4.90999985    2.39000010
   13.60694504  171.06500244    4.90999985    2.39000010
   13.61000061  152.37100220    4.90999985    2.39000010
   13.61333370  173.04699707    4.90999985    2.36999989
   13.61666679  176.05599976    4.90999985    2.39000010
   13.61972237  165.35899353    4.90999985    2.36999989
   13.62583351  165.35899353    4.90999985    2.39000010
   13.63000011  168.68299866    4.90999985    2.39000010
   13.63305569  173.74899292    4.90999985    2.39000010
   13.63638878  154.49400330    4.90999985    2.36999989
   13.63944435  174.97200012    4.90999985    2.39000010
   13.64277744  173.41799927    4.90999985    2.39000010
   13.64611053  182.41299438    4.90999985    2.39000010
   13.64916611  172.75100708    4.90999985    2.40000010
   13.65249920  189.74899292    4.90999985    2.40000010
   13.65555477  169.98500061    4.90999985    2.40000010
   13.65888882  179.40800476    4.90999985    2.39000010
   13.66222191  182.79899597    4.90999985    2.40000010
   13.66305542  188.63800049    4.90999985    2.39000010
   13.66861153  188.63800049    4.90999985    2.39000010
   13.67277813  182.02400208    4.90999985    2.39000010
   13.67611122  179.08299255    4.90999985    2.40000010
   13.67916679  182.61999512    4.90999985    2.39000010
   13.68249989  174.91499329    4.90999985    2.40000010
   13.68555546  167.65100098    4.90999985    2.40000010
   13.68888855  156.25199890    4.90999985    2.40000010
   13.69194412  184.76499939    4.90999985    2.39000010
   13.69527817  187.68499756    4.90999985    2.40000010
   13.69638920  176.28100586    4.90999985    2.40000010
   13.69888878  185.70300293    4.90999985    2.40000010
   13.70222187  176.97599792    4.90999985    2.40000010
   13.70527744  202.14799500    4.90999985    2.40000010
   13.71166611  202.14799500    4.90999985    2.40000010
   13.71555519  160.42199707    4.90999985    2.40000010
   13.71888828  194.40499878    4.90999985    2.40000010
   13.72222137  204.73199463    4.90999985    2.40000010
   13.72527695  181.37399292    4.90999985    2.40000010
   13.72861099  184.22099304    4.90999985    2.40000010
   13.72972202  188.35000610    4.90999985    2.40000010
   13.73222160  185.78300476    4.90999985    2.39000010
   13.73555565  187.60400391    4.90999985    2.40000010
   13.73861122  177.10000610    4.90999985    2.40000010
   13.74194431  193.65699768    4.90999985    2.40000010
   13.74499989  166.85000610    4.90999985    2.39000010
   13.74833393  178.26899719    4.90999985    2.40000010
   13.75444412  178.26899719    4.90999985    2.40000010
   13.75861073  174.03199768    4.90999985    2.40000010
   13.76166630  173.92399597    4.90999985    2.40000010
   13.76305580  176.83500671    4.90999985    2.40000010
   13.76527786  187.25399780    4.90999985    2.39000010
   13.76861095  187.27000427    4.90999985    2.40000010
   13.77166653  178.77099609    4.90999985    2.40000010
   13.77499962  182.49200439    4.90999985    2.40000010
   13.77805519  192.99299622    4.90999985    2.40000010
   13.78138828  184.85099792    4.90999985    2.40000010
   13.78472233  189.69799805    4.90999985    2.40000010
   13.78777790  189.91999817    4.90999985    2.40000010
   13.79111195  160.14599609    4.90999985    2.42000008
   13.79722309  160.14599609    4.90999985    2.42000008
   13.80138874  183.17999268    4.90999985    2.42000008
   13.80444431  200.69900513    4.90999985    2.42000008
   13.80777836  188.89999390    4.90999985    2.42000008
   13.81111145  166.55200195    4.90999985    2.42000008
   13.81416702  187.39199829    4.90999985    2.42000008
   13.81750011  196.05099487    4.90999985    2.44000006
   13.82055569  186.17199707    4.90999985    2.42000008
   13.82388878  189.41299438    4.90999985    2.46000004
   13.82694435  169.81300354    4.90999985    2.44000006
   13.82972240  158.91700745    4.90999985    2.44000006
   13.83055592  152.61500549    4.90999985    2.44000006
   13.83388901  178.36199951    4.90999985    2.42000008
   13.84000015  178.36199951    4.90999985    2.42000008
   13.84416676  153.37600708    4.90999985    2.44000006
   13.84749985  160.97999573    4.90999985    2.44000006
   13.85055637  177.58599854    4.90999985    2.44000006
   13.85388947  183.01800537    4.90999985    2.46000004
   13.85694504  178.02000427    4.90999985    2.44000006
   13.86027813  181.30200195    4.90999985    2.46000004
   13.86305618  153.87100220    4.90999985    2.42000008
   13.86388969  171.63400269    4.90999985    2.44000006
   13.88444424  171.63400269    4.90999985    2.44000006
   13.88861084  157.39700317    4.90999985    2.44000006
   13.89194393  178.60800171    4.90999985    2.44000006
   13.89499950  157.68800354    4.90999985    2.44000006
   13.89638901  166.70899963    4.90999985    2.44000006
   13.89861107  182.47399902    4.90999985    2.42000008
   13.90194416  155.30900574    4.90999985    2.44000006
   13.90499973  169.79699707    4.90999985    2.44000006
   13.90833282  160.54600525    4.90999985    2.44000006
   13.91166592  179.73399353    4.90999985    2.46000004
   13.91472149  161.95199585    4.90999985    2.44000006
   13.91805553  158.02799988    4.90999985    2.46000004
   13.92111111  157.53999329    4.90999985    2.46000004
   13.92722225  157.53999329    4.90999985    2.44000006
   13.93138885  174.59100342    4.90999985    2.44000006
   13.93472195  179.86599731    4.90999985    2.46000004
   13.93777752  179.52200317    4.90999985    2.46000004
   13.94111156  156.48699951    4.90999985    2.46000004
   13.94416714  190.61799622    4.90999985    2.46000004
   13.94750023  182.69200134    4.90999985    2.46000004
   13.95083332  179.97399902    4.90999985    2.46000004
   13.95388889  197.52900696    4.90999985    2.46000004
   13.95722198  174.07200623    4.90999985    2.46000004
   13.96027756  189.20799255    4.90999985    2.46000004
   13.96305561  179.78100586    4.90999985    2.46000004
   13.96388912  179.11700439    4.90999985    2.46000004
   13.97027779  179.11700439    4.90999985    2.46000004
   13.97416592  200.89100647    4.90999985    2.46000004
   13.97749996  175.37600708    4.90999985    2.46000004
   13.98083305  197.23800659    4.90999985    2.46000004
   13.98388958  172.33700562    4.90999985    2.46000004
   13.98722267  163.14500427    4.90999985    2.46000004
   13.99055576  191.64300537    4.90999985    2.46000004
   13.99361134  200.58900452    4.90999985    2.46000004
   13.99638939  195.60200500    4.90999985    2.46000004
   13.99722290  191.84500122    4.90999985    2.48000002
   14.00055599  181.74400330    4.90999985    2.48000002
   14.00361156  180.78399658    4.90999985    2.48000002
   14.00694466  192.37500000    4.90999985    2.46000004
   14.01305580  192.37500000    4.90999985    2.46000004
   14.01722240  178.86399841    4.90999985    2.46000004
   14.02027798  185.74899292    4.90999985    2.46000004
   14.02361107  168.56900024    4.90999985    2.48000002
   14.02666664  163.57200623    4.90999985    2.48000002
   14.02972221  199.35000610    4.90999985    2.48000002
   14.03027725  189.66099548    4.90999985    2.48000002
   14.03361130  171.60899353    4.90999985    2.48000002
   14.03666687  161.41099548    4.90999985    2.48000002
   14.04000092  187.15600586    4.90999985    2.46000004
   14.04305553  156.96699524    4.90999985    2.46000004
   14.04638958  158.04400635    4.90999985    2.48000002
   14.04972267  171.32000732    4.90999985    2.46000004
   14.05583382  171.32000732    4.90999985    2.46000004
   14.06000042  176.08399963    4.90999985    2.48000002
   14.06305599  183.59100342    4.90999985    2.48000002
   14.06361103  169.84500122    4.90999985    2.48000002
   14.06694412  181.47099304    4.90999985    2.48000002
   14.06999969  167.77900696    4.90999985    2.48000002
   14.07333374  160.62800598    4.90999985    2.48000002
   14.07666683  194.27499390    4.90999985    2.48000002
   14.07972240  176.00799561    4.90999985    2.48000002
   14.08305550  187.93499756    4.90999985    2.48000002
   14.08611107  168.33700562    4.90999985    2.48000002
   14.08944416  195.74600220    4.90999985    2.48000002
   14.09277725  186.41700745    4.90999985    2.48000002
   14.09861088  186.41700745    4.90999985    2.48000002
   14.10277843  168.00300598    4.90999985    2.48000002
   14.10611153  156.64300537    4.90999985    2.48000002
   14.10916710  175.29499817    4.90999985    2.48000002
   14.11250019  175.06300354    4.90999985    2.48000002
   14.11555576  179.01600647    4.90999985    2.48000002
   14.11888885  175.15600586    4.90999985    2.50000000
   14.12222195  159.16200256    4.90999985    2.50000000
   14.12527752  170.27600098    4.90999985    2.48000002
   14.12861156  160.67300415    4.90999985    2.48000002
   14.12972260  179.35400391    4.90999985    2.48000002
   14.13222218  174.19200134    4.90999985    2.50000000
   14.13555527  186.31500244    4.90999985    2.50000000
   14.14166641  186.31500244    4.90999985    2.50000000
   14.14555550  163.26499939    4.90999985    2.50000000
   14.14888859  159.09899902    4.90999985    2.50000000
   14.15222168  150.64599609    4.90999985    2.50000000
   14.15527725  170.60800171    4.90999985    2.48000002
   14.15861034  150.34399414    4.90999985    2.50000000
   14.16166592  154.28199768    4.90999985    2.50000000
   14.16333294  159.69500732    4.90999985    2.50000000
   14.16527748  162.92500305    4.90999985    2.50000000
   14.16861153  163.94200134    4.90999985    2.50000000
   14.17166710  165.82400513    4.90999985    2.51999998
   14.17500019  149.92799377    4.90999985    2.50000000
   14.17805576  140.83000183    4.90999985    2.50000000
   14.18444443  140.83000183    4.90999985    2.50000000
   14.18861103  129.91200256    4.90999985    2.50000000
   14.19166660  155.25100708    4.90999985    2.50000000
   14.19499969  144.33900452    4.90999985    2.50000000
   14.19666672  143.25100708    4.90999985    2.50000000
   14.19861126  155.25799561    4.90999985    2.51999998
   14.20194435  152.41400146    4.90999985    2.51999998
   14.20499992  155.92999268    4.90999985    2.50000000
   14.20833302  159.43699646    4.90999985    2.51999998
   14.21138859  150.00900269    4.90999985    2.50000000
   14.21472168  170.88000488    4.90999985    2.50000000
   14.21777725  156.68499756    4.90999985    2.50000000
   14.22111034  174.53599548    4.90999985    2.50000000
   14.22722149  174.53599548    4.90999985    2.50000000
   14.23138809  129.41600037    4.90999985    2.50000000
   14.23444462  162.85400391    4.90999985    2.50000000
   14.23777771  153.57099915    4.90999985    2.51999998
   14.24111176  162.34800720    4.90999985    2.51999998
   14.24416733  146.97999573    4.90999985    2.51999998
   14.24750042  139.43400574    4.90999985    2.50000000
   14.25055599  141.81599426    4.90999985    2.51999998
   14.25388908  164.25300598    4.90999985    2.50000000
   14.25694466  142.64399719    4.90999985    2.51999998
   14.26027775  139.39999390    4.90999985    2.50000000
   14.26361084  172.21200562    4.90999985    2.51999998
   14.26388931  149.42999268    4.90999985    2.50000000
   14.26999950  149.42999268    4.90999985    2.50000000
   14.27416611  172.55499268    4.90999985    2.51999998
   14.27750015  164.73199463    4.90999985    2.51999998
   14.28055573  163.00000000    4.90999985    2.51999998
   14.28388977  177.11500549    4.90999985    2.50000000
   14.28694534  174.79600525    4.90999985    2.50000000
   14.29027843  202.54699707    4.90999985    2.51999998
   14.29361153  176.58900452    4.90999985    2.51999998
   14.29666710  183.11500549    4.90999985    2.51999998
   14.29722309  179.55200195    4.90999985    2.51999998
   14.30055618  203.53700256    4.90999985    2.51999998
   14.30361176  186.87899780    4.90999985    2.51999998
   14.30694485  198.66099548    4.90999985    2.51999998
   14.31277752  198.66099548    4.90999985    2.51999998
   14.31694412  190.10400391    4.90999985    2.50000000
   14.32027817  171.86500549    4.90999985    2.51999998
   14.32333374  183.77699280    4.90999985    2.51999998
   14.32666683  163.85800171    4.90999985    2.51999998
   14.32999992  173.46099854    4.90999985    2.51999998
   14.33055592  174.73699951    4.90999985    2.51999998
   14.33361053  149.02999878    4.90999985    2.51999998
   14.33666611  185.10499573    4.90999985    2.51999998
   14.34000015  168.33200073    4.90999985    2.50000000
   14.34305477  168.80499268    4.90999985    2.51999998
   14.34638882  157.11700439    4.90999985    2.51999998
   14.34972191  171.19000244    4.90999985    2.53999996
   14.35583401  171.19000244    4.90999985    2.51999998
   14.36000061  203.30499268    4.90999985    2.50000000
   14.36305618  176.72000122    4.90999985    2.50000000
   14.36388969  174.06700134    4.90999985    2.51999998
   14.36694431  169.82600403    4.90999985    2.51999998
   14.36999989  171.14100647    4.90999985    2.51999998
   14.37333393  182.21000671    4.90999985    2.51999998
   14.37638855  179.93400574    4.90999985    2.51999998
   14.37972260  175.69700623    4.90999985    2.51999998
   14.38305569  146.48100281    4.90999985    2.51999998
   14.38611126  176.44799805    4.90999985    2.51999998
   14.38944435  145.57800293    4.90999985    2.51999998
   14.39249992  163.87399292    4.90999985    2.51999998
   14.39861107  163.87399292    4.90999985    2.51999998
   14.40277767  185.66999817    4.90999985    2.51999998
   14.40583324  199.72399902    4.90999985    2.51999998
   14.40916634  174.99000549    4.90999985    2.51999998
   14.41249943  167.19099426    4.90999985    2.51999998
   14.41555500  154.63000488    4.88999987    2.53999996
   14.41888905  156.37199402    4.88999987    2.51999998
   14.42194462  156.11500549    4.86999989    2.53999996
   14.42527771  138.47500610    4.86999989    2.51999998
   14.42861176  148.22999573    4.84999990    2.53999996
   14.43055630  162.10099792    4.84999990    2.53999996
   14.43222237  148.68400574    4.84999990    2.51999998
   14.43527794  159.17799377    4.84999990    2.53999996
   14.44138908  159.17799377    4.84999990    2.53999996
   14.44555569  179.42500305    4.84999990    2.51999998
   14.44888878  150.88400269    4.84999990    2.51999998
   14.45194435  166.44900513    4.86999989    2.53999996
   14.45527744  174.88800049    4.86999989    2.53999996
   14.45833302  141.68400574    4.86999989    2.51999998
   14.46166611  153.25300598    4.86999989    2.51999998
   14.46388912  180.21299744    4.84999990    2.53999996
   14.46527767  175.28799438    4.84999990    2.53999996
   14.46833324  150.52799988    4.84999990    2.53999996
   14.47166634  163.58700562    4.84999990    2.53999996
   14.47472191  172.55900574    4.86999989    2.53999996
   14.47805500  192.47300720    4.86999989    2.51999998
   14.48444462  192.47300720    4.86999989    2.53999996
   14.48833370  176.82699585    4.86999989    2.53999996
   14.49166679  173.83599854    4.86999989    2.53999996
   14.49472237  182.49299622    4.84999990    2.53999996
   14.49722290  163.58799744    4.82999992    2.53999996
   14.49861145  179.05599976    4.82999992    2.51999998
   14.50166702  184.13200378    4.80999994    2.53999996
   14.50500011  200.86500549    4.80999994    2.53999996
   14.50833321  184.30499268    4.80999994    2.51999998
   14.51138878  152.65800476    4.80999994    2.53999996
   14.51472187  164.74200439    4.80999994    2.53999996
   14.51777744  185.60299683    4.80999994    2.55999994
   14.52111053  174.18299866    4.80999994    2.53999996
   14.52722168  174.18299866    4.80000019    2.53999996
   14.53138828  174.41799927    4.80999994    2.53999996
   14.53444481  171.94599915    4.80000019    2.53999996
   14.53777790  180.42300415    4.78000021    2.53999996
   14.54083347  171.27900696    4.76000023    2.55999994
   14.54416752  179.44999695    4.76000023    2.53999996
   14.54722309  173.35000610    4.73999977    2.53999996
   14.55055618  184.65100098    4.71999979    2.55999994
   14.55388927  148.31599426    4.71999979    2.53999996
   14.55694485  164.53300476    4.71999979    2.55999994
   14.56027794  177.65400696    4.71999979    2.51999998
   14.56333351  158.79699707    4.71999979    2.53999996
   14.56388950  161.78599548    4.71999979    2.53999996
   14.56999969  161.78599548    4.69999981    2.53999996
   14.57416630  172.74000549    4.69999981    2.53999996
   14.57722187  160.46099854    4.67999983    2.55999994
   14.58055592  172.80400085    4.65999985    2.55999994
   14.58388901  167.07899475    4.65999985    2.53999996
   14.58694458  171.18899536    4.63999987    2.53999996
   14.59027767  149.75199890    4.63999987    2.55999994
   14.59361076  151.19099426    4.63999987    2.53999996
   14.59666634  147.05900574    4.63999987    2.55999994
   14.59722233  155.10800171    4.61999989    2.53999996
   14.60027790  155.11500549    4.61999989    2.53999996
   14.60333347  160.07299805    4.61999989    2.53999996
   14.60666752  162.72300720    4.61999989    2.55999994
   14.61277771  162.72300720    4.59999990    2.55999994
   14.61694431  150.41499329    4.59999990    2.53999996
   14.62027836  165.70899963    4.57999992    2.55999994
   14.62333393  159.64599609    4.55999994    2.55999994
   14.62666702  171.40400696    4.55999994    2.55999994
   14.62972260  142.98199463    4.55999994    2.55999994
   14.63055611  175.63699341    4.55999994    2.55999994
   14.63361073  163.89900208    4.55999994    2.55999994
   14.63666630  167.48100281    4.55999994    2.53999996
   14.64000034  158.56900024    4.55999994    2.55999994
   14.64333344  169.09199524    4.55999994    2.55999994
   14.64638901  157.76499939    4.55999994    2.55999994
   14.64972210  137.84199524    4.55999994    2.55999994
   14.65583324  137.84199524    4.55999994    2.55999994
   14.65972137  167.91000366    4.53999996    2.55999994
   14.66305542  141.40899658    4.53999996    2.55999994
   14.66388893  166.30400085    4.53000021    2.55999994
   14.66666698  164.78900146    4.53999996    2.55999994
   14.67000008  154.46299744    4.53999996    2.55999994
   14.67305565  145.66400146    4.53000021    2.55999994
   14.67638874  134.80599976    4.53000021    2.55999994
   14.67944431  182.16299438    4.53000021    2.55999994
   14.68277836  164.77299500    4.53000021    2.55999994
   14.68611145  168.55999756    4.51000023    2.55999994
   14.68916702  149.51100159    4.51000023    2.53999996
   14.69250011  143.01199341    4.51000023    2.55999994
   14.69861126  143.01199341    4.51000023    2.55999994
   14.70277786  146.80700684    4.48999977    2.57999992
   14.70583344  147.38000488    4.46999979    2.55999994
   14.70916653  149.10499573    4.46999979    2.55999994
   14.71222210  153.81399536    4.44999981    2.55999994
   14.71555519  159.45399475    4.44999981    2.55999994
   14.71861076  166.62600708    4.44999981    2.55999994
   14.72194386  125.78700256    4.42999983    2.57999992
   14.72527695  142.52999878    4.40999985    2.55999994
   14.72833252  161.13499451    4.40999985    2.55999994
   14.73055553  157.96699524    4.40999985    2.55999994
   14.73194408  145.42500305    4.40999985    2.55999994
   14.73527813  145.93499756    4.40999985    2.55999994
   14.74138927  145.93499756    4.40999985    2.55999994
   14.74555588  157.72399902    4.40999985    2.55999994
   14.74861145  144.66499329    4.40999985    2.57999992
   14.75194454  157.69799805    4.40999985    2.55999994
   14.75527763  153.02600098    4.40999985    2.55999994
   14.75833321  132.80499268    4.40999985    2.57999992
   14.76166630  132.15699768    4.40999985    2.55999994
   14.76388931  141.05700684    4.38999987    2.57999992
   14.76527786  142.50500488    4.38999987    2.57999992
   14.76861095  155.31500244    4.36999989    2.55999994
   14.77166653  147.49099731    4.36999989    2.55999994
   14.77499962  141.84800720    4.36999989    2.57999992
   14.77805519  143.37100220    4.34999990    2.57999992
   14.78416729  143.37100220    4.34999990    2.55999994
   14.78833389  153.43200684    4.34999990    2.57999992
   14.79166698  152.84800720    4.34999990    2.55999994
   14.79472256  152.62399292    4.34999990    2.55999994
   14.79722309  146.95199585    4.34999990    2.57999992
   14.79833412  132.33900452    4.34999990    2.55999994
   14.80166721  150.49699402    4.34999990    2.59999990
   14.80472279  130.45599365    4.34999990    2.57999992
   14.80805588  142.74899292    4.34999990    2.57999992
   14.81111145  148.33999634    4.34999990    2.57999992
   14.81444454  139.90100098    4.34999990    2.57999992
   14.81750011  133.68099976    4.34999990    2.55999994
   14.82083321  149.64199829    4.36999989    2.57999992
   14.82694435  149.64199829    4.36999989    2.57999992
   14.83111095  141.89199829    4.34999990    2.57999992
   14.83444405  139.91900635    4.34999990    2.57999992
   14.83749962  149.18600464    4.32999992    2.57999992
   14.84083271  135.82200623    4.32999992    2.57999992
   14.84416676  142.40400696    4.32999992    2.57999992
   14.84722233  144.32400513    4.30999994    2.57999992
   14.85055637  157.05700684    4.32999992    2.55999994
   14.85361195  149.94999695    4.32999992    2.57999992
   14.95833302   -1.00000000   -1.00000000   -1.00000000
   15.14999962   -1.00000000   -1.00000000   -1.00000000
   15.38083363   -1.00000000   -1.00000000   -1.00000000
   15.72416592   90.45149994    3.59999990    2.64000010
   15.72749996  131.84599304    3.59999990    2.64000010
   15.73055553  127.29299927    3.59999990    2.64000010
   15.73388958  122.93099976    3.61999989    2.64000010
   15.73694515  120.57399750    3.61999989    2.64000010
   15.74027824  116.54699707    3.64000010    2.64000010
   15.74444485  116.54699707    3.64000010    2.64000010
   15.74861145  119.41000366    3.64000010    2.64000010
   15.75166702  121.68900299    3.66000009    2.61999989
   15.75500011  132.48500061    3.64000010    2.64000010
   15.75749969  133.75799561    3.64000010    2.64000010
   15.75861073  138.99899292    3.64000010    2.64000010
   15.76166630  141.46299744    3.64000010    2.64000010
   15.76500034  138.36300659    3.61999989    2.64000010
   15.76833344  137.35600281    3.64000010    2.64000010
   15.77138901  123.80599976    3.64000010    2.64000010
   15.77472210  161.43899536    3.61999989    2.64000010
   15.77777767  131.59500122    3.59999990    2.64000010
   15.78111076  130.01199341    3.59999990    2.64000010
   15.78722286  130.01199341    3.57999992    2.64000010
   15.79138947  134.57299805    3.57999992    2.64000010
   15.79472256  129.67500305    3.57999992    2.64000010
   15.79777813  124.58699799    3.55999994    2.64000010
   15.80111122  131.94299316    3.57999992    2.64000010
   15.80444431  131.77600098    3.57999992    2.66000009
   15.80749989  124.24600220    3.57999992    2.64000010
   15.81083393  137.15800476    3.59999990    2.64000010
   15.81416702  121.39099884    3.57999992    2.64000010
   15.81722260  139.61000061    3.59999990    2.64000010
   15.82055569  132.55400085    3.61999989    2.64000010
   15.82361126  127.90399933    3.59999990    2.64000010
   15.82416630  132.29600525    3.59999990    2.64000010
   15.82999992  132.29600525    3.59999990    2.64000010
   15.83416653  133.05499268    3.59999990    2.64000010
   15.83749962  116.66000366    3.59999990    2.64000010
   15.84083271  135.91400146    3.59999990    2.64000010
   15.84388828  133.65699768    3.59999990    2.64000010
   15.84722233  118.81400299    3.57999992    2.64000010
   15.85027790  132.66499329    3.57999992    2.64000010
   15.85361195  128.25700378    3.57999992    2.64000010
   15.85694504  132.66299438    3.57999992    2.64000010
   15.85750008  141.81900024    3.57999992    2.64000010
   15.86055565  135.64599609    3.57999992    2.61999989
   15.86388969  137.53100586    3.55999994    2.64000010
   15.86694431  128.75000000    3.55999994    2.64000010
   15.87305546  128.75000000    3.55999994    2.64000010
   15.87722206  125.69300079    3.55999994    2.64000010
   15.88027763  114.62400055    3.57999992    2.64000010
   15.88361073  135.00000000    3.55999994    2.64000010
   15.88666630  139.87699890    3.55999994    2.64000010
   15.89000034  125.21499634    3.55999994    2.64000010
   15.89083290  125.92299652    3.55999994    2.66000009
   15.89361095  124.24400330    3.57999992    2.64000010
   15.89694405  133.62899780    3.55999994    2.64000010
   15.89999962  131.14500427    3.57999992    2.64000010
   15.90333271  128.81399536    3.57999992    2.64000010
   15.90666676  128.86500549    3.57999992    2.61999989
   15.90972137  128.22000122    3.59999990    2.64000010
   15.91583252  128.22000122    3.61999989    2.66000009
   15.92000008  131.03599548    3.61999989    2.64000010
   15.92333412  109.03500366    3.61999989    2.64000010
   15.92416668  130.00700378    3.61999989    2.64000010
   15.92694473  117.80400085    3.61999989    2.64000010
   15.93027782  133.36900330    3.61999989    2.64000010
   15.93333340  117.55100250    3.61999989    2.64000010
   15.93666649  120.81900024    3.61999989    2.61999989
   15.94000053  126.76899719    3.61999989    2.64000010
   15.94305515  128.95799255    3.61999989    2.64000010
   15.94638920  136.47799683    3.59999990    2.66000009
   15.94944477  122.86799622    3.61999989    2.66000009
   15.95277786  131.65499878    3.61999989    2.66000009
   15.95861053  131.65499878    3.64000010    2.64000010
   15.96277714  134.83200073    3.61999989    2.64000010
   15.96611118  136.63099670    3.64000010    2.64000010
   15.96916580  128.62800598    3.61999989    2.64000010
   15.97249985  123.57700348    3.64000010    2.64000010
   15.97583294  130.53599548    3.64000010    2.64000010
   15.97888851  121.37300110    3.64000010    2.64000010
   15.98222160  122.53299713    3.66000009    2.64000010
   15.98555565  122.19000244    3.66000009    2.64000010
   15.98861122  135.77699280    3.68000007    2.64000010
   15.99083328  128.41799927    3.68000007    2.64000010
   15.99222279  131.00100708    3.68000007    2.64000010
   15.99555588  118.05100250    3.68000007    2.61999989
   16.00138855  118.05100250    3.68000007    2.64000010
   16.00555611  120.02300262    3.68000007    2.64000010
   16.00888824  133.25300598    3.68000007    2.61999989
   16.01222229  116.99299622    3.66000009    2.64000010
   16.01527786  131.09700012    3.66000009    2.64000010
   16.01861000  128.36900330    3.68000007    2.64000010
   16.02166557  134.95599365    3.68000007    2.64000010
   16.02416611  126.10900116    3.68000007    2.64000010
   16.02527809  132.48100281    3.70000005    2.64000010
   16.02861023  132.31300354    3.70000005    2.64000010
   16.03166580  129.92999268    3.70000005    2.64000010
   16.03499985  125.79900360    3.72000003    2.61999989
   16.03833199  120.60199738    3.72000003    2.64000010
   16.04444313  120.60199738    3.72000003    2.64000010
   16.04861069  134.16700745    3.72000003    2.64000010
   16.05166626  131.70799255    3.73000002    2.64000010
   16.05499840  121.16799927    3.73000002    2.64000010
   16.05749893  124.12400055    3.73000002    2.64000010
   16.05861092  130.26800537    3.73000002    2.64000010
   16.06194305  128.00100708    3.73000002    2.64000010
   16.06499863  124.35900116    3.73000002    2.64000010
   16.06833458  137.88699341    3.73000002    2.64000010
   16.07166672  127.16999817    3.72000003    2.64000010
   16.07472229  135.36500549    3.73000002    2.64000010
   16.07805634  131.12100220    3.72000003    2.64000010
   16.08139038  128.80799866    3.72000003    2.64000010
   16.08722305  128.80799866    3.72000003    2.64000010
   16.09138870  130.41400146    3.73000002    2.64000010
   16.09444427  125.32599640    3.73000002    2.64000010
   16.09777832  131.02699280    3.75000000    2.64000010
   16.10111237  133.05499268    3.75000000    2.64000010
   16.10416794  126.37300110    3.76999998    2.64000010
   16.10750008  123.40699768    3.75000000    2.64000010
   16.11083412  129.40600586    3.73000002    2.66000009
   16.11388969  132.24200439    3.73000002    2.64000010
   16.11722183  130.25999451    3.73000002    2.64000010
   16.12027740  131.75700378    3.73000002    2.64000010
   16.12361145  117.92400360    3.73000002    2.64000010
   16.12416649  130.05499268    3.73000002    2.64000010
   16.13000107  130.05499268    3.73000002    2.66000009
   16.13416672  127.21900177    3.73000002    2.64000010
   16.13750076  124.35099792    3.75000000    2.64000010
   16.14055634  130.14700317    3.75000000    2.64000010
   16.14388847  142.49099731    3.76999998    2.64000010
   16.14722252  140.03999329    3.76999998    2.64000010
   16.15027809  127.85700226    3.78999996    2.66000009
   16.15361023  131.15699768    3.78999996    2.64000010
   16.15666580  121.99800110    3.78999996    2.64000010
   16.15749931  117.52200317    3.78999996    2.64000010
   16.16027832  130.64999390    3.78999996    2.64000010
   16.16361046  137.23599243    3.78999996    2.64000010
   16.16666603  135.65699768    3.78999996    2.64000010
   16.17277718  135.65699768    3.80999994    2.64000010
   16.17694473  138.38800049    3.82999992    2.64000010
   16.18027687  130.79499817    3.82999992    2.64000010
   16.18361092  125.65699768    3.82999992    2.64000010
   16.18666649  137.75199890    3.82999992    2.64000010
   16.18999863  130.86700439    3.82999992    2.64000010
   16.19111061  131.25500488    3.84999990    2.64000010
   16.19361115  133.07400513    3.84999990    2.64000010
   16.19694328  117.65499878    3.84999990    2.64000010
   16.20000076  117.02100372    3.84999990    2.64000010
   16.20333481  114.72499847    3.82999992    2.64000010
   16.20666695  126.94400024    3.82999992    2.61999989
   16.20972252  127.96099854    3.82999992    2.64000010
   16.21583366  127.96099854    3.82999992    2.64000010
   16.22000122  121.73100281    3.82999992    2.64000010
   16.22305679  123.39299774    3.82999992    2.64000010
   16.22444534  126.88500214    3.82999992    2.61999989
   16.22666740  138.26300049    3.82999992    2.64000010
   16.23000145  129.81100464    3.82999992    2.64000010
   16.23305511  119.23200226    3.82999992    2.61999989
   16.23638916  133.86000061    3.84999990    2.64000010
   16.23972321  127.13700104    3.82999992    2.64000010
   16.24277878  127.26300049    3.84999990    2.61999989
   16.24611092  127.61799622    3.84999990    2.64000010
   16.24944496  125.91100311    3.86999989    2.64000010
   16.25250053  135.71499634    3.89000010    2.64000010
   16.25861168  135.71499634    3.91000009    2.64000010
   16.26277733  115.97299957    3.91000009    2.64000010
   16.26583290  136.76699829    3.91000009    2.64000010
   16.26916695  116.33200073    3.91000009    2.61999989
   16.27249908  110.29799652    3.91000009    2.64000010
   16.27555466  129.95799255    3.91000009    2.61999989
   16.27888870  128.97599792    3.91000009    2.64000010
   16.28222275  125.69300079    3.89000010    2.64000010
   16.28527641  124.97200012    3.89000010    2.64000010
   16.28861046  125.84300232    3.89000010    2.64000010
   16.29111099  110.68099976    3.91000009    2.64000010
   16.29222107  119.47000122    3.91000009    2.64000010
   16.29555511  130.83099365    3.91000009    2.64000010
   16.30138779  130.83099365    3.91000009    2.64000010
   16.30555534  125.30699921    3.93000007    2.64000010
   16.30888748  121.41500092    3.89000010    2.64000010
   16.31194305  127.97499847    3.86999989    2.64000010
   16.31527710  123.29000092    3.86999989    2.64000010
   16.31861115  121.23100281    3.84999990    2.64000010
   16.32166672  124.32900238    3.84999990    2.64000010
   16.32444572  118.13200378    3.84999990    2.64000010
   16.32527924  127.21099854    3.84999990    2.66000009
   16.32861137  119.66000366    3.84999990    2.64000010
   16.33166695  115.89900208    3.86999989    2.64000010
   16.33500099  128.26600647    3.89000010    2.64000010
   16.33833313  124.57900238    3.91000009    2.64000010
   16.34416771  124.57900238    3.95000005    2.61999989
   16.34833336  131.83799744    3.95000005    2.64000010
   16.35166740  134.05799866    3.97000003    2.61999989
   16.35499954  118.62699890    3.97000003    2.64000010
   16.35777855  119.63899994    3.97000003    2.61999989
   16.35833359  132.68299866    3.97000003    2.61999989
   16.36166763  121.00800323    3.95000005    2.64000010
   16.36472321  125.53700256    3.93000007    2.64000010
   16.36805534  142.61300659    3.93000007    2.64000010
   16.37138939  117.51300049    3.93000007    2.66000009
   16.37444496  127.76399994    3.91000009    2.64000010
   16.37777710  125.67800140    3.89000010    2.61999989
   16.38111115  124.34700012    3.86999989    2.64000010
   16.38722229  124.34700012    3.84999990    2.64000010
   16.39138794  135.70399475    3.80999994    2.64000010
   16.39444351  129.65199280    3.80999994    2.64000010
   16.39777756  132.92999268    3.80999994    2.64000010
   16.40083313  134.21099854    3.80999994    2.64000010
   16.40416718  129.10000610    3.80999994    2.64000010
   16.40749931  137.77200317    3.80999994    2.64000010
   16.41055489  121.72799683    3.80999994    2.64000010
   16.41388893  126.22100067    3.82999992    2.64000010
   16.41722107  112.90899658    3.80999994    2.64000010
   16.42027664  133.02900696    3.78999996    2.64000010
   16.42361069  135.50900269    3.76999998    2.64000010
   16.42444420  132.36300659    3.76999998    2.64000010
   16.43000031  132.36300659    3.75000000    2.66000009
   16.43416595  130.00500488    3.78999996    2.64000010
   16.43722153  132.53900146    3.76999998    2.64000010
   16.44055557  145.24899292    3.75000000    2.66000009
   16.44388771  128.13499451    3.75000000    2.64000010
   16.44694328  134.63200378    3.73000002    2.64000010
   16.45027924  130.98899841    3.75000000    2.64000010
   16.45361137  134.20700073    3.76999998    2.66000009
   16.45666695  131.03999329    3.76999998    2.66000009
   16.45777893  112.90599823    3.76999998    2.64000010
   16.46027946  132.31799316    3.76999998    2.66000009
   16.46361160  127.95099640    3.75000000    2.64000010
   16.46694565  137.94400024    3.75000000    2.66000009
   16.47277832  137.94400024    3.73000002    2.64000010
   16.47694588  158.49600220    3.73000002    2.64000010
   16.48027802  146.81900024    3.73000002    2.66000009
   16.48333359  155.49099731    3.72000003    2.66000009
   16.48666763  139.28599548    3.72000003    2.64000010
   16.48999977  133.01400757    3.70000005    2.64000010
   16.49111176  149.75799561    3.72000003    2.66000009
   16.49333382  146.65499878    3.70000005    2.64000010
   16.49666786  137.37100220    3.72000003    2.64000010
   16.50000000  135.01100159    3.72000003    2.64000010
   16.50305557  137.92900085    3.72000003    2.66000009
   16.50638962  133.20199585    3.73000002    2.64000010
   16.50972176  136.88999939    3.73000002    2.66000009
   16.51555634  136.88999939    3.73000002    2.66000009
   16.51972198  137.96499634    3.73000002    2.64000010
   16.52305603  140.80900574    3.73000002    2.66000009
   16.52444458  139.65800476    3.73000002    2.64000010
   16.52666664  133.22099304    3.75000000    2.64000010
   16.53000069  129.75300598    3.76999998    2.66000009
   16.53333282  126.69400024    3.76999998    2.66000009
   16.53638840  134.60400391    3.76999998    2.66000009
   16.53972244  143.80499268    3.76999998    2.64000010
   16.54277802  127.16999817    3.78999996    2.64000010
   16.54611015  114.76300049    3.80999994    2.64000010
   16.54944420  131.63999939    3.82999992    2.64000010
   16.55249977  133.56900024    3.84999990    2.66000009
   16.55861092  133.56900024    3.84999990    2.66000009
   16.56277657  115.47499847    3.86999989    2.64000010
   16.56583214  132.20700073    3.89000010    2.66000009
   16.56916809  139.40299988    3.89000010    2.66000009
   16.57222366  133.25999451    3.86999989    2.64000010
   16.57555580  127.34899902    3.82999992    2.64000010
   16.57888985  131.44500732    3.82999992    2.64000010
   16.58194542  130.99000549    3.84999990    2.66000009
   16.58527756  127.19200134    3.86999989    2.64000010
   16.58861160  129.45799255    3.86999989    2.66000009
   16.59111214  124.70999908    3.80999994    2.64000010
   16.59194565  122.39299774    3.80999994    2.66000009
   16.59527779  133.18299866    3.76999998    2.66000009
   16.60138893  133.18299866    3.72000003    2.66000009
   16.60555649  124.00000000    3.66000009    2.66000009
   16.60861206  119.86499786    3.61999989    2.66000009
   16.61194420  132.22799683    3.61999989    2.66000009
   16.61527824  132.08999634    3.64000010    2.66000009
   16.61833382  129.64300537    3.66000009    2.67000008
   16.62166595  130.08999634    3.64000010    2.66000009
   16.62444496  143.75999451    3.68000007    2.66000009
   16.62527847  127.25199890    3.68000007    2.66000009
   16.62861061  120.18499756    3.68000007    2.64000010
   16.63194466  134.45100403    3.68000007    2.66000009
   16.63500023  130.59800720    3.68000007    2.64000010
   16.63833237  135.03999329    3.70000005    2.66000009
   16.64416695  135.03999329    3.72000003    2.66000009
   16.64833260  128.87500000    3.72000003    2.67000008
   16.65166664  129.81900024    3.72000003    2.67000008
   16.65472221  125.05100250    3.72000003    2.64000010
   16.65777779  128.11399841    3.73000002    2.66000009
   16.65833282  125.76000214    3.73000002    2.66000009
   16.66166687  127.39099884    3.76999998    2.64000010
   16.66499901  142.29899597    3.78999996    2.66000009
   16.66805458  133.00599670    3.80999994    2.66000009
   16.67138863  134.31199646    3.80999994    2.64000010
   16.67472076  142.77799988    3.82999992    2.64000010
   16.67777634  127.37699890    3.82999992    2.66000009
   16.68111038  141.94900513    3.82999992    2.64000010
   16.68694305  141.94900513    3.82999992    2.64000010
   16.69111061  149.58900452    3.86999989    2.66000009
   16.69444275  140.88000488    3.84999990    2.66000009
   16.69777679  141.44900513    3.86999989    2.66000009
   16.70083427  153.19900513    3.84999990    2.66000009
   16.70416832  138.33200073    3.82999992    2.66000009
   16.70722389  142.32200623    3.80999994    2.66000009
   16.71055603  135.91999817    3.78999996    2.66000009
   16.71389008  119.67700195    3.78999996    2.66000009
   16.71694565  135.27200317    3.80999994    2.66000009
   16.72027779  145.13099670    3.78999996    2.67000008
   16.72333336  142.10299683    3.76999998    2.66000009
   16.72444534  137.71800232    3.75000000    2.66000009
   16.74500084  137.71800232    3.68000007    2.66000009
   16.74916649  137.03500366    3.66000009    2.66000009
   16.75250053  137.94500732    3.64000010    2.66000009
   16.75555611  127.48999786    3.66000009    2.66000009
   16.75777817  128.33500671    3.66000009    2.66000009
   16.75944519  133.08900452    3.64000010    2.66000009
   16.76250076  135.69900513    3.68000007    2.66000009
   16.76583290  131.88900757    3.70000005    2.66000009
   16.76916695  139.29600525    3.68000007    2.66000009
   16.77222252  147.09899902    3.72000003    2.66000009
   16.77555466  144.25199890    3.73000002    2.66000009
   16.77861023  125.39700317    3.75000000    2.66000009
   16.78194427  135.20599365    3.80999994    2.66000009
   16.78777695  135.20599365    3.82999992    2.66000009
   16.79194450  132.06199646    3.89000010    2.64000010
   16.79500008  149.25799561    3.91000009    2.66000009
   16.79833221  153.41999817    3.91000009    2.66000009
   16.80166626  143.09500122    3.95000005    2.64000010
   16.80472183  141.14100647    3.95000005    2.66000009
   16.80805397  132.68899536    3.97000003    2.66000009
   16.81138802  139.28399658    3.95000005    2.64000010
   16.81444359  139.16099548    3.97000003    2.64000010
   16.81777954  146.35699463    3.97000003    2.64000010
   16.82083511  148.75500488    3.99000001    2.66000009
   16.82416725  143.79699707    3.97000003    2.66000009
   16.82472229  139.60600281    3.97000003    2.66000009
   16.83055687  139.60600281    3.99000001    2.66000009
   16.83472252  125.08399963    4.00000000    2.64000010
   16.83805656  147.70799255    4.00000000    2.66000009
   16.84111214  140.74699402    3.99000001    2.66000009
   16.84472275  138.74800110    4.00000000    2.66000009
   16.84805679  144.08299255    3.99000001    2.66000009
   16.85111237  148.85200500    3.99000001    2.66000009
   16.85444450  148.97399902    3.97000003    2.66000009
   16.85777855  141.05099487    3.95000005    2.66000009
   16.85805511  138.67300415    3.95000005    2.66000009
   16.86111069  159.72900391    3.95000005    2.66000009
   16.86444473  148.79899597    3.91000009    2.64000010
   16.86750031  134.86000061    3.89000010    2.64000010
   16.87333298  134.86000061    3.91000009    2.66000009
   16.87750053  151.24200439    3.89000010    2.64000010
   16.88083267  157.28500366    3.89000010    2.66000009
   16.88416672  150.54200745    3.91000009    2.64000010
   16.88722229  159.07899475    3.93000007    2.66000009
   16.89055634  147.47799683    3.95000005    2.66000009
   16.89138794  150.97799683    3.97000003    2.66000009
   16.89416695  158.27299500    3.97000003    2.66000009
   16.89749908  142.43499756    3.99000001    2.64000010
   16.90055466  153.23199463    3.99000001    2.66000009
   16.90388870  168.77699280    4.01999998    2.66000009
   16.90722275  152.57099915    3.99000001    2.64000010
   16.91027832  160.38600159    3.99000001    2.66000009
   16.91638756  160.38600159    3.97000003    2.66000009
   16.92055511  164.67900085    3.93000007    2.66000009
   16.92361069  155.02099609    3.95000005    2.66000009
   16.92472076  134.49499512    3.93000007    2.66000009
   16.92722130  167.19400024    3.95000005    2.64000010
   16.93055534  146.40800476    3.95000005    2.64000010
   16.93388748  155.27799988    3.93000007    2.66000009
   16.93694305  151.96099854    3.95000005    2.66000009
   16.94027710  157.66700745    3.93000007    2.66000009
   16.94361115  151.84599304    3.93000007    2.66000009
   16.94666672  164.07400513    3.95000005    2.66000009
   16.95000076  160.89199829    3.97000003    2.66000009
   16.95305634  146.65100098    3.97000003    2.66000009
   16.95916748  146.65100098    3.95000005    2.66000009
   16.96333504  160.22000122    3.86999989    2.66000009
   16.96666718  155.69700623    3.82999992    2.66000009
   16.97000122  144.93800354    3.82999992    2.66000009
   16.97305679  146.83900452    3.82999992    2.66000009
   16.97638893  147.22599792    3.82999992    2.66000009
   16.97944450  158.44400024    3.80999994    2.66000009
   16.98277855  151.11500549    3.78999996    2.66000009
   16.98611069  145.33900452    3.82999992    2.66000009
   16.98916626  148.66000366    3.80999994    2.66000009
   16.99138832  146.70599365    3.84999990    2.66000009
   16.99277878  160.10000610    3.82999992    2.66000009
   16.99611092  155.58000183    3.82999992    2.66000009
   17.00194359  155.58000183    3.80999994    2.64000010
   17.00611115  157.06100464    3.82999992    2.66000009
   17.00944519  149.73300171    3.80999994    2.66000009
   17.01250076  143.11799622    3.82999992    2.66000009
   17.01583290  155.06100464    3.82999992    2.66000009
   17.01888847  143.84899902    3.84999990    2.66000009
   17.02222252  142.13699341    3.89000010    2.66000009
   17.02472115  149.77999878    3.91000009    2.66000009
   17.02583313  146.80099487    3.93000007    2.66000009
   17.02916718  139.79200745    3.89000010    2.66000009
   17.03222275  146.10899353    3.89000010    2.66000009
   17.03555489  136.55599976    3.91000009    2.66000009
   17.03888893  149.39700317    3.89000010    2.66000009
   17.04472160  149.39700317    3.84999990    2.67000008
   17.04888916  140.29699707    3.89000010    2.66000009
   17.05222130  155.73899841    3.89000010    2.66000009
   17.05583191  148.12699890    3.89000010    2.67000008
   17.05805397  139.86000061    3.89000010    2.66000009
   17.05944443  149.36999512    3.89000010    2.66000009
   17.06277657  155.82099915    3.89000010    2.66000009
   17.06583214  156.55099487    3.89000010    2.66000009
   17.06916809  149.56599426    3.86999989    2.66000009
   17.07250023  162.96600342    3.86999989    2.67000008
   17.07555580  149.91099548    3.84999990    2.67000008
   17.07888985  153.03700256    3.82999992    2.66000009
   17.08194542  163.19099426    3.82999992    2.66000009
   17.08777809  163.19099426    3.80999994    2.66000009
   17.09166718  139.28700256    3.82999992    2.66000009
   17.09500122  149.65699768    3.82999992    2.66000009
   17.09833336  141.00599670    3.80999994    2.66000009
   17.10138893  140.29600525    3.82999992    2.67000008
   17.10472298  128.80000305    3.80999994    2.66000009
   17.10805511  130.45799255    3.78999996    2.66000009
   17.11111069  146.85499573    3.76999998    2.66000009
   17.11444473  143.48500061    3.78999996    2.66000009
   17.11750031  140.09100342    3.78999996    2.66000009
   17.12083435  140.55200195    3.76999998    2.67000008
   17.12416649  144.43600464    3.76999998    2.66000009
   17.12500000  148.83999634    3.76999998    2.66000009
   17.13055611  148.83999634    3.73000002    2.66000009
   17.13472176  137.30299377    3.75000000    2.66000009
   17.13777733  141.56399536    3.72000003    2.66000009
   17.14111137  152.26400757    3.72000003    2.67000008
   17.14416695  135.38099670    3.73000002    2.66000009
   17.14749908  150.04299927    3.73000002    2.67000008
   17.15083313  132.95199585    3.75000000    2.66000009
   17.15388870  132.92599487    3.76999998    2.66000009
   17.15722275  137.68400574    3.78999996    2.66000009
   17.15833282  140.31700134    3.78999996    2.67000008
   17.16083336  127.36699677    3.78999996    2.66000009
   17.16416550  158.19999695    3.78999996    2.67000008
   17.16722107  149.21400452    3.76999998    2.66000009
   17.17333221  149.21400452    3.78999996    2.66000009
   17.17749977  141.79899597    3.78999996    2.67000008
   17.18083191  150.70500183    3.80999994    2.66000009
   17.18388748  151.42999268    3.78999996    2.67000008
   17.18722153  128.39799500    3.82999992    2.66000009
   17.19027710  142.79400635    3.82999992    2.66000009
   17.19166565  136.75300598    3.80999994    2.66000009
   17.19388771  140.94599915    3.78999996    2.66000009
   17.19722176  154.44099426    3.76999998    2.66000009
   17.20027924  144.44700623    3.75000000    2.66000009
   17.20361137  151.35400391    3.72000003    2.66000009
   17.20694542  137.91799927    3.73000002    2.66000009
   17.21000099  146.05299377    3.73000002    2.66000009
   17.21611214  146.05299377    3.73000002    2.66000009
   17.22027779  132.29299927    3.72000003    2.66000009
   17.22361183  139.58900452    3.72000003    2.66000009
   17.22500038  147.55000305    3.72000003    2.66000009
   17.22722244  149.20599365    3.72000003    2.66000009
   17.23055649  149.07800293    3.72000003    2.67000008
   17.23361206  150.52999878    3.72000003    2.66000009
   17.23694420  140.67799377    3.68000007    2.66000009
   17.24027824  138.20899963    3.68000007    2.67000008
   17.24333382  147.95300293    3.66000009    2.66000009
   17.24666786  148.32600403    3.68000007    2.66000009
   17.25000000  156.84399414    3.68000007    2.66000009
   17.25305557  162.24800110    3.66000009    2.66000009
   17.25916672  162.24800110    3.66000009    2.66000009
   17.26305580  141.87699890    3.66000009    2.67000008
   17.26666641  154.64300537    3.64000010    2.66000009
   17.27000046  144.47999573    3.59999990    2.67000008
   17.27305603  146.24499512    3.59999990    2.66000009
   17.27638817  153.12600708    3.61999989    2.67000008
   17.27972221  153.61300659    3.59999990    2.67000008
   17.28277779  144.71400452    3.59999990    2.67000008
   17.28610992  148.36399841    3.61999989    2.67000008
   17.28944397  138.97300720    3.59999990    2.67000008
   17.29166603  151.49099731    3.59999990    2.67000008
   17.29277802  145.66400146    3.59999990    2.67000008
   17.29611015  152.26400757    3.59999990    2.67000008
   17.30194283  152.26400757    3.59999990    2.67000008
   17.30611038  153.88600159    3.59999990    2.67000008
   17.30916595  158.13499451    3.59999990    2.67000008
   17.31250000  156.17399597    3.61999989    2.66000009
   17.31583214  164.67500305    3.64000010    2.67000008
   17.31888962  154.31900024    3.68000007    2.67000008
   17.32222366  155.82299805    3.68000007    2.67000008
   17.32500076  155.55599976    3.73000002    2.67000008
   17.32583427  155.58399963    3.72000003    2.67000008
   17.32916832  151.83000183    3.72000003    2.66000009
   17.33222389  166.49400330    3.72000003    2.66000009
   17.33555603  156.76699829    3.75000000    2.66000009
   17.33889008  156.79800415    3.76999998    2.66000009
   17.34472275  156.79800415    3.75000000    2.66000009
   17.34889030  171.13600159    3.76999998    2.66000009
   17.35222244  153.17799377    3.76999998    2.66000009
   17.35527802  178.85200500    3.78999996    2.67000008
   17.35833359  178.77200317    3.78999996    2.66000009
   17.35888863  168.52299500    3.78999996    2.67000008
   17.36222267  154.31100464    3.80999994    2.67000008
   17.36555672  179.03399658    3.82999992    2.66000009
   17.36861038  171.67100525    3.78999996    2.66000009
   17.37194443  174.65800476    3.78999996    2.66000009
   17.37500000  164.77000427    3.78999996    2.66000009
   17.37833405  165.56300354    3.75000000    2.66000009
   17.38166618  135.25199890    3.75000000    2.66000009
   17.38750076  135.25199890    3.73000002    2.66000009
   17.39166641  180.84599304    3.73000002    2.67000008
   17.39500046  188.82400513    3.73000002    2.66000009
   17.39805603  195.64700317    3.73000002    2.66000009
   17.40138817  202.78300476    3.73000002    2.66000009
   17.40472221  184.38800049    3.73000002    2.66000009
   17.40777779  201.01899719    3.75000000    2.66000009
   17.41110992  181.60200500    3.73000002    2.66000009
   17.41444397  204.44599915    3.75000000    2.66000009
   17.41749954  182.97999573    3.76999998    2.66000009
   17.42083359  192.36099243    3.75000000    2.66000009
   17.42388916  200.63400269    3.78999996    2.67000008
   17.42499924  193.66299438    3.78999996    2.66000009
   17.43055534  193.66299438    3.80999994    2.66000009
   17.43444443  205.21499634    3.80999994    2.67000008
   17.43777657  216.87899780    3.80999994    2.66000009
   17.44111061  213.30999756    3.80999994    2.66000009
   17.44416618  207.80099487    3.80999994    2.66000009
   17.44749832  202.89799500    3.80999994    2.64000010
   17.45083427  188.27200317    3.80999994    2.66000009
   17.45388985  201.95599365    3.78999996    2.66000009
   17.45722389  228.10400391    3.75000000    2.66000009
   17.45833397  215.17199707    3.75000000    2.66000009
   17.46083450  214.08000183    3.75000000    2.67000008
   17.46416664  212.50300598    3.75000000    2.67000008
   17.46750069  207.70599365    3.73000002    2.66000009
   17.47333336  207.70599365    3.73000002    2.66000009
   17.47750092  207.18200684    3.70000005    2.67000008
   17.48055649  191.10899353    3.70000005    2.66000009
   17.48388863  206.71000671    3.66000009    2.66000009
   17.48722267  178.92599487    3.66000009    2.66000009
   17.49027824  197.57400513    3.66000009    2.67000008
   17.49166679  189.35099792    3.64000010    2.66000009
   17.49388885  198.33000183    3.66000009    2.66000009
   17.49722290  201.69400024    3.59999990    2.67000008
   17.50055504  198.35800171    3.61999989    2.67000008
   17.50361061  202.27999878    3.59999990    2.67000008
   17.50694466  215.02600098    3.64000010    2.66000009
   17.51000023  202.64999390    3.64000010    2.66000009
   17.51611137  202.64999390    3.64000010    2.67000008
   17.52027702  176.13499451    3.59999990    2.66000009
   17.52333260  162.90199280    3.61999989    2.66000009
   17.52499962  170.19299316    3.61999989    2.66000009
   17.52694511  162.46299744    3.61999989    2.66000009
   17.53027725  173.88600159    3.66000009    2.66000009
   17.53361130  161.57499695    3.59999990    2.66000009
   17.53666687  162.94299316    3.57999992    2.67000008
   17.53999901  163.24200439    3.51999998    2.66000009
   17.54305458  161.95700073    3.51999998    2.67000008
   17.54638863  158.76600647    3.53999996    2.66000009
   17.54972076  162.25100708    3.53999996    2.66000009
   17.55277634  151.39399719    3.51999998    2.66000009
   17.55888748  151.39399719    3.50000000    2.67000008
   17.56305504  153.05799866    3.53999996    2.67000008
   17.56638718  160.87100220    3.51999998    2.67000008
   17.56944466  149.28599548    3.53999996    2.67000008
   17.57277870  160.74400330    3.51999998    2.67000008
   17.57611275  152.27600098    3.51999998    2.66000009
   17.57916832  145.38499451    3.53999996    2.66000009
   17.58250046  163.61000061    3.51999998    2.66000009
   17.58555603  158.16600037    3.55999994    2.66000009
   17.58889008  169.76499939    3.51999998    2.66000009
   17.59166718  174.93499756    3.57999992    2.66000009
   17.59250069  176.94400024    3.53999996    2.66000009
   17.59583473  170.79499817    3.59999990    2.66000009
   17.60194397  170.79499817    3.59999990    2.67000008
   17.60583305  164.78100586    3.64000010    2.66000009
   17.60916710  155.99200439    3.64000010    2.67000008
   17.61250114  146.41900635    3.64000010    2.66000009
   17.61555672  166.09399414    3.66000009    2.67000008
   17.61888885  139.84800720    3.61999989    2.66000009
   17.62194443  154.67700195    3.64000010    2.67000008
   17.62500000  165.95199585    3.59999990    2.67000008
   17.62555504  162.75100708    3.66000009    2.66000009
   17.62888908  144.92999268    3.64000010    2.67000008
   17.63222313  164.08399963    3.61999989    2.67000008
   17.63527679  167.18600464    3.59999990    2.66000009
   17.63861084  172.43200684    3.59999990    2.67000008
   17.64472198  172.43200684    3.55999994    2.67000008
   17.64888954  159.75900269    3.53999996    2.66000009
   17.65194321  167.73100281    3.51999998    2.67000008
   17.65527725  160.58299255    3.51999998    2.66000009
   17.65833282  155.52099609    3.46000004    2.67000008
   17.65861130  158.81300354    3.46000004    2.67000008
   17.66194344  158.01199341    3.48000002    2.67000008
   17.66527748  168.60899353    3.45000005    2.66000009
   17.66833305  152.33099365    3.45000005    2.67000008
   17.67166519  166.47500610    3.45000005    2.66000009
   17.67472076  148.93400574    3.46000004    2.67000008
   17.67805481  150.04200745    3.46000004    2.67000008
   17.68138885  156.78399658    3.41000009    2.67000008
   17.68750000  156.78399658    3.41000009    2.66000009
   17.69166565  150.03799438    3.43000007    2.67000008
   17.69472122  131.54699707    3.41000009    2.67000008
   17.69805527  160.61099243    3.43000007    2.67000008
   17.70138931  144.99800110    3.41000009    2.67000008
   17.70444489  146.68899536    3.41000009    2.67000008
   17.70777893  150.64500427    3.43000007    2.67000008
   17.71111107  136.71299744    3.43000007    2.67000008
   17.71416664  142.59300232    3.45000005    2.67000008
   17.71750069  141.97300720    3.43000007    2.67000008
   17.72055626  144.98500061    3.41000009    2.67000008
   17.72389030  143.25300598    3.41000009    2.67000008
   17.72500038  149.49099731    3.41000009    2.67000008
   17.73027802  149.49099731    3.34999990    2.67000008
   17.73444557  130.07600403    3.32999992    2.67000008
   17.73777771  152.28399658    3.34999990    2.67000008
   17.74083328  150.28799438    3.30999994    2.67000008
   17.75833321  134.07600403    3.30999994    2.67000008
   17.76083374  138.79899597    3.30999994    2.67000008
   17.76416588  133.63299561    3.28999996    2.67000008
   17.76722145  138.44700623    3.28999996    2.67000008
   17.77333260  138.44700623    3.28999996    2.67000008
   17.77750015  143.09500122    3.32999992    2.67000008
   17.78083229  147.06500244    3.32999992    2.67000008
   17.78388786  149.42100525    3.30999994    2.67000008
   17.78722191  150.90199280    3.32999992    2.67000008
   17.79027748  149.37199402    3.34999990    2.67000008
   17.79166603  147.36300659    3.36999989    2.67000008
   17.79416656  144.01300049    3.36999989    2.67000008
   17.79749870  130.63600159    3.39000010    2.67000008
   17.80055428  146.55400085    3.36999989    2.67000008
   17.80388832  136.50500488    3.39000010    2.67000008
   17.80694389  146.63800049    3.34999990    2.66000009
   17.81027794  145.78999329    3.41000009    2.67000008
   17.81611061  145.78999329    3.39000010    2.67000008
   17.82027817  142.55700684    3.36999989    2.67000008
   17.82361221  151.24200439    3.34999990    2.67000008
   17.82500076  153.04800415    3.36999989    2.66000009
   17.82722282  143.18800354    3.34999990    2.66000009
   17.83027840  143.03100586    3.32999992    2.66000009
   17.83361244  142.80000305    3.30999994    2.67000008
   17.83694458  141.16900635    3.30999994    2.67000008
   17.84000015  130.16600037    3.28999996    2.67000008
   17.84333420  147.99000549    3.34999990    2.67000008
   17.84666824  137.66999817    3.30999994    2.67000008
   17.84972191  139.72200012    3.26999998    2.67000008
   17.85305595  140.93099976    3.30999994    2.67000008
   17.85916710  140.93099976    3.23000002    2.67000008
   17.86305618  132.96000671    3.25000000    2.67000008
   17.86638832  144.57299805    3.25000000    1.61000001
   17.86972237  142.31500244    3.18000007    2.69000006
   17.87277794  131.31399536    3.23000002    2.69000006
   17.87611198  123.76799774    3.18000007    2.67000008
   17.87944412  143.80900574    3.21000004    2.67000008
   17.88249969  135.46099854    3.20000005    2.67000008
   17.88583374  133.81100464    3.20000005    2.67000008
   17.88916588  140.56399536    3.18000007    2.67000008
   17.89166641  134.26800537    3.20000005    2.67000008
   17.89277840  144.65199280    3.20000005    2.67000008
   17.89583397  124.02200317    3.16000009    2.67000008
   17.90194321  124.02200317    3.11999989    2.69000006
   17.90611076  141.27499390    3.07999992    2.67000008
   17.90916634  128.66900635    3.05999994    2.67000008
   17.91250038  143.78900146    3.07999992    2.69000006
   17.91555595  135.44099426    3.09999990    2.67000008
   17.91888809  121.09100342    3.07999992    2.69000006
   17.92222214  120.92700195    3.09999990    2.67000008
   17.92499924  129.72700500    3.07999992    2.69000006
   17.92583275  131.36199951    3.07999992    2.69000006
   17.92888832  133.13600159    3.11999989    2.69000006
   17.93222237  127.69000244    3.14000010    2.67000008
   17.93555450  140.35499573    3.14000010    2.67000008
   17.93861008  119.44400024    3.16000009    2.67000008
   17.94472122  119.44400024    3.14000010    2.67000008
   17.94888878  148.23899841    3.14000010    2.69000006
   17.95222282  140.74099731    3.11999989    2.67000008
   17.95527840  140.98500061    3.14000010    2.67000008
   17.95833397  147.61399841    3.16000009    2.69000006
   17.95888901  139.42799377    3.16000009    2.69000006
   17.96222305  147.52200317    3.11999989    2.67000008
   17.96527863  139.22700500    3.09999990    2.69000006
   17.96861076  129.62600708    3.09999990    2.67000008
   17.97194481  132.32400513    3.09999990    2.67000008
   17.97500038  125.64299774    3.07999992    2.67000008
   17.97833443  130.57600403    3.11999989    2.67000008
   17.98139000  125.76599884    3.11999989    2.67000008
   17.98750114  125.76599884    3.07999992    2.67000008
   17.99166679  134.24800110    3.09999990    2.69000006
   17.99500084  130.83599854    3.16000009    2.69000006
   17.99805641  129.52400208    3.16000009    2.67000008
   18.00138855  133.32699585    3.14000010    2.67000008
   18.00472260  132.53100586    3.14000010    2.67000008
   18.00777817  135.43200684    3.14000010    2.67000008
   18.01111031  129.05400085    3.11999989    2.67000008
   18.01444435  135.18600464    3.14000010    2.67000008
   18.01749992  117.87500000    3.11999989    2.67000008
   18.02083397  118.09799957    3.11999989    2.67000008
   18.02388954  131.55400085    3.16000009    2.67000008
   18.02499962  134.50300598    3.18000007    2.67000008
   18.03055573  134.50300598    3.16000009    2.67000008
   18.03444481  147.48599243    3.21000004    2.69000006
   18.03777695  141.21400452    3.23000002    2.69000006
   18.04111099  145.93400574    3.20000005    2.67000008
   18.04416656  137.03799438    3.20000005    2.67000008
   18.04749870  154.69999695    3.21000004    2.67000008
   18.05055428  143.33500671    3.20000005    2.67000008
   18.05388832  150.78399658    3.21000004    2.67000008
   18.05722237  140.74499512    3.21000004    2.67000008
   18.05833244  144.05700684    3.21000004    2.67000008
   18.06083298  130.74299622    3.21000004    2.67000008
   18.06416512  151.39399719    3.21000004    2.67000008
   18.06722260  150.21099854    3.20000005    2.69000006
   18.07333374  150.21099854    3.18000007    2.67000008
   18.07750130  140.55299377    3.16000009    2.67000008
   18.08055687  143.69599915    3.20000005    2.67000008
   18.08388901  141.92300415    3.14000010    2.67000008
   18.08722305  138.17999268    3.16000009    2.67000008
   18.09027863  134.83000183    3.18000007    2.67000008
   18.09166718  140.43200684    3.16000009    2.67000008
   18.09388924  142.21299744    3.14000010    2.67000008
   18.09722328  155.13800049    3.11999989    2.67000008
   18.10027885  146.64700317    3.18000007    2.67000008
   18.10361099  145.41499329    3.11999989    2.67000008
   18.10666656  141.19799805    3.14000010    2.69000006
   18.11000061  136.55999756    3.14000010    2.69000006
   18.11611176  136.55999756    3.16000009    2.67000008
   18.12027740  142.65199280    3.11999989    2.67000008
   18.12361145  141.17599487    3.09999990    2.67000008
   18.12500000  137.41299438    3.14000010    2.67000008
   18.12722206  150.32200623    3.07999992    2.67000008
   18.13055611  135.19900513    3.14000010    2.69000006
   18.13361168  140.02699280    3.14000010    2.69000006
   18.13694382  142.54600525    3.14000010    2.67000008
   18.14027786  128.51800537    3.11999989    2.67000008
   18.14333344  142.56700134    3.11999989    2.67000008
   18.14666748  138.14300537    3.16000009    0.34000000
   18.14999962  129.97000122    3.14000010    2.67000008
   18.15305519  143.08299255    3.11999989    2.67000008
   18.15888786  143.08299255    3.09999990    2.67000008
   18.16305542  134.69299316    3.09999990    2.67000008
   18.16638756  124.95400238    3.05999994    2.67000008
   18.16944313  111.12799835    3.09999990    2.67000008
   18.17277718  119.51999664    3.07999992    2.67000008
   18.17611122  120.43099976    3.05999994    2.67000008
   18.17916679  119.44999695    3.07999992    2.67000008
   18.18249893  122.90399933    3.07999992    2.67000008
   18.18583298  123.74700165    3.07999992    2.67000008
   18.18888855  118.98699951    3.09999990    2.67000008
   18.19166565  113.08000183    3.09999990    2.67000008
   18.19249916  122.80999756    3.09999990    2.67000008
   18.19583321  129.60499573    3.05999994    2.67000008
   18.20194435  129.60499573    3.00000000    2.67000008
   18.20583344  114.88200378    3.03999996    2.69000006
   18.20916748  113.73300171    3.00000000    2.67000008
   18.21250153  113.86299896    2.98000002    2.67000008
   18.21555710  121.84700012    2.98000002    2.67000008
   18.21888924  115.97899628    2.93000007    2.67000008
   18.22194481  115.86799622    2.94000006    2.67000008
   18.22500038  117.03800201    2.93000007    2.67000008
   18.22583389  119.96099854    2.94000006    2.67000008
   18.22916794  116.15799713    2.94000006    2.67000008
   18.23222351  115.16100311    2.94000006    2.67000008
   18.23555565  117.30500031    2.91000009    2.67000008
   18.23861122  114.70300293    2.86999989    2.67000008
   18.24472237  114.70300293    2.84999990    2.69000006
   18.24888992  112.66200256    2.80999994    2.67000008
   18.25194359  112.11699677    2.82999992    2.69000006
   18.25527763  119.08699799    2.78999996    2.69000006
   18.25833321  118.91699982    2.76999998    2.69000006
   18.25888824  122.22799683    2.76999998    2.69000006
   18.26222229  121.17400360    2.78999996    2.69000006
   18.26527786  118.27500153    2.75000000    2.69000006
   18.26861000  120.77899933    2.75000000    2.69000006
   18.27166557  113.09500122    2.75000000    2.69000006
   18.27499962  106.62899780    2.71000004    2.67000008
   18.27833366  122.40399933    2.71000004    2.67000008
   18.28138924  114.97000122    2.71000004    2.69000006
   18.28750038  114.97000122    2.75000000    2.69000006
   18.29166603  113.16300201    2.75000000    2.69000006
   18.29222107  108.05799866    2.75000000    2.69000006
   18.29555511  115.76000214    2.75000000    2.69000006
   18.29861069  115.18900299    2.76999998    2.67000008
   18.30194283  113.32599640    2.75000000    2.67000008
   18.30499840  112.65899658    2.76999998    2.67000008
   18.30833244  115.94499969    2.76999998    2.67000008
   18.31166649  110.08499908    2.75000000    2.67000008
   18.31472206  105.32800293    2.76999998    2.67000008
   18.31805611  110.64299774    2.76999998    2.67000008
   18.32139015  111.24900055    2.76999998    2.67000008
   18.32444572  113.75800323    2.73000002    2.67000008
   18.32555580  109.10399628    2.76999998    2.69000006
   18.33027840  109.10399628    2.76999998    2.69000006
   18.33444595  121.58799744    2.78999996    2.67000008
   18.33777809  121.41400146    2.73000002    2.69000006
   18.34083366  119.12200165    2.75000000    2.67000008
   18.34416771  118.26699829    2.73000002    2.67000008
   18.34749985  122.56999969    2.75000000    2.67000008
   18.35055542  116.37699890    2.73000002    2.69000006
   18.35388947  129.55099487    2.71000004    2.67000008
   18.35694504  123.49199677    2.71000004    2.67000008
   18.35888863  114.80100250    2.73000002    2.67000008
   18.36055565  119.46800232    2.71000004    2.67000008
   18.36388969  107.83699799    2.73000002    2.69000006
   18.36722183  117.08499908    2.69000006    2.67000008
   18.37305641  117.08499908    2.71000004    2.67000008
   18.37722206  125.86699677    2.69000006    2.67000008
   18.38055611  124.35600281    2.69000006    2.67000008
   18.38388824  120.55899811    2.67000008    2.67000008
   18.38694382  133.42399597    2.71000004    2.67000008
   18.39027786  120.67299652    2.66000009    2.67000008
   18.39222145  126.89800262    2.64000010    2.69000006
   18.39361191  133.04899597    2.66000009    2.67000008
   18.39694405  128.60699463    2.66000009    2.67000008
   18.40027809  132.18899536    2.69000006    2.67000008
   18.40333366  143.22399902    2.66000009    2.67000008
   18.40666580  126.23799896    2.67000008    2.67000008
   18.40972137  129.57000732    2.69000006    2.67000008
   18.41611099  129.57000732    2.66000009    2.69000006
   18.42027664  125.20200348    2.66000009    2.67000008
   18.42333221  104.36900330    2.67000008    2.67000008
   18.42555428  121.78299713    2.69000006    2.67000008
   18.42694473  117.45500183    2.67000008    2.67000008
   18.43027687  134.89799500    2.67000008    2.67000008
   18.43361092  128.70500183    2.69000006    2.67000008
   18.43666649  124.19999695    2.64000010    2.67000008
   18.43999863  127.70800018    2.71000004    2.67000008
   18.44333267  132.86999512    2.69000006    2.67000008
   18.44638824  125.30699921    2.67000008    2.67000008
   18.44972038  139.53300476    2.67000008    2.67000008
   18.45277786  119.81300354    2.69000006    2.67000008
   18.45888901  119.81300354    2.71000004    2.67000008
   18.46305656  132.72099304    2.71000004    2.67000008
   18.46611214  128.20700073    2.73000002    2.67000008
   18.46944427  128.63600159    2.73000002    2.67000008
   18.47277832  140.81500244    2.71000004    2.67000008
   18.47583389  139.52999878    2.71000004    2.67000008
   18.47916794  132.05000305    2.71000004    2.67000008
   18.48250008  145.87100220    2.71000004    2.69000006
   18.48555565  131.24600220    2.73000002    2.67000008
   18.48888969  139.37300110    2.73000002    2.69000006
   18.49194527  144.00999451    2.75000000    2.67000008
   18.49250031  144.63000488    2.75000000    2.67000008
   18.49583435  153.31599426    2.71000004    2.67000008
   18.50166702  153.31599426    2.71000004    2.66000009
   18.50583267  138.19799805    2.71000004    2.67000008
   18.50916672  138.91099548    2.71000004    2.67000008
   18.51222229  134.58799744    2.71000004    2.67000008
   18.51555634  138.68899536    2.69000006    2.67000008
   18.51888847  133.85200500    2.69000006    2.67000008
   18.52194405  127.62100220    2.71000004    2.67000008
   18.52527809  127.36900330    2.73000002    2.67000008
   18.52583313  129.97399902    2.67000008    2.67000008
   18.52888870  132.66400146    2.71000004    2.67000008
   18.53222275  137.51699829    2.69000006    2.67000008
   18.53527641  133.86300659    2.67000008    2.67000008
   18.53861046  131.35600281    2.71000004    2.67000008
   18.54444313  131.35600281    2.69000006    2.67000008
   18.54861069  133.29800415    2.69000006    2.66000009
   18.55194283  141.51199341    2.67000008    2.67000008
   18.55527687  144.36999512    2.71000004    2.67000008
   18.55833244  125.73600006    2.73000002    2.66000009
   18.55916595  149.12100220    2.71000004    2.69000006
   18.56194305  139.85200500    2.75000000    2.67000008
   18.56527710  147.85800171    2.71000004    2.66000009
   18.56833458  123.86199951    2.75000000    2.67000008
   18.57166672  143.37600708    2.75000000    2.67000008
   18.57472229  136.83099365    2.76999998    2.67000008
   18.57805634  138.53199768    2.73000002    2.67000008
   18.58139038  129.86199951    2.76999998    2.67000008
   18.58750153  129.86199951    2.76999998    2.67000008
   18.59166718  135.78700256    2.76999998    2.67000008
   18.59250069  148.43800354    2.75000000    2.67000008
   18.59527779  136.51499939    2.76999998    2.67000008
   18.59861183  124.99299622    2.76999998    2.66000009
   18.60166740  144.82600403    2.76999998    2.66000009
   18.60499954  129.98599243    2.75000000    2.66000009
   18.60833359  142.62100220    2.73000002    2.67000008
   18.61138916  142.66099548    2.75000000    2.67000008
   18.61472321  121.86399841    2.75000000    2.67000008
   18.61777878  141.57899475    2.69000006    2.61999989
   18.62111092  126.70500183    2.71000004    2.67000008
   18.62444496  125.62300110    2.69000006    2.67000008
   18.62583351  133.97599792    2.73000002    2.66000009
   18.63027763  133.97599792    2.69000006    2.25000000
   18.63444519  142.41999817    2.71000004    2.66000009
   18.63750076  129.30200195    2.71000004    2.66000009
   18.64083290  143.33000183    2.73000002    2.66000009
   18.64416695  147.68499756    2.73000002    1.23000002
   18.64749908  167.16400146    2.73000002    2.66000009
   18.65055466  201.36099243    2.73000002    2.66000009
   18.65388870  175.40699768    2.73000002    2.66000009
   18.65694427  161.87100220    2.69000006    2.67000008
   18.65916634  148.67799377    2.69000006    2.69000006
   18.66083336  169.92500305    2.69000006    2.67000008
   18.66416550  162.12500000    2.69000006    2.67000008
   18.66722107  136.28700256    2.67000008    2.67000008
   18.67305565  136.28700256    2.69000006    2.66000009
   18.67722130  148.61099243    2.69000006    2.66000009
   18.68055534  150.34800720    2.69000006    2.67000008
   18.68361092  180.47599792    2.69000006    2.66000009
   18.68694305  159.64599609    2.71000004    2.67000008
   18.69027710  151.18899536    2.73000002    2.67000008
   18.69249916  158.77999878    2.71000004    2.67000008
   18.69388771  151.53300476    2.69000006    2.67000008
   18.69722176  136.77099609    2.73000002    2.67000008
   18.70027924  135.86999512    2.69000006    2.66000009
   18.70361137  149.39999390    2.71000004    2.67000008
   18.70666695  150.17900085    2.66000009    2.66000009
   18.71000099  147.04600525    2.73000002    2.67000008
   18.71583366  147.04600525    2.69000006    2.67000008
   18.72000122  123.80899811    2.69000006    2.66000009
   18.72333336  126.23799896    2.73000002    2.66000009
   18.72583389  129.85800171    2.73000002    2.66000009
   18.72694588  132.90800476    2.69000006    2.67000008
   18.73027802  129.47700500    2.71000004    2.66000009
   18.73333359  136.60099792    2.71000004    2.66000009
   18.73666763  132.65299988    2.71000004    2.67000008
   18.73999977  128.29499817    2.73000002    2.66000009
   18.74305534  130.93200684    2.73000002    2.67000008
   18.74638939  119.28299713    2.69000006    2.66000009
   18.74944496  124.07800293    2.69000006    2.66000009
   18.75277710  123.20400238    2.69000006    2.66000009
   18.75888824  123.20400238    2.69000006    2.66000009
   18.77722168  121.84200287    2.75000000    2.66000009
   18.78027725  119.62500000    2.73000002    2.66000009
   18.78361130  117.83599854    2.75000000    2.66000009
   18.78694344  119.45500183    2.75000000    2.66000009
   18.78999901  114.94699860    2.76999998    2.66000009
   18.79333305  114.42099762    2.73000002    2.66000009
   18.79666710  118.62200165    2.76999998    2.67000008
   18.80194283  118.62200165    2.75000000    2.66000009
   18.80611038  127.97200012    2.75000000    2.66000009
   18.80916595  124.41100311    2.76999998    2.66000009
   18.81027794  110.62899780    2.75000000    2.66000009
   18.81277657  124.48999786    2.75000000    2.66000009
   18.81611061  123.96700287    2.73000002    2.66000009
   18.81944466  122.42600250    2.75000000    2.64000010
   18.82250023  125.48899841    2.75000000    2.66000009
   18.82583427  120.33799744    2.75000000    2.64000010
   18.82916832  126.22599792    2.76999998    2.66000009
   18.83222389  119.87500000    2.75000000    2.66000009
   18.83555603  119.84799957    2.71000004    2.66000009
   18.83889008  127.46700287    2.75000000    2.66000009
   18.84472275  127.46700287    2.73000002    2.66000009
   18.84889030  124.10700226    2.75000000    2.66000009
   18.85222244  125.97000122    2.71000004    2.66000009
   18.85527802  124.20700073    2.73000002    2.66000009
   18.85861206  122.02899933    2.71000004    2.64000010
   18.86166763  100.58300018    2.73000002    2.66000009
   18.86499977  121.12899780    2.69000006    2.64000010
   18.86833382  122.81099701    2.71000004    2.66000009
   18.87138939  120.97100067    2.73000002    2.66000009
   18.87472153  118.12999725    2.73000002    2.66000009
   18.87694550  126.78900146    2.75000000    2.66000009
   18.87833405  121.33699799    2.76999998    2.66000009
   18.88166618  119.83300018    2.71000004    2.66000009
   18.88750076  119.83300018    2.78999996    2.66000009
   18.89166641  126.77100372    2.76999998    2.66000009
   18.89500046  125.12200165    2.76999998    2.66000009
   18.89805603  124.88800049    2.76999998    2.66000009
   18.90138817  130.29299927    2.76999998    2.66000009
   18.90472221  140.80599976    2.75000000    2.66000009
   18.90777779  135.28799438    2.75000000    2.66000009
   18.91027832  160.34700012    2.75000000    2.64000010
   18.91166687  150.30099487    2.75000000    2.66000009
   18.91472244  144.22599792    2.75000000    2.64000010
   18.91805458  149.75399780    2.78999996    2.66000009
   18.92111015  156.56500244    2.76999998    2.64000010
   18.92444420  176.42100525    2.73000002    2.66000009
   18.93055534  176.42100525    2.73000002    2.66000009
   18.93444443  158.73899841    2.69000006    2.66000009
   18.93777657  162.04100037    2.75000000    2.64000010
   18.94111061  161.40400696    2.78999996    2.66000009
   18.94361115  159.65199280    2.75000000    2.66000009
   18.94472122  188.53799438    2.73000002    2.66000009
   18.94777679  170.45399475    2.76999998    2.64000010
   18.95111275  176.47399902    2.76999998    2.64000010
   18.95416832  180.44999695    2.75000000    2.64000010
   18.95750046  162.58399963    2.82999992    2.64000010
   18.96083450  158.57299805    2.78999996    2.64000010
   18.96389008  160.74699402    2.76999998    2.66000009
   18.96722221  170.49899292    2.78999996    2.64000010
   18.97333336  170.49899292    2.78999996    2.64000010
   18.97750092  165.69000244    2.76999998    2.64000010
   18.98055649  165.88800049    2.76999998    2.66000009
   18.98388863  149.88400269    2.75000000    2.66000009
   18.98722267  142.53399658    2.73000002    2.66000009
   18.99027824  155.50399780    2.75000000    2.66000009
   18.99361229  154.95899963    2.76999998    2.64000010
   18.99666786  144.63000488    2.78999996    2.66000009
   19.00000000  145.24000549    2.71000004    2.66000009
   19.00333405  149.08700562    2.78999996    2.64000010
   19.00638962  130.65199280    2.76999998    2.64000010
   19.00972176  140.05799866    2.75000000    2.64000010
   19.01027870  138.58399963    2.75000000    2.64000010
   19.01611137  138.58399963    2.75000000    2.64000010
   19.02027702  140.36799622    2.75000000    2.64000010
   19.02361107  129.64199829    2.73000002    2.66000009
   19.02666664  128.02299500    2.75000000    2.64000010
   19.03000069  135.04200745    2.76999998    2.64000010
   19.03305435  145.68800354    2.76999998    2.61999989
   19.03638840  134.70799255    2.78999996    2.64000010
   19.03972244  134.03500366    2.78999996    2.64000010
   19.04277802  133.07000732    2.78999996    2.66000009
   19.04361153  139.37800598    2.76999998    2.64000010
   19.04666710  139.10600281    2.73000002    2.64000010
   19.04972076  132.13499451    2.75000000    2.64000010
   19.05305481  131.32200623    2.75000000    2.61999989
   19.05888748  131.32200623    2.73000002    2.64000010
   19.06305504  135.36999512    2.73000002    2.64000010
   19.06638718  132.90100098    2.75000000    2.64000010
   19.06944466  138.00900269    2.73000002    2.64000010
   19.07277870  139.98100281    2.75000000    2.64000010
   19.07611275  137.19599915    2.75000000    2.64000010
   19.07694626  144.38699341    2.73000002    2.66000009
   19.07972336  139.58999634    2.75000000    2.64000010
   19.08277893  137.91799927    2.78999996    2.64000010
   19.08611107  144.32499695    2.78999996    2.64000010
   19.08944511  145.03999329    2.78999996    2.64000010
   19.09250069  158.19799805    2.78999996    2.64000010
   19.09583473  143.89799500    2.76999998    2.61999989
   19.10166740  143.89799500    2.76999998    2.66000009
   19.10583305  132.52999878    2.76999998    2.64000010
   19.10916710  150.18099976    2.78999996    2.64000010
   19.11027908  134.87300110    2.80999994    2.64000010
   19.11277771  148.17199707    2.76999998    2.64000010
   19.11583328  137.64399719    2.80999994    2.64000010
   19.11916733  139.73899841    2.84999990    2.61999989
   19.12249947  144.58700562    2.86999989    2.64000010
   19.12555504  132.62199402    2.89000010    2.64000010
   19.12888908  141.02699280    2.89000010    2.64000010
   19.13194466  140.02799988    2.86999989    2.64000010
   19.13527679  136.54600525    2.86999989    2.64000010
   19.13861084  140.03900146    2.89000010    2.64000010
   19.14472198  140.03900146    2.91000009    2.64000010
   19.14888954  134.81700134    2.86999989    2.61999989
   19.15194321  141.02299500    2.94000006    2.64000010
   19.15527725  126.50900269    2.86999989    2.64000010
   19.15833282  134.51499939    2.89000010    2.61999989
   19.16166687  133.99800110    2.89000010    2.64000010
   19.16499901  133.22200012    2.84999990    2.61999989
   19.16805458  134.70100403    2.84999990    2.64000010
   19.17138863  133.65600586    2.84999990    2.64000010
   19.17472076  148.83900452    2.84999990    2.64000010
   19.17694473  145.54200745    2.86999989    2.64000010
   19.17833328  127.51000214    2.84999990    2.64000010
   19.18138885  135.85400391    2.82999992    2.64000010
   19.18750000  135.85400391    2.82999992    2.64000010
   19.19166565  145.21499634    2.86999989    2.64000010
   19.19472122  145.93099976    2.86999989    2.64000010
   19.19805527  151.41299438    2.89000010    2.64000010
   19.20138931  166.42900085    2.91000009    2.64000010
   19.20444489  162.94700623    2.89000010    2.61999989
   19.20777893  196.94999695    2.91000009    2.64000010
   19.21027946  186.14700317    2.86999989    2.64000010
   19.21138954  194.00799561    2.86999989    2.61999989
   19.21444511  209.13299561    2.89000010    2.64000010
   19.21777916  186.42199707    2.86999989    2.64000010
   19.22111130  158.09899902    2.82999992    2.64000010
   19.22416687  194.57800293    2.89000010    2.61999989
   19.23027802  194.57800293    2.86999989    2.61999989
   19.23444557  139.65600586    2.89000010    2.64000010
   19.23777771  161.28999329    2.89000010    2.64000010
   19.24083328  142.94400024    2.84999990    2.64000010
   19.24361229  135.80900574    2.89000010    2.64000010
   19.24472237  143.42100525    2.86999989    2.64000010
   19.24777794  149.45700073    2.91000009    2.64000010
   19.25111198  154.44500732    2.91000009    2.64000010
   19.25444412  148.76199341    2.84999990    2.64000010
   19.25749969  140.99099731    2.86999989    2.61999989
   19.26083374  146.94099426    2.89000010    2.61999989
   19.26388931  136.66900635    2.89000010    2.61999989
   19.26722145  122.86699677    2.89000010    2.61999989
   19.27305603  122.86699677    2.84999990    2.61999989
   19.27722168  125.04900360    2.89000010    2.64000010
   19.28055573   -1.00000000    2.89000010    2.61999989
   19.28388786   -1.00000000    2.91000009    2.64000010
   19.28694344   -1.00000000    2.93000007    2.64000010
   19.29027748   -1.00000000    2.86999989    2.64000010
   19.29333305   -1.00000000    2.86999989    2.64000010
   19.29666710  141.05099487    2.82999992    2.61999989
   19.29999924  143.14700317    2.91000009    2.61999989
   19.30305481  120.49199677    2.86999989    2.61999989
   19.30638885  133.58599854    2.93000007    2.61999989
   19.30944443  126.12300110    2.94000006    2.64000010
   19.31027794  126.04000092    2.89000010    2.64000010
   19.31611061  126.04000092    2.89000010    2.64000010
   19.32027817  121.63899994    2.84999990    2.64000010
   19.32333374  127.33999634    2.91000009    2.64000010
   19.32666779   -1.00000000    2.89000010    2.61999989
   19.32972336   -1.00000000    2.91000009    2.61999989
   19.33305550   -1.00000000    2.91000009    2.61999989
   19.33638954   -1.00000000    2.93000007    2.61999989
   19.33944511   -1.00000000    2.91000009    2.61999989
   19.34277916   -1.00000000    2.91000009    2.61999989
   19.34611130   -1.00000000    2.89000010    2.61999989
   19.34944534   -1.00000000    2.91000009    2.61999989
   19.35277748   -1.00000000    2.91000009    2.61999989
   19.36305618   -1.00000000    2.93000007    2.64000010
   19.36611176   -1.00000000    2.94000006    2.61999989
   19.36944389   -1.00000000    2.98000002    2.59999990
   19.37249947   -1.00000000    2.96000004    2.61999989
   19.37583351   -1.00000000    2.96000004    2.59999990
   19.37916756   -1.00000000    2.98000002    2.61999989
   19.38249969   -1.00000000    3.01999998    2.61999989
   19.38583374   -1.00000000    3.00000000    2.61999989
   19.38888931   -1.00000000    3.01999998    2.61999989
   19.39222145   -1.00000000    3.00000000    2.61999989
   19.39555550   -1.00000000    2.98000002    2.61999989
   19.40583229   -1.00000000    2.98000002    2.61999989
   19.40888786   -1.00000000    3.03999996    2.61999989
   19.41250038   -1.00000000    3.01999998    2.64000010
   19.41583252   -1.00000000    2.94000006    2.61999989
   19.41916656   -1.00000000    3.00000000    2.61999989
   19.42222214   -1.00000000    3.01999998    2.61999989
   19.42555428   -1.00000000    3.01999998    2.61999989
   19.42860985   -1.00000000    3.03999996    2.61999989
   19.43194389   -1.00000000    3.01999998    2.61999989
   19.43527603   -1.00000000    3.03999996    2.61999989
   19.43833160   -1.00000000    3.11999989    2.61999989
   19.44861031   -1.00000000    3.14000010    2.61999989
   19.45194435   -1.00000000    3.11999989    2.59999990
   19.45499992   -1.00000000    3.16000009    2.61999989
   19.45833397   -1.00000000    3.11999989    2.61999989
   19.46138954   -1.00000000    3.16000009    2.61999989
   19.46472359   -1.00000000    3.14000010    2.61999989
   19.46805573   -1.00000000    3.16000009    2.59999990
   19.47111130   -1.00000000    3.18000007    2.61999989
   19.47444534   -1.00000000    3.16000009    2.59999990
   19.47777748   -1.00000000    3.16000009    2.59999990
   19.48111153   -1.00000000    3.20000005    2.59999990
   19.49138832   -1.00000000    3.18000007    2.59999990
   19.49472237   -1.00000000    3.18000007    2.59999990
   19.49777794   -1.00000000    3.20000005    2.59999990
   19.50111198   -1.00000000    3.21000004    2.59999990
   19.50444412   -1.00000000    3.26999998    2.57999992
   19.50749969   -1.00000000    3.21000004    2.59999990
   19.51111031   -1.00000000    3.25000000    2.59999990
   19.51444435   -1.00000000    3.23000002    2.59999990
   19.51777840   -1.00000000    3.26999998    2.59999990
   19.52083397   -1.00000000    3.28999996    2.59999990
   19.52416611   -1.00000000    3.25000000    2.59999990
   19.53416634   -1.00000000    3.32999992    2.57999992
   19.53750038   -1.00000000    3.34999990    2.59999990
   19.54083252   -1.00000000    3.34999990    2.57999992
   19.54416656   -1.00000000    3.34999990    2.59999990
   19.54749870   -1.00000000    3.36999989    2.59999990
   19.55083275   -1.00000000    3.32999992    2.57999992
   19.55388832   -1.00000000    3.32999992    2.59999990
   19.55722237   -1.00000000    3.30999994    2.59999990
   19.56027794   -1.00000000    3.32999992    2.59999990
   19.56361008   -1.00000000    3.30999994    2.59999990
   19.56694603   -1.00000000    3.30999994    2.59999990
   19.57722282   -1.00000000    3.32999992    2.57999992
   19.58027840   -1.00000000    3.34999990    2.61999989
   19.58361244   -1.00000000    3.39000010    2.59999990
   19.58694458   -1.00000000    3.36999989    2.57999992
   19.59000015   -1.00000000    3.45000005    2.57999992
   19.59333420   -1.00000000    3.45000005    2.57999992
   19.59638977   -1.00000000    3.45000005    2.57999992
   19.59972191   -1.00000000    3.45000005    2.57999992
   19.60305595   -1.00000000    3.43000007    2.59999990
   19.60611153   -1.00000000    3.46000004    2.57999992
   19.60944557   -1.00000000    3.45000005    2.57999992
   19.62000084   -1.00000000    3.50000000    2.57999992
   19.62305641   -1.00000000    3.55999994    2.57999992
   19.62638855   -1.00000000    3.45000005    2.57999992
   19.62972260   -1.00000000    3.51999998    2.57999992
   19.63277817   -1.00000000    3.50000000    2.57999992
   19.63611031   -1.00000000    3.51999998    2.57999992
   19.63916588   -1.00000000    3.48000002    2.57999992
   19.64249992   -1.00000000    3.50000000    2.57999992
   19.64583397   -1.00000000    3.50000000    2.57999992
   19.64916611   -1.00000000    3.50000000    2.55999994
   19.65250015   -1.00000000    3.55999994    2.57999992
   19.66277695   -1.00000000    3.59999990    2.55999994
   19.66611099   -1.00000000    3.61999989    2.57999992
   19.66916656   -1.00000000    3.57999992    2.57999992
   19.67249870   -1.00000000    3.57999992    2.57999992
   19.67583275   -1.00000000    3.59999990    2.57999992
   19.67916679   -1.00000000    3.59999990    2.57999992
   19.68249893   -1.00000000    3.64000010    2.57999992
   19.68583298   -1.00000000    3.61999989    2.55999994
   19.68888855   -1.00000000    3.61999989    2.57999992
   19.69222069   -1.00000000    3.59999990    2.57999992
   19.69555473   -1.00000000    3.66000009    2.55999994
   19.70555687   -1.00000000    3.70000005    2.57999992
   19.70888901   -1.00000000    3.75000000    2.55999994
   19.71222305   -1.00000000    3.73000002    2.57999992
   19.71555710   -1.00000000    3.78999996    2.55999994
   19.71888924   -1.00000000    3.76999998    2.55999994
   19.72194481   -1.00000000    3.80999994    2.57999992
   19.72527885   -1.00000000    3.82999992    2.55999994
   19.72861099   -1.00000000    3.89000010    0.15000001
   19.73166656   -1.00000000    3.91000009    2.55999994
   19.73500061   -1.00000000    3.95000005    2.55999994
   19.73805618   -1.00000000    3.93000007    2.55999994
   19.74861145   -1.00000000    3.95000005    2.53999996
   19.75166702   -1.00000000    3.97000003    2.55999994
   19.75499916   -1.00000000    3.95000005    2.55999994
   19.75805473   -1.00000000    3.97000003    2.55999994
   19.76138878   -1.00000000    3.97000003    2.55999994
   19.76472282   -1.00000000    4.03999996    2.53999996
   19.76777840   -1.00000000    4.01999998    2.53999996
   19.77111053   -1.00000000    4.01999998    2.53999996
   19.77444458   -1.00000000    4.05999994    2.53999996
   19.80166626   -1.00000000    4.17999983    2.53999996
   19.80472183   -1.00000000    4.11999989    2.53999996
   19.80805397   -1.00000000    4.17999983    2.53999996
   19.81166649   -1.00000000    4.15999985    2.53999996
   19.81472206   -1.00000000    4.09999990    2.53999996
   19.81805611   -1.00000000    4.11999989    2.53999996
   19.82111168   -1.00000000    4.15999985    2.53999996
   19.82444572   -1.00000000    4.15999985    2.55999994
   19.82777786   -1.00000000    4.17999983    2.55999994
   19.83083344   -1.00000000    4.19999981    2.55999994
   19.83416748   -1.00000000    4.26999998    2.53999996
   19.84444427   -1.00000000    4.28999996    2.53999996
   19.84749985   -1.00000000    4.28999996    2.53999996
   19.85083389   -1.00000000    4.28999996    2.51999998
   19.85416794   -1.00000000    4.28999996    2.53999996
   19.85722351   -1.00000000    4.30999994    2.53999996
   19.86055565   -1.00000000    4.30999994    2.53999996
   19.86361122   -1.00000000    4.30999994    2.51999998
   19.86694527   -1.00000000    4.28999996    2.51999998
   19.87000084   -1.00000000    4.28999996    2.53999996
   19.87333298   -1.00000000    4.30999994    2.53999996
   19.87666702   -1.00000000    4.30999994    2.53999996
   19.88722229   -1.00000000    4.32999992    2.51999998
   19.89027786   -1.00000000    4.36999989    2.51999998
   19.89361191   -1.00000000    4.38999987    2.51999998
   19.89694405   -1.00000000    4.38999987    2.51999998
   19.89999962   -1.00000000    4.36999989    2.51999998
   19.90333366   -1.00000000    4.34999990    2.51999998
   19.90638924   -1.00000000    4.34999990    2.51999998
   19.90972137   -1.00000000    4.30999994    2.51999998
   19.91333389   -1.00000000    4.38999987    2.51999998
   19.91666603   -1.00000000    4.34999990    2.51999998
   19.91972160   -1.00000000    4.38999987    2.51999998
   19.93000031   -1.00000000    4.26999998    2.53999996
   19.93333244   -1.00000000    4.28999996    2.51999998
   19.93638802   -1.00000000    4.28999996    2.51999998
   19.93972206   -1.00000000    4.21999979    2.53999996
   19.94305420   -1.00000000    4.19999981    2.51999998
   19.94638824   -1.00000000    4.15999985    2.51999998
   19.94972038   -1.00000000    4.19999981    2.51999998
   19.95277786   -1.00000000    4.21999979    2.51999998
   19.95611191   -1.00000000    4.19999981    2.51999998
   19.95916748   -1.00000000    4.23999977    2.51999998
   19.96250153   -1.00000000    4.19999981    2.51999998
   19.97277832   -1.00000000    4.32999992    2.51999998
   19.97611237   -1.00000000    4.38999987    2.51999998
   19.97972298   -1.00000000    4.36999989    2.51999998
   19.98305511   -1.00000000    4.44999981    2.51999998
   19.98611069   -1.00000000    4.38999987    2.50000000
   19.98944473   -1.00000000    4.40999985    2.50000000
   19.99250031   -1.00000000    4.44999981    2.50000000
   19.99583435   -1.00000000    4.42999983    2.51999998
   19.99916649   -1.00000000    4.46999979    2.51999998
   20.00222206   -1.00000000    4.46999979    2.50000000
   20.00555611   -1.00000000    4.42999983    2.50000000
   20.01583290   -1.00000000    4.44999981    2.50000000
   20.01888847   -1.00000000    4.40999985    2.50000000
   20.02222252   -1.00000000    4.44999981    2.50000000
   20.02527809   -1.00000000    4.40999985    2.50000000
   20.02861023   -1.00000000    4.46999979    2.51999998
   20.03194427   -1.00000000    4.42999983    2.50000000
   20.03499985   -1.00000000    4.42999983    2.50000000
   20.03833199   -1.00000000    4.38999987    2.50000000
   20.04166603   -1.00000000    4.46999979    2.50000000
   20.04500008   -1.00000000    4.44999981    2.50000000
   20.04833221   -1.00000000    4.44999981    2.51999998
   20.05861092   -1.00000000    4.53000021    2.50000000
   20.06166649   -1.00000000    4.53000021    2.50000000
   20.06499863   -1.00000000    4.51000023    2.50000000
   20.06833458   -1.00000000    4.51000023    2.50000000
   20.07139015   -1.00000000    4.55999994    2.50000000
   20.07472229   -1.00000000    4.57999992    2.50000000
   20.07833481   -1.00000000    4.61999989    2.50000000
   20.08166695   -1.00000000    4.57999992    2.48000002
   20.08472252   -1.00000000    4.59999990    2.48000002
   20.08805656   -1.00000000    4.61999989    2.50000000
   20.09111214   -1.00000000    4.61999989    2.50000000
   20.10138893   -1.00000000    4.67999983    2.48000002
   20.10472298   -1.00000000    4.69999981    2.48000002
   20.10777855   -1.00000000    4.73999977    2.48000002
