    HOUR (UT)   FLARE FACTOR    SKY TESTER    SUN TESTER
   11.08472157   -1.00000000   -1.00000000   -1.00000000
   11.10444450  145.76600647    4.90999985    1.61000001
   11.11000061  161.99899292    4.90999985    1.64999998
   11.11333370  126.45099640    4.90999985    1.64999998
   11.11666679  149.33500671    4.90999985    1.64999998
   11.11972237  236.85099792    4.90999985    1.66999996
   11.12305546  254.26899719    4.90999985    1.66999996
   11.12638855  265.13299561    4.90999985    1.66999996
   11.12944412  222.61999512    4.90999985    1.66999996
   11.13277817  263.50000000    4.90999985    1.66999996
   11.13583279  285.64898682    4.90999985    1.69000006
   11.13777733  289.49600220    4.90999985    1.69000006
   11.13972187  300.47698975    4.90999985    1.71000004
   11.14166641  310.00900269    4.90999985    1.71000004
   11.14277744  308.69699097    4.90999985    1.71000004
   11.14416695  319.99899292    4.90999985    1.71000004
   11.14555550  352.18099976    4.90999985    1.71000004
   11.14694405  351.81698608    4.90999985    1.71000004
   11.14833355  314.76199341    4.90999985    1.71000004
   11.14999962  336.55398560    4.90999985    1.71000004
   11.15111065  330.91198730    4.90999985    1.71000004
   11.15249920  341.50100708    4.90999985    1.71000004
   11.15416622  351.87701416    4.90999985    1.71000004
   11.15527725  313.45001221    4.90999985    1.71000004
   11.15666676  314.26000977    4.90999985    1.71000004
   11.15805531  338.01000977    4.90999985    1.71000004
   11.15944386  348.42300415    4.90999985    1.71000004
   11.16111088  355.71600342    4.90999985    1.71000004
   11.16222191  315.64700317    4.90999985    1.73000002
   11.16361046  332.07199097    4.90999985    1.73000002
   11.16499996  311.87200928    4.90999985    1.73000002
   11.16638851  331.72100830    4.90999985    1.73000002
   11.16777802  328.89700317    4.90999985    1.73000002
   11.16916656  355.12298584    4.90999985    1.71000004
   11.17055607  350.37701416    4.90999985    1.71000004
   11.17194462  305.16400146    4.90999985    1.73000002
   11.17333412  297.41000366    4.90999985    1.71000004
   11.17472267  417.85900879    4.90999985    1.73000002
   11.17666721  350.21899414    4.90999985    1.73000002
   11.17750072  381.28201294    4.90999985    1.73000002
   11.17888927  360.91799927    4.90999985    1.73000002
   11.18027782  327.07299805    4.90999985    1.73000002
   11.18166733  353.09201050    4.90999985    1.73000002
   11.18305588  369.98999023    4.90999985    1.75000000
   11.18444443  331.15399170    4.90999985    1.73000002
   11.18583298  368.92999268    4.90999985    1.75000000
   11.18722248  340.62799072    4.90999985    1.75000000
   11.18861103  392.92700195    4.90999985    1.75000000
   11.19000053  345.47698975    4.90999985    1.75000000
   11.19138908  345.88299561    4.90999985    1.75000000
   11.19277763  353.06201172    4.90999985    1.75000000
   11.19416714  351.07901001    4.90999985    1.75000000
   11.19555569  302.35598755    4.90999985    1.75000000
   11.19694424  356.15200806    4.90999985    1.75000000
   11.19833374  328.90701294    4.90999985    1.75000000
   11.19972229  335.45300293    4.90999985    1.76999998
   11.20111084  345.72799683    4.90999985    1.78999996
   11.20249939  317.16900635    4.90999985    1.78999996
   11.20388889  318.76501465    4.90999985    1.78999996
   11.20527744  303.37701416    4.90999985    1.78999996
   11.20666695  302.04998779    4.90999985    1.78999996
   11.20833302  331.54299927    4.90999985    1.78999996
   11.20944405  313.77200317    4.90999985    1.78999996
   11.21083355  323.41400146    4.90999985    1.80999994
   11.21222210  315.50799561    4.90999985    1.80999994
   11.21361065  282.95498657    4.90999985    1.80999994
   11.21527767  301.04400635    4.88999987    1.80999994
   11.21638870  335.54800415    4.86999989    1.83000004
   11.21777725  292.06698608    4.84999990    1.80999994
   11.21916580  303.80499268    4.80999994    1.83000004
   11.22055531  306.91799927    4.80999994    1.83000004
   11.22194386  343.10501099    4.78000021    1.83000004
   11.22333336  293.36801147    4.76000023    1.83000004
   11.22472191  275.85299683    4.73999977    1.83000004
   11.22611046  296.10998535    4.69999981    1.83000004
   11.22749996  277.38800049    4.67999983    1.83000004
   11.22888851  320.68200684    4.65999985    1.83000004
   11.23027706  285.24899292    4.61999989    1.83000004
   11.23166656  298.50201416    4.59999990    1.83000004
   11.23305511  301.58999634    4.57999992    1.83000004
   11.23444462  280.86300659    4.53999996    1.83000004
   11.23583317  318.68600464    4.53999996    1.83000004
   11.23722267  267.14001465    4.53999996    1.83000004
   11.23861122  306.86199951    4.53999996    1.83000004
   11.24000072  288.86499023    4.53999996    1.83000004
   11.24138927  271.59899902    4.53999996    1.85000002
   11.24277782  268.44500732    4.53999996    1.85000002
   11.24416733  318.78500366    4.53999996    1.85000002
   11.24555588  288.89199829    4.55999994    1.85000002
   11.24694443  292.16299438    4.57999992    1.85000002
   11.24833393  323.50100708    4.59999990    1.86000001
   11.24972248  278.69299316    4.63999987    1.86000001
   11.25111103  327.41101074    4.65999985    1.86000001
   11.25249958  296.75000000    4.69999981    1.85000002
   11.25388908  291.78100586    4.73999977    1.86000001
   11.25527763  288.48400879    4.78000021    1.86000001
   11.25666714  300.19799805    4.82999992    1.86000001
   11.25805569  276.24798584    4.84999990    1.86000001
   11.25944424  284.03100586    4.88999987    1.86000001
   11.26083374  259.21200562    4.90999985    1.86000001
   11.26222229  272.37399292    4.90999985    1.86000001
   11.26361084  287.34201050    4.90999985    1.86000001
   11.26500034  299.75100708    4.90999985    1.86000001
   11.26638889  275.10198975    4.90999985    1.86000001
   11.26777744  258.95401001    4.90999985    1.86000001
   11.26916599  260.00601196    4.90999985    1.86000001
   11.27055550  284.39401245    4.90999985    1.88000000
   11.27194405  263.73498535    4.90999985    1.88000000
   11.27333355  317.68899536    4.90999985    1.88000000
   11.27472210  258.39498901    4.90999985    1.88000000
   11.27611065  282.66400146    4.90999985    1.88000000
   11.27750015  259.26501465    4.90999985    1.88000000
   11.27888870  274.46899414    4.90999985    1.86000001
   11.28027725  305.91900635    4.90999985    1.88000000
   11.28166676  277.51300049    4.90999985    1.88000000
   11.28305531  310.26901245    4.90999985    1.88000000
   11.28444481  266.46099854    4.90999985    1.88000000
   11.28583336  283.42001343    4.90999985    1.88000000
   11.28722286  263.07901001    4.90999985    1.88000000
   11.28861141  275.46200562    4.90999985    1.88000000
   11.29000092  311.93301392    4.90999985    1.86000001
   11.29138947  295.87200928    4.90999985    1.88000000
   11.29277802  286.68600464    4.90999985    1.86000001
   11.29416752  304.60000610    4.90999985    1.86000001
   11.29555607  291.50100708    4.90999985    1.86000001
   11.29694462  294.20800781    4.90999985    1.86000001
   11.29833412  350.89300537    4.90999985    1.86000001
   11.29972267  355.52499390    4.90999985    1.86000001
   11.30111122  333.73098755    4.90999985    1.86000001
   11.30249977  306.38000488    4.90999985    1.85000002
   11.30388927  343.27600098    4.90999985    1.85000002
   11.30527782  322.92001343    4.90999985    1.83000004
   11.30666733  290.10501099    4.90999985    1.85000002
   11.30805588  318.38101196    4.90999985    1.83000004
   11.30944443  355.81201172    4.90999985    1.83000004
   11.31083393  338.52200317    4.90999985    1.80999994
   11.31222248  326.70401001    4.90999985    1.80999994
   11.31361103  333.60998535    4.90999985    1.78999996
   11.31500053  294.58401489    4.90999985    1.76999998
   11.31638908  332.25500488    4.90999985    1.76999998
   11.31777763  339.19900513    4.90999985    1.76999998
   11.31916618  325.14801025    4.90999985    1.78999996
   11.32055569  371.68399048    4.90999985    1.78999996
   11.32194424  358.11199951    4.90999985    1.78999996
   11.32333374  305.72198486    4.90999985    1.78999996
   11.32472229  349.23199463    4.90999985    1.78999996
   11.32611084  330.00601196    4.90999985    1.80999994
   11.32750034  336.80599976    4.90999985    1.80999994
   11.32888889  319.48199463    4.90999985    1.83000004
   11.33027744  369.58401489    4.90999985    1.83000004
   11.33166695  359.74099731    4.90999985    1.83000004
   11.33305550  382.84399414    4.90999985    1.83000004
   11.33444405  339.07800293    4.90999985    1.80999994
   11.33583260  306.61599731    4.90999985    1.80999994
   11.33722210  379.54000854    4.90999985    1.80999994
   11.33861065  309.96398926    4.90999985    1.83000004
   11.34000015  304.23699951    4.90999985    1.83000004
   11.34138870  297.28698730    4.90999985    1.85000002
   11.34277725  334.71398926    4.90999985    1.85000002
   11.34416676  335.65100098    4.90999985    1.85000002
   11.34555531  341.43301392    4.90999985    1.83000004
   11.34694386  381.16799927    4.90999985    1.83000004
   11.34833336  330.20300293    4.90999985    1.83000004
   11.34972191  315.10299683    4.90999985    1.85000002
   11.35111141  322.19100952    4.90999985    1.85000002
   11.35249996  288.34500122    4.90999985    1.85000002
   11.35388947  347.92001343    4.90999985    1.86000001
   11.35527802  337.60800171    4.90999985    1.86000001
   11.35666752  348.39498901    4.90999985    1.86000001
   11.35805607  321.66198730    4.90999985    1.86000001
   11.35944462  332.59799194    4.90999985    1.86000001
   11.36083412  362.42700195    4.90999985    1.85000002
   11.36222267  367.79299927    4.90999985    1.83000004
   11.36361122  341.96899414    4.90999985    1.83000004
   11.36500072  347.20199585    4.90999985    1.83000004
   11.36638927  307.35800171    4.90999985    1.83000004
   11.36777782  294.38900757    4.90999985    1.83000004
   11.36916637  335.57501221    4.90999985    1.85000002
   11.37055588  292.13500977    4.90999985    1.86000001
   11.37194443  307.02099609    4.90999985    1.86000001
   11.37333393  339.36300659    4.90999985    1.86000001
   11.37472248  320.25698853    4.90999985    1.86000001
   11.37611103  321.61898804    4.90999985    1.86000001
   11.37750053  326.46099854    4.90999985    1.86000001
   11.37888908  306.37799072    4.90999985    1.86000001
   11.38027763  282.58300781    4.90999985    1.86000001
   11.38166714  350.74200439    4.90999985    1.86000001
   11.38305569  345.78698730    4.90999985    1.86000001
   11.38444424  332.89999390    4.90999985    1.86000001
   11.38583279  369.38101196    4.90999985    1.85000002
   11.38722229  371.91101074    4.90999985    1.83000004
   11.38861084  341.96200562    4.90999985    1.85000002
   11.39000034  299.34201050    4.90999985    1.85000002
   11.39138889  266.13000488    4.90999985    1.86000001
   11.39277744  269.32199097    4.90999985    1.88000000
   11.39416695  305.38000488    4.90999985    1.88000000
   11.39555550  292.47299194    4.90999985    1.88000000
   11.39694405  311.88000488    4.90999985    1.88000000
   11.39888859  280.27499390    4.90999985    1.88000000
   11.39972210  298.33999634    4.90999985    1.88000000
   11.40111065  300.17300415    4.90999985    1.89999998
   11.40249920  234.58799744    4.90999985    1.91999996
   11.40277767  300.47698975    4.90999985    1.71000004
   11.40277767  126.45099640    4.90999985    1.64999998
   11.40305519  149.33500671    4.90999985    1.64999998
   11.40305519  236.85099792    4.90999985    1.66999996
   11.40305519  254.26899719    4.90999985    1.66999996
   11.40333271  265.13299561    4.90999985    1.66999996
   11.40333271  222.61999512    4.90999985    1.66999996
   11.40333271  263.50000000    4.90999985    1.66999996
   11.40361118  285.64898682    4.90999985    1.69000006
   11.40416622  256.03201294    4.90999985    1.94000006
   11.40722179  238.02400208    4.90999985    1.98000002
   11.41055489  329.24301147    4.90999985    1.94000006
   11.41249943  258.47399902    4.90999985    1.91999996
   11.41388893  261.52499390    4.90999985    1.89999998
   11.41527748  309.60198975    4.90999985    1.88000000
   11.41666698  259.31100464    4.90999985    1.89999998
   11.41805553  260.78900146    4.90999985    1.89999998
   11.41944504  241.71400452    4.90999985    1.91999996
   11.41944504  256.03201294    4.90999985    1.94000006
   11.41972256  238.02400208    4.90999985    1.98000002
   11.41972256  329.24301147    4.90999985    1.94000006
   11.42027855  253.48100281    4.90999985    1.91999996
   11.42444515  253.48100281    4.90999985    1.94000006
   11.42861176  221.18499756    4.90999985    1.98000002
   11.43166733  213.20399475    4.90999985    2.01999998
   11.43500042  204.83299255    4.90999985    2.03999996
   11.43833351  214.57800293    4.90999985    2.03999996
   11.44138908  286.16699219    4.90999985    1.96000004
   11.44472218  333.75698853    4.90999985    1.86000001
   11.44666672  313.61401367    4.90999985    1.80999994
   11.44805527  321.23300171    4.90999985    1.78999996
   11.44944477  349.59201050    4.90999985    1.80999994
   11.45083332  353.78399658    4.90999985    1.80999994
   11.45222187  348.10400391    4.90999985    1.83000004
   11.45361137  348.35299683    4.90999985    1.83000004
   11.45499992  302.08099365    4.90999985    1.80999994
   11.45638847  322.84899902    4.90999985    1.80999994
   11.45777798  267.05099487    4.90999985    1.83000004
   11.45916653  288.83099365    4.90999985    1.85000002
   11.46055508  246.74299622    4.90999985    1.86000001
   11.46055508  253.48100281    4.90999985    1.91999996
   11.46083355  221.18499756    4.90999985    1.98000002
   11.46083355  213.20399475    4.90999985    2.01999998
   11.46083355  204.83299255    4.90999985    2.03999996
   11.46111107  214.57800293    4.90999985    2.03999996
   11.46111107  286.16699219    4.90999985    1.96000004
   11.46111107  333.75698853    4.90999985    1.86000001
   11.46166611  248.50399780    4.90999985    1.91999996
   11.46500015  241.98800659    4.90999985    1.98000002
   11.46833324  245.30499268    4.90999985    1.96000004
   11.47138882  231.92199707    4.90999985    1.96000004
   11.47472191  213.70899963    4.90999985    2.00000000
   11.48138809  213.70899963    4.90999985    1.94000006
   11.48555565  355.90701294    4.90999985    1.88000000
   11.48750019  319.04699707    4.90999985    1.83000004
   11.48888874  305.42199707    4.90999985    1.80999994
   11.49027824  319.35699463    4.90999985    1.78999996
   11.49166679  336.03399658    4.90999985    1.80999994
   11.49305534  324.59500122    4.90999985    1.85000002
   11.49444485  300.88198853    4.90999985    1.86000001
   11.49583340  276.51000977    4.90999985    1.89999998
   11.49722290  245.72700500    4.90999985    1.91999996
   11.49722290  248.50399780    4.90999985    1.91999996
   11.49722290  241.98800659    4.90999985    1.98000002
   11.49750042  245.30499268    4.90999985    1.96000004
   11.49750042  231.92199707    4.90999985    1.96000004
   11.49750042  213.70899963    4.90999985    2.00000000
   11.49777794  355.90701294    4.90999985    1.88000000
   11.49833393  228.89100647    4.90999985    1.94000006
   11.50138855  236.35000610    4.90999985    2.00000000
   11.50472260  242.82800293    4.90999985    2.00000000
   11.50805569  242.27099609    4.90999985    1.98000002
   11.51111126  255.06500244    4.90999985    1.98000002
   11.51805496  255.06500244    4.90999985    2.03999996
   11.52194405  217.80200195    4.90999985    2.07999992
   11.52527714  201.51400757    4.90999985    2.07999992
   11.52861118  205.82600403    4.90999985    2.07999992
   11.53111076  198.19900513    4.90999985    2.07999992
   11.53222179  198.34599304    4.90999985    2.09999990
   11.53555584  194.02400208    4.90999985    2.11999989
   11.53888893  222.77200317    4.90999985    2.09999990
   11.54194450  204.49099731    4.90999985    2.07999992
   11.54527855  216.50000000    4.90999985    2.05999994
   11.54833412  198.39700317    4.90999985    2.09999990
   11.55166721  215.24299622    4.90999985    2.09999990
   11.55500031  207.32000732    4.90999985    2.11999989
   11.56083393  207.32000732    4.90999985    2.05999994
   11.56500053  208.81300354    4.90999985    2.07999992
   11.56805515  225.47900391    4.90999985    2.09999990
   11.57138920  223.75999451    4.90999985    2.09999990
   11.57472229  207.49600220    4.90999985    2.09999990
   11.57777786  212.72999573    4.90999985    2.11999989
   11.58111095  206.96800232    4.90999985    2.13000011
   11.58416653  208.44599915    4.90999985    2.11999989
   11.58749962  204.82699585    4.90999985    2.11999989
   11.59083271  218.89900208    4.90999985    2.07999992
   11.59388828  258.73001099    4.90999985    2.03999996
   11.59722233  293.12600708    4.90999985    2.00000000
   11.59777737  297.84899902    4.90999985    1.98000002
   11.60361195  297.84899902    4.90999985    1.88000000
   11.60777855  316.72198486    4.90999985    1.83000004
   11.60972214  351.98699951    4.90999985    1.85000002
   11.61111164  326.29699707    4.90999985    1.85000002
   11.61250019  335.53500366    4.90999985    1.86000001
   11.61388969  342.08700562    4.90999985    1.86000001
   11.61527824  309.32000732    4.90999985    1.86000001
   11.61666679  293.21099854    4.90999985    1.86000001
   11.61805534  247.88099670    4.90999985    1.83000004
   11.61805534  316.72198486    4.90999985    1.83000004
   11.61833382  207.49600220    4.90999985    2.09999990
   11.61833382  212.72999573    4.90999985    2.11999989
   11.61833382  206.96800232    4.90999985    2.13000011
   11.61861134  208.44599915    4.90999985    2.11999989
   11.61861134  204.82699585    4.90999985    2.11999989
   11.61861134  218.89900208    4.90999985    2.07999992
   11.61888885  258.73001099    4.90999985    2.03999996
   11.61888885  293.12600708    4.90999985    2.00000000
   11.61944485  120.42199707    4.90999985    1.83000004
   11.62277794  149.01699829    4.90999985    1.71000004
   11.62583351  205.67300415    4.90999985    1.64999998
   11.62916660  311.98001099    4.90999985    1.80999994
   11.63111115  308.97799683    4.90999985    1.85000002
   11.63249969  223.34599304    4.90999985    1.83000004
   11.63249969  120.42199707    4.90999985    1.83000004
   11.63277817  149.01699829    4.90999985    1.71000004
   11.63277817  205.67300415    4.90999985    1.64999998
   11.63277817  311.98001099    4.90999985    1.80999994
   11.63388920  316.94299316    4.90999985    1.83000004
   11.63611126  260.49099731    4.90999985    1.83000004
   11.63722229  230.51699829    4.90999985    1.83000004
   11.63749981  316.94299316    4.90999985    1.83000004
   11.63861084  182.16000366    4.90999985    1.83000004
   11.64166641  300.63000488    4.90999985    1.80999994
   11.64388847  342.49398804    4.90999985    1.85000002
   11.64499950  360.32699585    4.90999985    1.86000001
   11.64638901  229.19400024    4.90999985    1.86000001
   11.64666653  182.16000366    4.90999985    1.83000004
   11.64666653  300.63000488    4.90999985    1.80999994
   11.64722252  198.50100708    4.90999985    1.83000004
   11.65055561  123.96700287    4.90999985    1.75000000
   11.65361118  320.71701050    4.90999985    1.78999996
   11.65583324  277.08401489    4.90999985    1.86000001
   11.65694427  319.68200684    4.90999985    1.88000000
   11.65833282  331.23901367    4.90999985    1.91999996
   11.65972137  311.85598755    4.90999985    1.94000006
   11.66111088  290.19299316    4.90999985    1.94000006
   11.66249943  319.34500122    4.90999985    1.94000006
   11.66388893  294.62701416    4.90999985    1.96000004
   11.66527748  322.27700806    4.90999985    1.96000004
   11.66666698  327.65200806    4.90999985    1.96000004
   11.66805553  311.81399536    4.90999985    1.94000006
   11.66944504  280.73098755    4.90999985    1.91999996
   11.67083359  205.40299988    4.90999985    1.85000002
   11.67111111  198.50100708    4.90999985    1.83000004
   11.67111111  123.96700287    4.90999985    1.75000000
   11.67111111  320.71701050    4.90999985    1.78999996
   11.67166710  224.75999451    4.90999985    1.83000004
   11.67500019  296.22601318    4.90999985    1.88000000
   11.67833328  279.01098633    4.90999985    1.86000001
   11.68138885  274.18600464    4.90999985    1.80999994
   11.68472195  276.23800659    4.90999985    1.85000002
   11.68777752  272.31201172    4.90999985    1.94000006
   11.69194412  272.31201172    4.90999985    1.96000004
   11.69611073  277.66799927    4.90999985    1.98000002
   11.69944477  230.62899780    4.90999985    2.01999998
   11.70249939  203.95799255    4.90999985    2.09999990
   11.70472240  199.52200317    4.90999985    2.13000011
   11.70638847  221.11099243    4.90999985    2.13000011
   11.70972157  229.49899292    4.90999985    2.09999990
   11.71277714  222.78100586    4.90999985    2.05999994
   11.71611118  267.43499756    4.90999985    2.05999994
   11.71916580  263.83700562    4.90999985    1.96000004
   11.72249985  214.31100464    4.90999985    2.00000000
   11.72583294  210.28900146    4.90999985    2.11999989
   11.72888851  217.63299561    4.90999985    2.13000011
   11.73500061  217.63299561    4.90999985    2.05999994
   11.73888874  305.48599243    4.90999985    2.03999996
   11.74111176  266.92098999    4.90999985    2.00000000
   11.74222279  228.21099854    4.90999985    2.00000000
   11.74250031  221.11099243    4.90999985    2.13000011
   11.74250031  229.49899292    4.90999985    2.09999990
   11.74250031  222.78100586    4.90999985    2.05999994
   11.74277782  267.43499756    4.90999985    2.05999994
   11.74277782  263.83700562    4.90999985    1.96000004
   11.74277782  214.31100464    4.90999985    2.00000000
   11.74305534  210.28900146    4.90999985    2.11999989
   11.74305534  217.63299561    4.90999985    2.13000011
   11.74305534  305.48599243    4.90999985    2.03999996
   11.74416733  205.00500488    4.90999985    2.05999994
   11.74750042  245.51199341    4.90999985    2.13000011
   11.75083351  237.17599487    4.90999985    2.09999990
   11.75388908  211.11300659    4.90999985    2.09999990
   11.75722218  191.75199890    4.90999985    2.13000011
   11.76305580  191.75199890    4.90999985    2.13000011
   11.76722240  191.58799744    4.90999985    2.13000011
   11.77055550  200.49899292    4.90999985    2.25000000
   11.77361107  191.12199402    4.90999985    2.25000000
   11.77611065  197.75100708    4.90999985    2.21000004
   11.77750015  193.22399902    4.90999985    2.15000010
   11.78083324  209.08299255    4.90999985    2.13000011
   11.78388977  173.41799927    4.90999985    2.19000006
   11.78722286  181.42700195    4.90999985    2.21000004
   11.79055595  188.72500610    4.90999985    2.23000002
   11.79361153  169.12199402    4.90999985    2.23000002
   11.79694462  179.13099670    4.90999985    2.23000002
   11.80000019  194.99699402    4.90999985    2.17000008
   11.80611134  194.99699402    4.90999985    2.25000000
   11.81000042  197.33799744    4.90999985    2.25000000
   11.81333351  191.68800354    4.90999985    2.25000000
   11.81666660  195.72300720    4.90999985    2.23000002
   11.81972218  208.01800537    4.90999985    2.21000004
   11.82305527  198.11199951    4.90999985    2.21000004
   11.82638836  192.65600586    4.90999985    2.25000000
   11.82999992  188.70599365    4.90999985    2.23000002
   11.83305550  207.57099915    4.90999985    2.19000006
   11.83638859  206.88699341    4.90999985    2.07999992
   11.83972168  227.77699280    4.90999985    2.07999992
   11.84277725  271.19900513    4.90999985    2.01999998
   11.84333324  255.82299805    4.90999985    2.01999998
   11.84888840  255.82299805    4.90999985    2.09999990
   11.85305595  207.94299316    4.90999985    2.19000006
   11.85611153  163.76199341    4.90999985    2.23000002
   11.85944462  192.03900146    4.90999985    2.23000002
   11.86277771  199.23800659    4.90999985    2.21000004
   11.86583328  190.68099976    4.90999985    2.19000006
   11.86916637  186.69400024    4.90999985    2.21000004
   11.87222195  182.30700684    4.90999985    2.25000000
   11.87555599  177.53799438    4.90999985    2.25000000
   11.87611103  170.80400085    4.90999985    2.25000000
   11.87916660  192.59199524    4.90999985    2.23000002
   11.88249969  191.34199524    4.90999985    2.19000006
   11.88555527  192.10899353    4.90999985    2.11999989
   11.89166641  192.10899353    4.90999985    2.21000004
   11.89583302  176.11199951    4.90999985    2.25000000
   11.89916611  177.73199463    4.90999985    2.23000002
   11.90222168  180.88999939    4.90999985    2.23000002
   11.90555477  194.90100098    4.90999985    2.21000004
   11.90861034  212.24600220    4.90999985    2.13000011
   11.90944386  201.44500732    4.90999985    2.11999989
   11.91222191  172.58500671    4.90999985    2.19000006
   11.91555500  186.08900452    4.90999985    2.26999998
   11.91861153  195.68099976    4.90999985    2.23000002
   11.92194462  197.14199829    4.90999985    2.17000008
   11.92527771  172.28799438    4.90999985    2.23000002
   11.92833328  196.84500122    4.90999985    2.19000006
   11.93444443  196.84500122    4.90999985    2.26999998
   11.93861103  184.64799500    4.90999985    2.17000008
   11.94194412  185.86700439    4.90999985    2.19000006
   11.94277763  194.30799866    4.90999985    2.17000008
   11.94555569  191.28999329    4.90999985    2.15000010
   11.94888878  204.46200562    4.90999985    2.19000006
   11.95194435  222.93899536    4.90999985    2.15000010
   11.95527744  218.54899597    4.90999985    2.09999990
   11.95861053  209.88800049    4.90999985    2.13000011
   11.96166611  202.70500183    4.90999985    2.17000008
   11.96500015  188.65299988    4.90999985    2.17000008
   11.96805477  170.75300598    4.90999985    2.30999994
   11.97138882  164.32899475    4.90999985    2.32999992
   11.97749996  164.32899475    4.90999985    2.28999996
   11.98166656  177.73699951    4.90999985    2.25000000
   11.98472214  181.60499573    4.90999985    2.25000000
   11.98805618  181.97200012    4.90999985    2.26999998
   11.99111176  182.50000000    4.90999985    2.28999996
   11.99444485  194.74499512    4.90999985    2.26999998
   11.99777794  177.23500061    4.90999985    2.26999998
   12.00083351  165.41900635    4.90999985    2.28999996
   12.00416660  182.64900208    4.90999985    2.25000000
   12.00749969  196.06799316    4.90999985    2.21000004
   12.00944424  193.95100403    4.90999985    2.17000008
   12.01111126  195.13299561    4.90999985    2.17000008
   12.01444435  188.06700134    4.90999985    2.15000010
   12.02027798  188.06700134    4.90999985    2.13000011
   12.02444458  173.85099792    4.90999985    2.28999996
   12.02750015  181.42399597    4.90999985    2.26999998
   12.03083324  169.78599548    4.90999985    2.25000000
   12.03416729  188.29499817    4.90999985    2.21000004
   12.03722286  192.81500244    4.90999985    2.23000002
   12.04055595  188.17799377    4.90999985    2.25000000
   12.04277802  190.69299316    4.90999985    2.25000000
   12.04416752  174.23599243    4.90999985    2.25000000
   12.04750061  165.58700562    4.90999985    2.30999994
   12.05055618  161.83399963    4.90999985    2.32999992
   12.05388927  165.12100220    4.90999985    2.34999990
   12.05722237  168.55000305    4.90999985    2.30999994
   12.06305599  168.55000305    4.90999985    2.23000002
   12.06722260  170.02200317    4.90999985    2.30999994
   12.07055569  178.37399292    4.90999985    2.26999998
   12.07388878  172.64700317    4.90999985    2.26999998
   12.07611084  175.41799927    4.90999985    2.26999998
   12.07750034  163.50000000    4.90999985    2.28999996
   12.08083344  168.94799805    4.90999985    2.28999996
   12.08388901  174.17900085    4.90999985    2.30999994
   12.08722210  161.66400146    4.90999985    2.32999992
   12.09055519  165.86599731    4.90999985    2.32999992
   12.09361076  176.47500610    4.90999985    2.28999996
   12.09694386  177.13999939    4.90999985    2.30999994
   12.10000038  181.91000366    4.90999985    2.30999994
   12.12166691   73.85019684    4.90999985    2.30999994
   12.12222195   87.86370087    4.90999985    2.30999994
   12.12527752  171.13800049    4.90999985    2.34999990
   12.12861156  174.52900696    4.90999985    2.32999992
   12.13194466  192.02200317    4.90999985    2.36999989
   12.13500023  181.93699646    4.90999985    2.34999990
   12.13833332  165.36399841    4.90999985    2.32999992
   12.14138889  161.00000000    4.90999985    2.36999989
   12.14472198  163.84199524    4.90999985    2.40000010
   12.14972210  163.84199524    4.90999985    2.39000010
   12.15388870  163.76100159    4.90999985    2.39000010
   12.15472221  179.17999268    4.90999985    2.36999989
   12.15749931  178.24600220    4.90999985    2.36999989
   12.16055489  166.53500366    4.90999985    2.39000010
   12.16388893  192.87899780    4.90999985    2.39000010
   12.16722298  183.38499451    4.90999985    2.34999990
   12.17027855  158.34500122    4.90999985    2.34999990
   12.17361164  173.64799500    4.90999985    2.32999992
   12.17666721  173.63000488    4.90999985    2.34999990
   12.18000031  169.92599487    4.90999985    2.39000010
   12.18333340  175.22599792    4.90999985    2.36999989
   12.18638897  172.40600586    4.90999985    2.36999989
   12.18805599  181.52400208    4.90999985    2.39000010
   12.19222260  181.52400208    4.90999985    2.39000010
   12.19638920  174.60299683    4.90999985    2.34999990
   12.19972229  174.36599731    4.90999985    2.39000010
   12.20277786  164.96299744    4.90999985    2.40000010
   12.20611095  171.50399780    4.90999985    2.36999989
   12.20916653  170.10800171    4.90999985    2.39000010
   12.21249962  174.07099915    4.90999985    2.36999989
   12.21583271  169.99099731    4.90999985    2.32999992
   12.21888828  164.38000488    4.90999985    2.34999990
   12.22138882  165.34599304    4.90999985    2.39000010
   12.22249985  170.71600342    4.90999985    2.39000010
   12.22583294  174.34800720    4.90999985    2.36999989
   12.22888851  175.89500427    4.90999985    2.34999990
   12.23500061  175.89500427    4.90999985    2.40000010
   12.23916721  159.83799744    4.90999985    2.42000008
   12.24250031  171.26400757    4.90999985    2.40000010
   12.24555588  171.68800354    4.90999985    2.40000010
   12.24888897  160.27299500    4.90999985    2.40000010
   12.25222206  162.40899658    4.90999985    2.40000010
   12.25472260  165.11900330    4.90999985    2.40000010
   12.25583363  159.21800232    4.90999985    2.40000010
   12.25888920  165.96699524    4.90999985    2.40000010
   12.26222229  164.99899292    4.90999985    2.40000010
   12.26555538  172.08900452    4.90999985    2.40000010
   12.26861095  160.66799927    4.90999985    2.44000006
   12.27194405  165.79100037    4.84999990    2.46000004
   12.27805519  165.79100037    4.90999985    2.40000010
   12.28194427  162.27900696    4.90999985    2.40000010
   12.28527832  176.75500488    4.90999985    2.40000010
   12.28805637  176.43299866    4.90999985    2.40000010
   12.28888893  181.68099976    4.90999985    2.40000010
   12.29194450  157.68699646    4.73999977    2.42000008
   12.29527855  173.61099243    4.42999983    2.44000006
   12.29861164  155.30499268    4.23999977    2.44000006
   12.30166721  156.07400513    4.17999983    2.46000004
   12.30500031  161.54899597    4.09999990    2.44000006
   12.30833340  154.67500305    4.11999989    2.46000004
   12.31138897  172.15400696    4.32999992    2.44000006
   12.31472206  155.15400696    4.80999994    2.44000006
   12.32083321  155.15400696    4.90999985    2.44000006
   12.32499981  158.24899292    4.90999985    2.42000008
   12.32805538  166.29200745    4.90999985    2.40000010
   12.33138847  169.32000732    4.90999985    2.39000010
   12.33444405  184.07699585    4.90999985    2.40000010
   12.33777714  176.92300415    4.90999985    2.39000010
   12.34111118  178.41299438    4.90999985    2.39000010
   12.34416676  162.97799683    4.90999985    2.44000006
   12.34749985  171.17300415    4.90999985    2.39000010
   12.35055637  151.12100220    4.90999985    2.44000006
   12.35388947  144.60299683    4.90999985    2.46000004
   12.35611153  156.65100098    4.90999985    2.46000004
   12.35750008  153.83299255    4.90999985    2.48000002
   12.36361122  153.83299255    4.86999989    2.46000004
   12.36777782  173.93699646    4.90999985    2.44000006
   12.37111092  170.29800415    4.90999985    2.44000006
   12.37416649  167.38400269    4.90999985    2.44000006
   12.37750053  175.20300293    4.90999985    2.44000006
   12.38055611  198.74400330    4.90999985    2.40000010
   12.38388920  176.09500122    4.90999985    2.39000010
   12.38722229  169.72200012    4.90999985    2.39000010
   12.38916683  168.21000671    4.90999985    2.36999989
   12.39083290  186.90199280    4.90999985    2.34999990
   12.39388847  176.64500427    4.90999985    2.40000010
   12.39722252  154.24400330    4.90999985    2.42000008
   12.40055561  160.24200439    4.90999985    2.46000004
   12.40638828  160.24200439    4.90999985    2.46000004
   12.41055489  167.72599792    4.90999985    2.44000006
   12.41388893  173.57000732    4.90999985    2.46000004
   12.41722298  179.74400330    4.90999985    2.44000006
   12.42027855  160.80299377    4.90999985    2.46000004
   12.42277813  153.32200623    4.90999985    2.46000004
   12.42416668  179.67999268    4.90999985    2.46000004
   12.42722225  153.53700256    4.90999985    2.44000006
   12.43055630  148.93899536    4.90999985    2.46000004
   12.43361092  144.72300720    4.73999977    2.44000006
   12.43694496  167.62600708    4.51000023    2.46000004
   12.44000053  157.38999939    4.34999990    2.46000004
   12.44333363  152.74200439    4.26000023    2.48000002
   12.44944477  152.74200439    4.23999977    2.50000000
   12.45361137  166.31100464    4.17999983    2.48000002
   12.45611095  164.76600647    4.26999998    2.48000002
   12.45694447  159.19999695    4.30999994    2.48000002
   12.46027756  159.25900269    4.44999981    2.48000002
   12.46361065  164.79800415    4.53000021    2.50000000
   12.46666622  153.86399841    4.46999979    2.50000000
   12.46999931  147.66600037    4.44999981    2.48000002
   12.47305489  149.72500610    4.61999989    2.48000002
   12.47638798  168.64500427    4.88999987    2.48000002
   12.47972202  149.15600586    4.90999985    2.48000002
   12.48277760  155.24099731    4.90999985    2.48000002
   12.48611164  141.02099609    4.90999985    2.48000002
   12.49222279  141.02099609    4.90999985    2.48000002
   12.49638939  157.15499878    4.90999985    2.48000002
   12.49972248  154.00500488    4.88999987    2.48000002
   12.50277805  149.41700745    4.69999981    2.48000002
   12.50611115  162.06100464    4.76000023    2.46000004
   12.50916672  168.56700134    4.88999987    2.48000002
   12.51249981  168.34700012    4.65999985    2.50000000
   12.51583290  153.23800659    4.13999987    2.50000000
   12.51916599  163.38099670    4.00000000    2.50000000
   12.52222157  159.01300049    3.89000010    2.50000000
   12.52305508  156.65100098    3.84999990    2.50000000
   12.52583313  148.50799561    3.75000000    2.50000000
   12.52888870  152.43800354    3.30999994    2.50000000
   12.53500080  152.43800354    2.86999989    2.51999998
   12.53916740  158.36599731    3.11999989    2.51999998
   12.54250050  152.77699280    3.25000000    2.50000000
   12.54555607  154.00000000    3.41000009    2.50000000
   12.54888916  156.02699280    4.00000000    2.48000002
   12.55222225  149.50799561    4.23999977    2.53999996
   12.55527782  146.96200562    3.86999989    2.51999998
   12.55638885  157.78900146    3.76999998    2.50000000
   12.55888939  155.01100159    4.01999998    2.48000002
   12.56222248  153.31700134    4.23999977    2.50000000
   12.56527805  157.20199585    3.99000001    2.51999998
   12.56861115  161.51800537    3.36999989    2.53999996
   12.57194424  141.12899780    2.86999989    2.51999998
   12.57805538  141.12899780    2.67000008    2.51999998
   12.58194447  132.96000671    2.59999990    2.53999996
   12.58527756  146.96299744    2.50000000    2.51999998
   12.58861065  142.66700745    2.53999996    2.53999996
   12.59000015  160.32699585    2.53999996    2.55999994
   12.59222221  154.65899658    2.44000006    2.53999996
   12.59527779  144.63999939    2.30999994    2.57999992
   12.59861088  162.68200684    2.51999998    2.55999994
   12.60166740  151.83500671    2.82999992    2.53999996
   12.60500050  158.74800110    3.11999989    2.51999998
   12.60833359  162.93699646    3.48000002    2.51999998
   12.61138916  157.42399597    3.68000007    2.51999998
   12.61472225  161.83000183    3.26999998    2.51999998
   12.62083340  161.83000183    2.76999998    2.53999996
   12.62500000  143.67900085    2.55999994    2.55999994
   12.62805557  146.99699402    2.23000002    2.55999994
   12.63138866  155.44000244    2.09999990    2.53999996
   12.63444424  149.84500122    2.03999996    2.55999994
   12.63777733  145.46699524    2.03999996    2.55999994
   12.64111137  148.71299744    2.03999996    2.55999994
   12.64416695  144.43400574    2.09999990    2.55999994
   12.64750004  141.27600098    2.09999990    2.55999994
   12.65083313  163.52799988    2.13000011    2.55999994
   12.65388870  156.98899841    2.19000006    2.55999994
   12.65666676  144.06599426    2.19000006    2.55999994
   12.65777779  147.61099243    2.21000004    2.55999994
   12.66361046  147.61099243    2.40000010    2.55999994
   12.66777802  150.63099670    2.67000008    2.55999994
   12.67111111  150.99400330    3.03999996    2.51999998
   12.67416668  148.02499390    3.68000007    2.51999998
   12.67750072  146.76699829    4.17999983    2.51999998
   12.68083382  151.64500427    4.53999996    2.51999998
   12.68388939  163.13099670    4.53000021    2.53999996
   12.68722248  153.72200012    4.28999996    2.53999996
   12.69000053  162.40600586    4.34999990    2.51999998
   12.69083309  152.70100403    4.34999990    2.51999998
   12.69388866  153.28999329    4.38999987    2.53999996
   12.69722271  154.92500305    3.80999994    2.55999994
   12.70055580  155.39399719    3.25000000    2.57999992
   12.70638847  155.39399719    2.91000009    2.53999996
   12.71055508  168.21600342    3.57999992    2.53999996
   12.71388912  148.78300476    3.93000007    2.53999996
   12.71694374  158.25100708    3.89000010    2.55999994
   12.72027779  154.60200500    3.41000009    2.55999994
   12.72333336  161.29800415    3.25000000    2.57999992
   12.72388840  160.75199890    3.30999994    2.55999994
   12.72722149  163.14100647    3.86999989    2.51999998
   12.73027706  163.84500122    4.65999985    2.53999996
   12.73361111  165.18400574    4.84999990    2.53999996
   12.73666668  160.51800537    4.67999983    2.53999996
   12.74000072  154.90499878    4.38999987    2.55999994
   12.74333382  165.99099731    3.86999989    2.53999996
   12.74944496  165.99099731    3.43000007    2.55999994
   12.75361156  148.35299683    3.57999992    2.55999994
   12.75666714  163.70700073    4.00000000    2.55999994
   12.75722218  151.13699341    4.15999985    2.53999996
   12.76027775  148.45300293    4.73999977    2.53999996
   12.76361084  147.06300354    4.82999992    2.53999996
   12.76694393  156.71699524    4.69999981    2.53999996
   12.76999950  153.62100220    4.53000021    2.57999992
   12.77333355  145.31199646    4.28999996    2.55999994
   12.77666664  143.26600647    4.05999994    2.53999996
   12.77972221  139.59599304    3.68000007    2.55999994
   12.78305531  159.01800537    3.32999992    2.59999990
   12.78638935  146.00300598    2.96000004    2.59999990
   12.79222298  146.00300598    3.16000009    2.55999994
   12.79638958  148.87199402    2.64000010    2.57999992
   12.79944515  153.33099365    2.48000002    2.55999994
   12.80277824  150.24600220    2.73000002    2.57999992
   12.80583382  156.21200562    2.91000009    2.57999992
   12.80916691  164.32600403    3.14000010    2.57999992
   12.81250000  161.64900208    3.46000004    2.59999990
   12.81555557  143.70700073    3.53999996    2.57999992
   12.81888866  154.61199951    3.82999992    2.53999996
   12.82194424  154.19500732    3.97000003    2.55999994
   12.82333374  153.73800659    3.82999992    2.55999994
   12.82583332  149.05799866    3.50000000    2.55999994
   12.82888889  144.06300354    3.07999992    2.57999992
   12.83500004  144.06300354    2.86999989    2.57999992
   12.83916664  165.36099243    2.57999992    2.57999992
   12.84222221  148.74600220    2.32999992    2.59999990
   12.84555531  143.06100464    2.17000008    2.59999990
   12.84888840  144.74099731    2.21000004    2.59999990
   12.85194492  139.78799438    2.15000010    2.57999992
   12.85527802  148.76600647    2.32999992    2.59999990
   12.85666752  147.41900635    2.26999998    2.59999990
   12.85888958  157.21800232    2.15000010    2.59999990
   12.86194515  136.53900146    2.09999990    2.59999990
   12.86527824  153.79400635    1.98000002    2.59999990
   12.86861134  145.13299561    1.96000004    2.57999992
   12.87166691  165.21299744    2.01999998    2.59999990
   12.87777805  165.21299744    2.13000011    2.59999990
   12.88194466  161.49400330    2.13000011    2.61999989
   12.88527775  153.62800598    2.21000004    2.59999990
   12.88833332  161.67500305    2.36999989    2.57999992
   12.89027786  152.94700623    2.46000004    2.59999990
   12.89222240  136.74000549    2.69000006    2.59999990
   12.89527798  150.79299927    3.23000002    2.57999992
   12.89861107  149.34899902    3.70000005    2.57999992
   12.90166664  154.99200439    4.05999994    2.57999992
   12.90499973  147.59300232    4.05999994    2.57999992
   12.90833282  152.46200562    4.05999994    2.57999992
   12.91138840  154.29400635    3.50000000    2.59999990
   12.91472149  153.40800476    2.84999990    2.59999990
   12.92055607  153.40800476    2.76999998    2.59999990
   12.92472267  147.77900696    2.67000008    2.61999989
   12.92805576  137.25999451    2.15000010    2.59999990
   12.93138885  146.31799316    1.94000006    2.61999989
   12.93444443  156.40499878    1.89999998    2.61999989
   12.93777752  134.02400208    2.01999998    2.59999990
   12.94111156  149.44500732    2.17000008    2.61999989
   12.94416714  149.51699829    2.48000002    2.64000010
   12.94750023  141.86599731    2.61999989    2.59999990
   12.95055580  150.98300171    3.09999990    2.57999992
   12.95388889  145.21699524    3.57999992    2.59999990
   12.95694447  139.14999390    3.59999990    2.57999992
   12.95777798  142.35099792    3.76999998    2.55999994
   12.96361065  142.35099792    4.55999994    2.57999992
   12.96777725  131.72900391    4.42999983    2.55999994
   12.97083282  150.16700745    4.21999979    2.59999990
   12.97416592  157.28799438    3.97000003    2.59999990
   12.97749996  148.39599609    4.17999983    2.57999992
   12.98055553  151.21800232    4.57999992    2.55999994
   12.98388958  154.81199646    4.46999979    2.59999990
   12.98694515  155.00700378    4.63999987    2.59999990
   12.99027824  160.02099609    4.78000021    2.59999990
   12.99083328  144.72399902    4.76000023    2.57999992
   12.99388885  148.38099670    4.78000021    2.57999992
   12.99722290  152.35600281    4.90999985    2.55999994
   13.00027752  151.36599731    4.90999985    2.57999992
   13.00638866  151.36599731    4.90999985    2.53999996
   13.01055527  146.56100464    4.90999985    2.57999992
   13.01388931  157.97799683    4.90999985    2.53999996
   13.01694393  138.34700012    4.90999985    2.55999994
   13.02027798  162.65100098    4.90999985    2.55999994
   13.02361107  153.43200684    4.90999985    2.53999996
   13.02416611  164.51300049    4.90999985    2.53999996
   13.02722168  141.58700562    4.90999985    2.55999994
   13.03055573  153.27600098    4.67999983    2.57999992
   13.03361130  138.71299744    4.09999990    2.59999990
   13.03694534  155.51699829    3.21000004    2.64000010
   13.04027843  144.60699463    2.55999994    2.64000010
   13.04333401  141.57899475    2.57999992    2.61999989
   13.04916668  141.57899475    1.94000006    2.64000010
   13.05333328  131.80099487    1.94000006    2.64000010
   13.05666733  140.57499695    2.11999989    2.64000010
   13.05722237  144.78700256    2.13000011    2.61999989
   13.06027794  140.87500000    1.98000002    2.61999989
   13.06361103  130.47900391    1.85000002    2.61999989
   13.06666660  139.44799805    1.78999996    2.64000010
   13.06999969  140.66400146    1.78999996    2.64000010
   13.07333374  126.31099701    1.76999998    2.64000010
   13.07638836  140.82000732    1.83000004    2.61999989
   13.07972240  151.35800171    1.96000004    2.64000010
   13.08305550  139.01699829    2.13000011    2.64000010
   13.08611107  143.54899597    2.32999992    2.64000010
   13.09222221  143.54899597    2.80999994    2.64000010
   13.09611034  160.32000732    2.98000002    2.61999989
   13.09944439  147.14100647    3.00000000    2.64000010
   13.10277843  136.35400391    2.94000006    2.59999990
   13.10583401  152.08999634    2.67000008    2.61999989
   13.10916710  134.67199707    2.53999996    2.61999989
   13.11222267  140.14999390    2.32999992    2.64000010
   13.11555576  137.82000732    2.39000010    2.66000009
   13.11888885  148.29699707    2.40000010    2.64000010
   13.12194443  157.27299500    2.59999990    2.61999989
   13.13916683  137.36500549    2.51999998    2.64000010
   13.14333344  137.36500549    3.03999996    2.64000010
   13.14722252  139.56199646    3.53999996    2.61999989
   13.15055561  139.95300293    3.80999994    2.64000010
   13.15388870  144.87399292    4.30999994    2.59999990
   13.15694427  143.52699280    4.76000023    2.61999989
   13.16027737  148.78300476    4.86999989    2.59999990
   13.16361046  150.94900513    4.78000021    2.59999990
   13.16666698  134.20300293    4.32999992    2.64000010
   13.17000008  140.94099426    4.73999977    2.61999989
   13.17222214  128.44099426    4.90999985    2.59999990
   13.17361164  149.71600342    4.90999985    2.59999990
   13.17694473  139.00900269    4.90999985    2.59999990
   13.18000031  146.09899902    4.90999985    2.59999990
   13.18611145  146.09899902    4.42999983    2.59999990
   13.19027805  145.16299438    4.32999992    2.59999990
   13.19333363  136.85000610    4.65999985    2.59999990
   13.19666672  138.64799500    4.86999989    2.61999989
   13.19999981  142.10899353    4.90999985    2.59999990
   13.20305538  145.36500549    4.90999985    2.57999992
   13.20555496  151.85099792    4.90999985    2.55999994
   13.20666695  158.22799683    4.90999985    2.55999994
   13.21000004  135.99000549    4.90999985    2.51999998
   13.21305561  136.31300354    4.90999985    2.61999989
   13.21638870  135.62199402    4.23999977    2.61999989
   13.21944427  143.52699280    4.17999983    2.61999989
   13.22277737  145.06599426    4.03999996    2.59999990
   13.22888851  145.06599426    2.69000006    2.64000010
   13.23305511  137.11399841    2.89000010    2.64000010
   13.23638916  139.32800293    3.16000009    2.64000010
   13.23888874  134.24800110    3.21000004    2.64000010
   13.24000072  136.00000000    3.26999998    2.64000010
   13.24333382  149.09800720    3.43000007    2.64000010
   13.24638939  136.48399353    3.66000009    2.64000010
   13.24972248  147.36900330    3.78999996    2.64000010
   13.25277805  126.33699799    4.03999996    2.64000010
   13.25611115  144.34300232    4.28999996    2.61999989
   13.25944424  132.27999878    4.40999985    2.64000010
   13.26249981  149.09800720    4.55999994    2.61999989
   13.26583290  145.15899658    4.90999985    2.61999989
   13.27166653  145.15899658    4.90999985    2.57999992
   13.27583313  144.19900513    4.90999985    2.61999989
   13.27916622  146.79400635    4.90999985    2.59999990
   13.28222179  141.30999756    4.90999985    2.57999992
   13.28555584  150.17700195    4.90999985    2.55999994
   13.28888893  146.24899292    4.90999985    2.53999996
   13.29194450  151.06399536    4.90999985    2.53999996
   13.29527855  152.27999878    4.90999985    2.57999992
   13.29833412  145.98100281    4.90999985    2.55999994
   13.30166721  140.31100464    4.90999985    2.59999990
   13.30500031  142.25300598    4.90999985    2.55999994
   13.30666733  154.41000366    4.90999985    2.51999998
   13.30861092  147.02799988    4.90999985    2.50000000
   13.31472206  147.02799988    4.90999985    2.42000008
   13.31861115  170.33299255    4.90999985    2.50000000
   13.32194424  147.28599548    4.90999985    2.48000002
   13.32527733  150.46499634    4.90999985    2.46000004
   13.32833290  145.98199463    4.90999985    2.50000000
   13.33166695  155.70599365    4.90999985    2.53999996
   13.33472157  144.71000671    4.90999985    2.48000002
   13.33805561  155.10099792    4.90999985    2.39000010
   13.34000015  155.18200684    4.90999985    2.44000006
   13.34166622  156.94000244    4.90999985    2.42000008
   13.34499931  146.71499634    4.90999985    2.53999996
   13.34805489  140.79600525    4.90999985    2.48000002
   13.35138893  152.05099487    4.90999985    2.55999994
   13.35750008  152.05099487    4.90999985    2.59999990
   13.36166668  129.09100342    4.38999987    2.64000010
   13.36472225  138.85299683    4.30999994    2.64000010
   13.36805534  139.09300232    4.11999989    2.64000010
   13.37111092  135.80799866    4.00000000    2.64000010
   13.37361145  137.85800171    4.11999989    2.66000009
   13.37500000  140.55299377    4.30999994    2.66000009
   13.37805557  151.78500366    4.90999985    2.64000010
   13.38138866  143.56900024    4.90999985    2.59999990
   13.38472176  155.87600708    4.90999985    2.55999994
   13.38777733  142.42799377    4.90999985    2.59999990
   13.39111137  133.85600281    4.90999985    2.53999996
   13.39444447  143.51499939    4.90999985    2.53999996
   13.40027714  143.51499939    4.90999985    2.55999994
   13.40444374  149.25399780    4.90999985    2.51999998
   13.40694427  156.87399292    4.90999985    2.53999996
   13.40805531  160.39300537    4.90999985    2.51999998
   13.41111088  145.06700134    4.90999985    2.57999992
   13.41444397  149.93899536    4.90999985    2.64000010
   13.41777802  138.77600098    4.90999985    2.64000010
   13.42083359  136.45700073    4.90999985    2.59999990
   13.42416668  137.52600098    4.51000023    2.64000010
   13.42750072  141.49400330    3.89000010    2.66000009
   13.43055630  133.13699341    3.30999994    2.66000009
   13.43388939  135.22200012    3.14000010    2.67000008
   13.43694496  137.63000488    3.00000000    2.67000008
   13.55888939   -1.00000000   -1.00000000   -1.00000000
   13.65305519   -1.00000000   -1.00000000   -1.00000000
   13.75666714   -1.00000000   -1.00000000   -1.00000000
   13.85083389   -1.00000000   -1.00000000   -1.00000000
   13.94611073   -1.00000000   -1.00000000   -1.00000000
   14.04444504   -1.00000000   -1.00000000   -1.00000000
   14.13916683   -1.00000000   -1.00000000   -1.00000000
   14.23361111   -1.00000000   -1.00000000   -1.00000000
   14.33249950   -1.00000000   -1.00000000   -1.00000000
   14.36583328   77.93139648    4.90999985    2.51999998
   14.36916637  155.97000122    4.90999985    2.55999994
   14.37222195  141.16499329    4.90999985    2.48000002
   14.37555599  159.82899475    4.90999985    2.59999990
   14.37888908  160.58700562    4.90999985    2.61999989
   14.38194466  138.07499695    4.90999985    2.53999996
   14.38611126  138.07499695    4.90999985    2.55999994
   14.39027786  138.11300659    4.90999985    2.53999996
   14.39361095  134.39999390    4.90999985    2.55999994
   14.39666653  147.30700684    4.90999985    2.55999994
   14.39916611  136.76499939    4.90999985    2.55999994
   14.40027714  147.05999756    4.90999985    2.51999998
   14.40361118  160.90499878    4.90999985    2.51999998
   14.40666676  125.32099915    4.90999985    2.55999994
   14.40999985  118.63400269    4.90999985    2.55999994
   14.41333294  120.82199860    4.90999985    2.59999990
   14.41638851  141.63800049    4.90999985    2.64000010
   14.41972256  142.65400696    4.90999985    2.59999990
   14.42305565  142.71400452    4.90999985    2.53999996
   14.42888927  142.71400452    4.90999985    2.53999996
   14.43305588  157.73300171    4.90999985    2.46000004
   14.43638897  161.62800598    4.90999985    2.53999996
   14.43944454  153.22700500    4.90999985    2.51999998
   14.44277763  158.53999329    4.90999985    2.55999994
   14.44611073  157.82200623    4.90999985    2.55999994
   14.44916630  137.90899658    4.90999985    2.53999996
   14.45249939  134.72300720    4.90999985    2.53999996
   14.45583344  136.00700378    4.90999985    2.53999996
   14.45888901  143.73699951    4.90999985    2.57999992
   14.46222210  139.09300232    4.90999985    2.55999994
   14.46527767  123.93800354    4.90999985    2.64000010
   14.46583271  136.69099426    4.90999985    2.64000010
   14.47194386  136.69099426    4.90999985    2.48000002
   14.47583294  161.69599915    4.90999985    2.50000000
   14.47916603  139.10200500    4.90999985    2.48000002
   14.48249912  166.33299255    4.90999985    2.46000004
   14.48555565  155.29800415    4.90999985    2.48000002
   14.48888874  141.08799744    4.90999985    2.51999998
   14.49222279  137.41299438    4.90999985    2.53999996
   14.49527836  167.52299500    4.90999985    2.51999998
   14.49861145  132.55000305    4.90999985    2.44000006
   14.49916649  151.16799927    4.90999985    2.46000004
   14.50222206  169.04899597    4.90999985    2.55999994
   14.50555515  174.59599304    4.90999985    2.53999996
   14.50861073  137.51600647    4.90999985    2.50000000
   14.51472187  137.51600647    4.90999985    2.55999994
   14.51888847  139.73100281    4.90999985    2.64000010
   14.52194405  147.86799622    4.90999985    2.57999992
   14.52527714  151.01199341    4.90999985    2.55999994
   14.52861118  145.67300415    4.90999985    2.59999990
   14.53166676  144.76300049    4.90999985    2.55999994
   14.53249931  151.43299866    4.90999985    2.55999994
   14.53527832  141.47500610    4.90999985    2.51999998
   14.53861141  147.50199890    4.90999985    2.48000002
   14.54166698  133.86700439    4.90999985    2.53999996
   14.54500008  138.42700195    4.90999985    2.48000002
   14.54833412  148.74899292    4.90999985    2.42000008
   14.55138874  133.75100708    4.90999985    2.55999994
   14.55749989  133.75100708    4.90999985    2.53999996
   14.56166649  132.63900757    4.90999985    2.50000000
   14.56500053  136.93299866    4.90999985    2.57999992
   14.56583309  133.76699829    4.90999985    2.57999992
   14.56861115  137.50900269    4.90999985    2.59999990
   14.57194424  145.82200623    4.90999985    2.51999998
   14.57499981  172.28700256    4.90999985    2.46000004
   14.57833290  150.50799561    4.90999985    2.42000008
   14.58166695  152.53300476    4.90999985    2.51999998
   14.58472157  151.74299622    4.90999985    2.51999998
   14.58805561  143.35200500    4.90999985    2.53999996
   14.59111118  145.32299805    4.90999985    2.53999996
   14.59444427  142.21699524    4.90999985    2.53999996
   14.60027790  142.21699524    4.90999985    2.50000000
   14.60444450  157.94599915    4.90999985    2.57999992
   14.60777855  140.77900696    4.90999985    2.55999994
   14.61083412  141.01499939    4.90999985    2.59999990
   14.61416721  119.73400116    4.90999985    2.57999992
   14.61750031  128.46000671    4.90999985    2.55999994
   14.62055588  130.98199463    4.90999985    2.55999994
   14.62388897  134.05400085    4.90999985    2.57999992
   14.62722206  136.58599854    4.90999985    2.61999989
   14.63027763  124.65599823    4.90999985    2.64000010
   14.63249969  130.07899475    4.90999985    2.64000010
   14.63388920  138.08599854    4.90999985    2.66000009
   14.63722229  137.72999573    4.90999985    2.64000010
   14.64333344  137.72999573    4.90999985    2.66000009
   14.64722252  133.58200073    4.90999985    2.61999989
   14.65055561  150.50700378    4.90999985    2.64000010
   14.65388870  141.42399597    4.90999985    2.59999990
   14.65694427  143.64799500    4.90999985    2.55999994
   14.66027737  135.66099548    4.90999985    2.48000002
   14.66361046  161.38800049    4.90999985    2.50000000
   14.66583252  145.45399475    4.90999985    2.39000010
   14.66722298  136.52299500    4.90999985    2.50000000
   14.67055607  152.30900574    4.90999985    2.51999998
   14.67361164  146.65800476    4.90999985    2.50000000
   14.67694473  144.06700134    4.90999985    2.48000002
   14.68027782  140.50199890    4.90999985    2.53999996
   14.68611145  140.50199890    4.90999985    2.57999992
   14.69027805  146.47799683    4.90999985    2.55999994
   14.69333363  140.33599854    4.90999985    2.51999998
   14.69666672  151.80799866    4.90999985    2.53999996
   14.69916630  149.79600525    4.90999985    2.57999992
   14.70027733  147.28199768    4.90999985    2.61999989
   14.70361137  139.43600464    4.90999985    2.57999992
   14.70666695  127.19499969    4.90999985    2.57999992
   14.71000004  135.83399963    4.90999985    2.57999992
   14.71333313  131.79899597    4.90999985    2.55999994
   14.71638870  138.68699646    4.90999985    2.59999990
   14.71972179  140.87800598    4.90999985    2.55999994
   14.72277737  140.95899963    4.90999985    2.55999994
   14.72888851  140.95899963    4.90999985    2.55999994
   14.73305511  152.89100647    4.90999985    2.51999998
   14.73638916  136.13299561    4.90999985    2.53999996
   14.73944473  147.42900085    4.90999985    2.50000000
   14.74277782  152.56799316    4.90999985    2.50000000
   14.74583340  168.94000244    4.90999985    2.46000004
   14.74916649  142.93699646    4.90999985    2.46000004
   14.75249958  150.78500366    4.90999985    2.57999992
   14.75555515  154.55099487    4.90999985    2.57999992
   14.75888920  142.78500366    4.90999985    2.64000010
   14.76222229  140.13900757    4.90999985    2.66000009
   14.76527786  135.88400269    4.90999985    2.69000006
   14.76583290  127.16100311    4.90999985    2.71000004
   14.77166653  127.16100311    4.90999985    2.69000006
   14.77583313  141.22999573    4.90999985    2.69000006
   14.77916622  139.80900574    4.90999985    2.69000006
   14.78222179  158.00199890    4.90999985    2.67000008
   14.78555584  134.74600220    4.90999985    2.66000009
   14.78888893  149.33500671    4.90999985    2.59999990
   14.79194450  171.19999695    4.90999985    2.48000002
   14.79527855  156.79699707    4.90999985    2.51999998
   14.79861164  158.06399536    4.90999985    2.53999996
   14.79916668  150.53199768    4.90999985    2.53999996
   14.80222225  154.79600525    4.90999985    2.53999996
   14.80555534  164.67900085    4.90999985    2.55999994
   14.80861092  144.86999512    4.90999985    2.55999994
   14.81472206  144.86999512    4.90999985    2.57999992
   14.81861115  160.43499756    4.90999985    2.51999998
   14.82194424  159.66999817    4.90999985    2.50000000
   14.82527733  151.92500305    4.90999985    2.48000002
   14.82833290  153.36799622    4.90999985    2.55999994
   14.83166695  140.60299683    4.90999985    2.64000010
   14.83277798  145.05099487    4.90999985    2.64000010
   14.83527756  133.29100037    4.90999985    2.64000010
   14.83861065  135.74299622    4.90999985    2.66000009
   14.84166622  141.66900635    4.90999985    2.67000008
   14.84499931  153.97200012    4.90999985    2.64000010
   14.84833336  158.90400696    4.90999985    2.66000009
   14.85138893  137.57200623    4.90999985    2.59999990
   14.85750008  137.57200623    4.90999985    2.64000010
   14.86166668  135.61500549    4.90999985    2.67000008
   14.86472225  129.96299744    4.90999985    2.66000009
   14.86611176  133.41099548    4.90999985    2.64000010
   14.86833382  134.20700073    4.90999985    2.66000009
   14.87166691  140.84399414    4.90999985    2.64000010
   14.87500000  146.94099426    4.90999985    2.67000008
   14.87805557  140.13200378    4.90999985    2.69000006
   14.88138866  134.49600220    4.90999985    2.66000009
   14.88472176  139.98399353    4.90999985    2.69000006
   14.88777733  137.13999939    4.90999985    2.69000006
   14.89111137  133.61500549    4.90999985    2.69000006
   14.89416695  117.16699982    4.78000021    2.73000002
   14.90027714  117.16699982    3.89000010    2.73000002
   14.90444374  150.13600159    3.50000000    2.75000000
   14.90777779  133.07299805    3.95000005    2.71000004
   14.91083336  141.18099976    4.19999981    2.73000002
   14.91416645  131.27299500    4.55999994    2.75000000
   14.91722298  133.54699707    4.90999985    2.73000002
   14.92055607  133.18200684    4.90999985    2.71000004
   14.92388916  139.00700378    4.90999985    2.71000004
   14.92694473  138.69000244    4.90999985    2.67000008
   14.93027782  131.38000488    4.90999985    2.64000010
   14.93277836  132.77400208    4.90999985    2.69000006
   14.93388939  127.16000366    4.90999985    2.69000006
   14.93722248  143.24400330    4.90999985    2.71000004
   14.94305515  143.24400330    4.90999985    2.69000006
   14.94722271  132.05000305    4.90999985    2.73000002
   14.95055580  127.19000244    4.90999985    2.69000006
   14.95361137  124.92099762    4.90999985    2.67000008
   14.95694447  140.04499817    4.90999985    2.67000008
   14.96027756  128.34599304    4.90999985    2.69000006
   14.96333313  128.64399719    4.90999985    2.75000000
   14.96611118  133.17399597    4.90999985    2.71000004
   14.96694374  124.50099945    4.90999985    2.71000004
   14.97027779  123.27899933    4.90999985    2.73000002
   14.97333336  131.84800720    4.90999985    2.73000002
   14.97666645  126.42700195    4.28999996    2.75000000
   14.97999954  129.65800476    4.90999985    2.75000000
   14.98583317  129.65800476    4.90999985    2.61999989
   14.99000072  132.09199524    4.90999985    2.59999990
   14.99333382  132.16999817    4.90999985    2.67000008
   14.99666691  127.40399933    4.90999985    2.67000008
   14.99944496  128.33900452    4.90999985    2.69000006
   15.00000000  126.26100159    4.90999985    2.67000008
   15.00333309  143.03199768    4.90999985    2.66000009
   15.00638866  127.30899811    4.90999985    2.67000008
   15.00972176  132.28999329    4.90999985    2.64000010
   15.01305580  141.55599976    4.90999985    2.64000010
   15.01611137  130.49000549    4.90999985    2.59999990
   15.01944447  124.90799713    4.90999985    2.66000009
   15.02277756  128.35499573    4.90999985    2.71000004
   15.02888870  128.35499573    4.90999985    2.67000008
   15.03305531  128.92199707    4.90999985    2.67000008
   15.03611183  131.11599731    4.90999985    2.71000004
   15.03944492  128.58900452    4.90999985    2.71000004
   15.04277802  123.13200378    4.90999985    2.66000009
   15.04583359  126.66999817    4.90999985    2.67000008
   15.04916668  128.91700745    4.90999985    2.67000008
   15.05222225  130.95799255    4.90999985    2.69000006
   15.05555534  130.27600098    4.90999985    2.64000010
   15.05888939  139.36799622    4.90999985    2.66000009
   15.06194496  125.53900146    4.90999985    2.64000010
   15.06527805  132.62100220    4.90999985    2.61999989
   15.06611156  128.72399902    4.90999985    2.64000010
   15.07166672  128.72399902    4.90999985    2.64000010
   15.07583332  136.21699524    4.90999985    2.61999989
   15.07916641  139.71299744    4.90999985    2.67000008
   15.08222198  127.25900269    4.90999985    2.67000008
   15.08555508  130.33399963    4.90999985    2.67000008
   15.08861065  130.14599609    4.90999985    2.66000009
   15.09194374  129.09700012    4.90999985    2.67000008
   15.09527779  129.50100708    4.90999985    2.64000010
   15.09833336  135.07400513    4.90999985    2.59999990
   15.09944439  134.14399719    4.90999985    2.57999992
   15.10194492  133.97300720    4.90999985    2.55999994
   15.10527802  138.22300720    4.90999985    2.53999996
   15.10861111  137.55700684    4.90999985    2.66000009
   15.11444473  137.55700684    4.90999985    2.66000009
   15.11861134  142.84500122    4.90999985    2.64000010
   15.12194443  136.70799255    4.90999985    2.64000010
   15.12500000  130.73500061    4.90999985    2.64000010
   15.12833309  140.13099670    4.90999985    2.66000009
   15.13166714  140.85000610    4.90999985    2.67000008
   15.13277817  139.63900757    4.90999985    2.67000008
   15.13500023  132.38600159    4.90999985    2.69000006
   15.13833332  124.66500092    4.90999985    2.73000002
   15.14166641  132.04499817    4.90999985    2.73000002
   15.14472198  138.13499451    4.90999985    2.71000004
   15.14805508  129.15100098    4.90999985    2.71000004
   15.15111065  127.87599945    4.90999985    2.69000006
   15.15722179  127.87599945    4.90999985    2.71000004
   15.16138840  127.75299835    4.90999985    2.69000006
   15.16472149  134.24499512    4.90999985    2.73000002
   15.16611099  131.38499451    4.90999985    2.71000004
   15.16833401  130.52299500    4.90999985    2.71000004
   15.17166710  130.57699585    4.90999985    2.69000006
   15.17500019  129.94900513    4.90999985    2.71000004
   15.17805576  126.65799713    4.90999985    2.67000008
   15.18138885  126.78600311    4.90999985    2.73000002
   15.18444443  139.69400024    4.90999985    2.71000004
   15.18777752  122.48999786    4.90999985    2.64000010
   15.19111156  132.98500061    4.90999985    2.67000008
   15.19416714  128.27200317    4.90999985    2.67000008
   15.20027733  128.27200317    4.90999985    2.71000004
   15.20444393  133.57499695    4.90999985    2.71000004
   15.20749950  125.79499817    4.90999985    2.71000004
   15.21083355  126.07499695    4.90999985    2.69000006
   15.21388912  127.31700134    4.90999985    2.71000004
   15.21722221  121.47499847    4.90999985    2.75000000
   15.22055531  129.04499817    4.90999985    2.71000004
   15.22361088  127.38200378    4.90999985    2.67000008
   15.22694397  122.77999878    4.90999985    2.67000008
   15.23027706  129.44700623    4.90999985    2.67000008
   15.23277760  145.58299255    4.90999985    2.67000008
   15.23361111  127.85900116    4.90999985    2.67000008
   15.23694515  137.37699890    4.90999985    2.66000009
   15.24305534  137.37699890    4.90999985    2.57999992
   15.24722290  147.39599609    4.90999985    2.59999990
   15.25027752  132.52900696    4.90999985    2.61999989
   15.25361156  131.28300476    4.90999985    2.64000010
   15.25694466  130.10400391    4.90999985    2.59999990
   15.26000023  135.22700500    4.90999985    2.66000009
   15.26333332  127.71600342    4.90999985    2.69000006
   15.26611137  128.46299744    4.90999985    2.71000004
   15.26694393  128.53700256    4.90999985    2.71000004
   15.27027798  132.11199951    4.90999985    2.71000004
   15.27361107  137.25599670    4.90999985    2.71000004
   15.27666664  139.18699646    4.90999985    2.69000006
   15.27999973  133.17700195    4.90999985    2.69000006
   15.28583336  133.17700195    4.90999985    2.71000004
   15.29000092  126.92299652    4.90999985    2.71000004
   15.29333401  126.94499969    4.90999985    2.75000000
   15.29638958  129.53799438    4.90999985    2.71000004
   15.29944515  136.94000244    4.90999985    2.69000006
   15.30000019  118.86199951    4.90999985    2.69000006
   15.30333328  133.59500122    4.90999985    2.73000002
   15.30666733  130.67900085    4.90999985    2.71000004
   15.30972195  139.23699951    4.90999985    2.71000004
   15.31305599  127.33899689    4.90999985    2.71000004
   15.31638908  129.21400452    4.90999985    2.73000002
   15.31944466  127.03099823    4.90999985    2.71000004
   15.32277775  124.82700348    4.90999985    2.69000006
   15.32861137  124.82700348    4.90999985    2.73000002
   15.33277798  126.41200256    4.90999985    2.71000004
   15.33611107  128.23800659    4.90999985    2.71000004
   15.33944416  139.80999756    4.90999985    2.75000000
   15.34249973  129.20500183    4.90999985    2.75000000
   15.34583282  142.63400269    4.90999985    2.73000002
   15.34888840  141.45199585    4.90999985    2.75000000
   15.35222244  136.74200439    4.90999985    2.75000000
   15.35555553  128.96299744    4.90999985    2.73000002
   15.35861111  121.63099670    4.90999985    2.73000002
   15.36194515  115.56999969    4.90999985    2.71000004
   15.36527824  124.18599701    4.90999985    2.75000000
   15.36611176  134.48699951    4.90999985    2.75000000
   15.38666630  134.48699951    4.90999985    2.75000000
   15.39083290  128.55499268    4.90999985    2.75000000
   15.39416695  137.84500122    4.90999985    2.75000000
   15.39750004  130.70599365    4.90999985    2.75000000
   15.39944458  125.82900238    4.90999985    2.76999998
   15.40083313  139.08799744    4.90999985    2.75000000
   15.40416622  127.45800018    4.90999985    2.73000002
   15.40749931  124.09500122    4.90999985    2.71000004
   15.41055489  115.77999878    4.90999985    2.73000002
   15.41388893  139.41499329    4.90999985    2.73000002
   15.41722298  120.37899780    4.90999985    2.75000000
   15.42027855  125.58799744    4.90999985    2.75000000
   15.42361164  142.67100525    4.90999985    2.75000000
   15.42944431  142.67100525    4.90999985    2.71000004
   15.43361092  129.62899780    4.90999985    2.75000000
   15.43694496  129.43600464    4.82999992    2.76999998
   15.44000053  131.74899292    4.19999981    2.75000000
   15.44333363  131.94900513    3.09999990    2.76999998
   15.44666672  133.13600159    2.48000002    2.78999996
   15.44972229  132.18699646    2.44000006    2.76999998
   15.45305538  133.94700623    2.21000004    2.78999996
   15.45638847  131.01100159    1.96000004    2.78999996
   15.45944405  128.89199829    1.69000006    2.78999996
   15.46277714  131.71099854    1.55999994    2.78999996
   15.46583271  126.69699860    1.23000002    2.78999996
   15.46638870  122.20800018    1.23000002    2.78999996
   15.47222137  122.20800018    1.19000006    2.78999996
   15.47638798  122.69000244    1.55999994    2.78999996
   15.47972202  120.47000122    1.91999996    2.78999996
   15.48305511  128.22500610    2.17000008    2.76999998
   15.48611164  124.34799957    3.66000009    2.76999998
   15.48944473  135.96400452    4.90999985    2.76999998
   15.49277782  129.57800293    4.90999985    2.71000004
   15.49583340  132.85899353    4.90999985    2.75000000
   15.49916649  131.01100159    4.90999985    2.75000000
   15.49972248  125.81999969    4.90999985    2.75000000
   15.50277805  128.72399902    4.90999985    2.75000000
   15.50611115  123.69699860    4.90999985    2.75000000
   15.50916672  131.88099670    4.90999985    2.75000000
   15.51527786  131.88099670    4.65999985    2.76999998
   15.51944447  127.20800018    4.86999989    2.75000000
   15.52250004  126.90399933    4.90999985    2.75000000
   15.52583313  125.39700317    4.90999985    2.75000000
   15.52888870  134.75399780    4.90999985    2.73000002
   15.53222179  125.45099640    4.90999985    2.75000000
   15.53305531  124.79799652    4.90999985    2.76999998
   15.53583336  130.05200195    4.90999985    2.76999998
   15.53916740  130.87300110    4.90999985    2.73000002
   15.54222298  122.84899902    4.90999985    2.75000000
   15.54555607  131.49200439    4.90999985    2.75000000
   15.54888916  143.86399841    4.82999992    2.78999996
   15.55194473  144.58000183    4.78000021    2.75000000
   15.55805588  144.58000183    4.90999985    2.75000000
   15.56222248  127.63700104    4.90999985    2.76999998
   15.56527805  124.55799866    4.80000019    2.75000000
   15.56638908  123.74800110    4.65999985    2.75000000
   15.56888866  134.62800598    3.82999992    2.76999998
   15.57222176  136.34599304    3.75000000    2.78999996
   15.57527733  124.44999695    3.66000009    2.75000000
   15.57861137  135.76800537    3.36999989    2.78999996
   15.58194447  139.36300659    3.76999998    2.76999998
   15.58500004  131.20599365    3.95000005    2.75000000
   15.58833313  129.36799622    4.40999985    2.76999998
   15.59138870  136.85400391    4.84999990    2.76999998
   15.59472179  131.24200439    4.88999987    2.75000000
   15.60083389  131.24200439    4.90999985    2.75000000
   15.60500050  128.31100464    4.90999985    2.75000000
   15.60833359  133.39100647    4.90999985    2.76999998
   15.61138916  130.86599731    4.90999985    2.75000000
   15.61472225  117.20099640    4.90999985    2.73000002
   15.61805534  131.34800720    4.90999985    2.75000000
   15.62111092  132.59300232    4.90999985    2.75000000
   15.62444496  130.24299622    4.90999985    2.75000000
   15.62777805  139.20399475    4.90999985    2.76999998
   15.63083363  142.24000549    4.90999985    2.73000002
   15.63305569  131.84500122    4.90999985    2.73000002
   15.63444424  135.30299377    4.90999985    2.71000004
   15.63777733  132.44099426    4.90999985    2.71000004
   15.64361095  132.44099426    4.90999985    2.73000002
   15.64777756  132.00100708    4.90999985    2.75000000
   15.65111065  124.61499786    4.90999985    2.75000000
   15.65472221  129.86000061    4.90999985    2.75000000
   15.65777779  140.89900208    4.90999985    2.75000000
   15.66111088  123.92400360    4.90999985    2.76999998
   15.66444397  123.86900330    4.90999985    2.75000000
   15.66638851  129.64500427    4.90999985    2.76999998
   15.66805553  122.62000275    4.90999985    2.76999998
   15.67138958  119.23000336    4.90999985    2.75000000
   15.67444515  132.76800537    4.90999985    2.75000000
   15.67777824  117.27999878    4.84999990    2.76999998
   15.68111134  130.05299377    4.90999985    2.75000000
   15.68666649  130.05299377    4.90999985    2.76999998
   15.69083309  125.51699829    4.86999989    2.75000000
   15.69388866  119.26000214    4.90999985    2.76999998
   15.69722271  132.34500122    4.46999979    2.76999998
   15.69972229  127.31600189    3.89000010    2.76999998
   15.70083332  126.81800079    3.95000005    2.75000000
   15.70416641  120.57299805    4.42999983    2.75000000
   15.70722198  122.59500122    3.46000004    2.80999994
   15.71055508  133.37699890    3.01999998    2.78999996
   15.71388912  126.58399963    3.36999989    2.76999998
   15.71694374  123.60199738    3.20000005    2.78999996
   15.72027779  131.64999390    2.71000004    2.78999996
   15.72361088  125.01200104    3.43000007    2.78999996
   15.72944355  125.01200104    3.73000002    2.76999998
   15.73361111  135.50799561    3.93000007    2.75000000
   15.73666668  132.88000488    3.93000007    2.76999998
   15.74000072  130.31100464    4.26999998    2.76999998
   15.74333382  125.09200287    3.21000004    2.78999996
   15.74638939  127.83899689    3.16000009    2.78999996
   15.74972248  147.63699341    4.42999983    2.76999998
   15.75305557  120.63400269    4.23999977    2.78999996
   15.75611115  138.97399902    3.97000003    2.78999996
   15.75944424  136.94200134    3.59999990    2.76999998
   15.76249981  129.13099670    3.03999996    2.78999996
   15.76583290  130.13800049    2.93000007    2.80999994
   15.76638889  138.63600159    2.96000004    2.80999994
   15.77222157  138.63600159    3.78999996    2.76999998
   15.77638817  145.57600403    4.03999996    2.78999996
   15.77972221  137.90299988    4.21999979    2.76999998
   15.78277779  146.08599854    3.84999990    2.78999996
   15.78611183  124.81199646    3.30999994    2.78999996
   15.78944492  123.47499847    3.64000010    2.80999994
   15.79250050  125.05200195    3.26999998    2.78999996
   15.79583359  151.33000183    2.93000007    2.78999996
   15.79888916  130.52600098    2.71000004    2.78999996
   15.79972267  133.94599915    2.64000010    2.78999996
   15.80249977  148.08900452    2.42000008    2.78999996
   15.80583382  130.90400696    2.34999990    2.80999994
   15.80916691  124.46199799    2.86999989    2.78999996
   15.81500053  124.46199799    3.05999994    2.78999996
   15.81916618  132.58599854    3.48000002    2.78999996
   15.82250023  131.18699646    3.28999996    2.78999996
   15.82583332  135.62899780    4.01999998    2.78999996
   15.82888889  129.72399902    4.07999992    2.75000000
   15.83222198  126.98000336    4.00000000    2.78999996
   15.83305550  122.00199890    3.99000001    2.76999998
   15.83583260  134.24000549    3.99000001    2.76999998
   15.83916664  131.14799500    3.61999989    2.78999996
   15.84222221  137.74400330    3.57999992    2.76999998
   15.84555531  134.17300415    3.73000002    2.78999996
   15.84888840  142.41299438    4.01999998    2.75000000
   15.85194492  136.28900146    3.55999994    2.78999996
   15.85805607  136.28900146    4.80000019    2.75000000
   15.86222267  145.57200623    4.90999985    2.75000000
   15.86527824  149.85600281    4.90999985    2.75000000
   15.86638927  129.74800110    4.90999985    2.69000006
   15.86888885  129.15199280    4.90999985    2.69000006
   15.87250042  145.75799561    4.90999985    2.76999998
   15.87583351  137.52799988    4.76000023    2.76999998
   15.87888908  127.98000336    3.78999996    2.76999998
   15.88222218  123.07599640    3.18000007    2.78999996
   15.88555527  129.08000183    2.53999996    2.82999992
   15.88861084  137.38999939    2.23000002    2.78999996
   15.89194393  119.93399811    1.96000004    2.80999994
   15.89499950  126.28299713    2.00000000    2.80999994
   15.90083313  126.28299713    2.73000002    2.78999996
   15.90499973  122.46800232    2.19000006    2.78999996
   15.90805531  137.47000122    2.07999992    2.82999992
   15.91138840  141.46600342    1.78999996    2.82999992
   15.91472149  137.57800293    1.64999998    2.80999994
   15.91777802  132.28100586    1.07000005    2.82999992
   15.92111111  126.23500061    0.98000002    2.80999994
   15.92444515  133.10899353    0.95999998    2.82999992
   15.92750072  125.61599731    0.95999998    2.78999996
   15.93083382  129.38000488    0.92000002    2.82999992
   15.93333340  137.39999390    0.86000001    2.80999994
   15.93444443  141.98599243    0.86000001    2.80999994
   15.93777752  127.19300079    0.83999997    2.82999992
   15.94361115  127.19300079    0.83999997    2.82999992
   15.94777775  126.51100159    0.88000000    2.82999992
   15.95111084  130.80400085    0.88000000    2.82999992
   15.95416641  130.71699524    0.88000000    2.82999992
   15.95749950  139.16799927    0.92000002    2.82999992
   15.96083355  121.57399750    0.88000000    2.80999994
   15.96388912  132.47200012    0.83999997    2.82999992
   15.96666622  127.13600159    0.83999997    2.82999992
   15.96749973  135.71499634    0.88000000    2.82999992
   15.97083282  119.02500153    0.88000000    2.82999992
   15.97416592  128.72500610    1.07000005    2.82999992
   15.97722149  134.50900269    1.09000003    2.82999992
   15.98055553  115.64900208    1.14999998    2.80999994
   15.98638916  115.64900208    1.09000003    2.82999992
   15.99055576  128.67999268    1.07000005    2.80999994
   15.99388885  127.34999847    1.23000002    2.80999994
   15.99722290  119.64399719    1.23000002    2.80999994
   16.00000000  122.51000214    1.13000000    2.82999992
   16.00055504  119.65499878    1.00000000    2.82999992
   16.00388908  123.47499847    1.03999996    2.80999994
   16.00722313  127.44300079    0.98000002    2.82999992
   16.01027870  122.51300049    0.98000002    2.80999994
   16.01361084  122.41699982    1.00000000    2.82999992
   16.01666641  137.25599670    1.00000000    2.82999992
   16.02000046  122.11000061    1.00000000    2.80999994
   16.02333260  116.04900360    0.98000002    2.82999992
   16.02944374  116.04900360    0.83999997    2.82999992
   16.03361130  130.49299622    0.83999997    2.82999992
   16.03666687  120.52400208    0.83999997    2.82999992
   16.03999901  122.10900116    0.81999999    2.82999992
   16.04305458  123.55899811    0.81999999    2.82999992
   16.04638863  118.38600159    0.94000000    2.82999992
   16.04972076  115.03700256    0.98000002    2.82999992
   16.05277634  121.99600220    1.16999996    2.82999992
   16.05611038  121.56199646    1.36000001    2.82999992
   16.05944443  123.19999695    1.39999998    2.82999992
   16.06250000  118.30599976    1.69000006    2.82999992
   16.06583214  124.19799805    1.34000003    2.80999994
   16.06666756  114.46900177    1.26999998    2.82999992
   16.07222366  114.46900177    1.36000001    2.82999992
   16.07638931  128.88600159    1.86000001    2.78999996
   16.07944489  119.20099640    2.00000000    2.78999996
   16.08277893  127.09200287    2.07999992    2.80999994
   16.08611107  121.98899841    2.01999998    2.78999996
   16.08916664  128.69599915    1.55999994    2.82999992
   16.09250069  121.90799713    1.51999998    2.80999994
   16.09583473  117.84400177    1.38000000    2.80999994
   16.09889030  114.51200104    1.14999998    2.82999992
   16.10000038  124.15899658    1.14999998    2.82999992
   16.10250092  118.11499786    1.16999996    2.82999992
   16.10583305  121.08499908    1.50000000    2.80999994
   16.10916710  117.46199799    1.55999994    2.80999994
   16.11499977  117.46199799    1.38000000    2.82999992
   16.11916733  114.37200165    1.39999998    2.80999994
   16.12249947  117.72299957    1.11000001    2.82999992
   16.12555504  136.25599670    1.33000004    2.82999992
   16.12888908  119.67500305    1.41999996    2.82999992
   16.13222313  129.00500488    1.26999998    2.82999992
   16.13333321  130.39799500    1.26999998    2.82999992
   16.13555527  125.64199829    1.26999998    2.82999992
   16.13888931  126.51699829    1.01999998    2.82999992
   16.14222145  124.56900024    1.00000000    2.82999992
   16.14527702  120.65200043    1.00000000    2.82999992
   16.14861107  124.55999756    1.00000000    2.82999992
   16.15166664  138.46800232    1.07000005    2.82999992
   16.15777779  138.46800232    1.13000000    2.82999992
   16.16194344  120.18800354    1.00000000    2.82999992
   16.16527748  118.34200287    0.94000000    2.82999992
   16.16666603  120.61000061    0.80000001    2.82999992
   16.16888809  121.11100006    0.80000001    2.82999992
   16.17222214  122.08399963    0.76999998    2.82999992
   16.17555428  117.73000336    0.76999998    2.82999992
   16.17860985  112.89099884    0.76999998    2.82999992
   16.18194389  121.00700378    0.76999998    2.82999992
   16.18499947  123.49900055    0.76999998    2.82999992
   16.18833160  127.12799835    0.79000002    2.82999992
   16.19166565  122.74299622    0.76999998    2.82999992
   16.19472122  126.16699982    0.79000002    2.80999994
   16.20083427  126.16699982    0.70999998    2.82999992
   16.20499992  122.71800232    0.70999998    2.82999992
   16.20805550  123.77700043    0.86000001    2.82999992
   16.21138954  124.90699768    0.89999998    2.82999992
   16.21444511  118.69499969    3.93000007    2.78999996
   16.21777916  137.40699768    4.90999985    2.75000000
   16.22111130  131.42700195    4.90999985    2.71000004
   16.22416687  137.49499512    4.90999985    2.71000004
   16.22750092  126.57099915    4.90999985    2.67000008
   16.23083305  123.17900085    3.46000004    2.78999996
   16.23333359  124.23600006    2.00000000    2.82999992
   16.23416710  121.86399841    2.01999998    2.80999994
   16.23750114  126.52200317    1.78999996    2.82999992
   16.24361229  126.52200317    2.19000006    2.80999994
   16.24777794  121.34899902    1.23000002    2.82999992
   16.25083351  124.04000092    0.94000000    2.82999992
   16.25416756  116.18499756    0.94000000    2.82999992
   16.25749969  118.57099915    0.95999998    2.82999992
   16.26055527  117.51300049    0.95999998    2.82999992
   16.26388931  119.94499969    0.95999998    2.82999992
   16.26666641  122.28800201    0.95999998    2.82999992
   16.26749992  123.25499725    0.95999998    2.82999992
   16.27083397  115.33000183    1.13000000    2.80999994
   16.27416611  115.70400238    1.13000000    2.82999992
   16.27722168  115.64900208    1.14999998    2.80999994
   16.28055573  116.77100372    1.14999998    2.80999994
   16.28638840  116.77100372    0.81999999    2.82999992
   16.29055595  118.65699768    0.81999999    2.82999992
   16.29361153  120.41699982    0.88000000    2.82999992
   16.29694366  119.94699860    0.88000000    2.82999992
   16.29999924  122.09700012    1.11000001    2.84999990
   16.30055428  117.80799866    1.09000003    2.80999994
   16.30388832  116.83300018    0.98000002    2.82999992
   16.30694389  118.95700073    0.95999998    2.82999992
   16.31027794  118.83300018    0.86000001    2.82999992
   16.31361008  116.05300140    0.92000002    2.82999992
   16.31666756  119.01100159    0.92000002    2.82999992
   16.32000160  121.59899902    0.89999998    2.82999992
   16.32333374  121.58200073    0.81999999    2.82999992
   16.32916832  121.58200073    0.81999999    2.82999992
   16.33333397  122.08599854    0.79000002    2.82999992
   16.33666801  121.78700256    0.79000002    2.82999992
   16.33972359  115.31400299    0.79000002    2.82999992
   16.34305573  125.36799622    0.76999998    2.82999992
   16.34638977  115.91899872    0.73000002    2.82999992
   16.34944534  119.32599640    0.73000002    2.82999992
   16.35277748  117.96299744    0.75000000    2.82999992
   16.35583305  114.67900085    0.75000000    2.80999994
   16.35916710  113.42400360    0.76999998    2.82999992
   16.36250114  119.49299622    0.79000002    2.82999992
   16.36555672  117.73699951    0.79000002    2.82999992
   16.36666679  117.41999817    0.79000002    2.82999992
   16.37222290  117.41999817    0.76999998    2.82999992
   16.37611198  112.06199646    0.75000000    2.82999992
   16.37944412  122.93800354    0.76999998    2.82999992
   16.38277817  121.06999969    0.88000000    2.82999992
   16.40027809  128.62399292    1.03999996    2.82999992
   16.40277672  130.23599243    1.09000003    2.82999992
   16.40583229  118.27600098    1.05999994    2.82999992
   16.40916634  122.51300049    1.13000000    2.84999990
   16.41499901  122.51300049    1.39999998    2.82999992
   16.41916656  128.96699524    1.39999998    2.82999992
   16.42249870  121.99400330    1.48000002    2.80999994
   16.42583275  125.09899902    1.51999998    2.82999992
   16.42888832  128.16900635    0.98000002    2.82999992
   16.43222237  121.84899902    0.98000002    2.82999992
   16.43361092  127.51300049    0.98000002    2.82999992
   16.43583298  126.81999969    0.88000000    2.82999992
   16.43916512  113.16000366    0.88000000    2.82999992
   16.44249916  121.52700043    0.88000000    2.82999992
   16.44555473  124.07399750    0.88000000    2.82999992
   16.44888878  123.15200043    1.28999996    2.84999990
   16.45222282  117.46499634    1.30999994    2.82999992
   16.45805550  117.46499634    1.69000006    2.80999994
   16.46222305  127.12200165    2.00000000    2.80999994
   16.46527863  125.64600372    2.01999998    2.82999992
   16.46694565  125.74199677    1.85000002    2.80999994
   16.46888924  117.29000092    1.60000002    2.82999992
   16.47222328  113.85500336    1.33000004    2.84999990
   16.47555542  119.02600098    1.01999998    2.82999992
   16.47861099  125.92199707    0.89999998    2.82999992
   16.48194504  120.62799835    0.89999998    2.82999992
   16.48527718  118.02700043    0.89999998    2.82999992
   16.48833275  133.69400024    0.95999998    2.82999992
   16.49166679  128.39900208    0.95999998    2.82999992
   16.49500084  116.35500336    0.83999997    2.82999992
   16.50083351  116.35500336    0.83999997    2.82999992
   16.50499916  116.27999878    0.80000001    2.82999992
   16.50805473  127.47599792    0.75000000    2.82999992
   16.51138878  115.78099823    0.86000001    2.82999992
   16.51472282  127.58599854    0.86000001    2.82999992
   16.51805496  118.58300018    0.88000000    2.82999992
   16.52138901  118.70200348    0.89999998    2.82999992
   16.52472115  117.07599640    0.89999998    2.82999992
   16.52777672  120.85299683    0.89999998    2.82999992
   16.53111076  126.72399902    1.01999998    2.80999994
   16.53361130  125.61900330    1.00000000    2.82999992
   16.53472137  131.17500305    1.00000000    2.82999992
   16.53805542  123.51699829    0.98000002    2.82999992
   16.54361153  123.51699829    1.05999994    2.82999992
   16.54777718  114.99500275    1.14999998    2.82999992
   16.55111122  119.33000183    1.11000001    2.82999992
   16.55416679  125.53099823    1.26999998    2.82999992
   16.55749893  118.45500183    1.30999994    2.84999990
   16.56055450  123.38300323    1.34000003    2.82999992
   16.56388855  124.13999939    1.28999996    2.82999992
   16.56694603  127.53500366    1.28999996    2.82999992
   16.56750107  115.86799622    1.30999994    2.82999992
   16.57083511  122.99600220    1.75000000    2.80999994
   16.57416725  114.81700134    1.69000006    2.80999994
   16.57722282  121.95999908    1.53999996    2.82999992
   16.58055687  124.35199738    1.19000006    2.84999990
   16.58638954  124.35199738    1.16999996    2.82999992
   16.59055710  126.94699860    1.16999996    2.84999990
   16.59388924  124.99700165    1.23000002    2.82999992
   16.59694481  126.57599640    1.28999996    2.82999992
   16.60027885  118.90299988    1.36000001    2.82999992
   16.60055542  119.33200073    1.36000001    2.82999992
   16.60388947  123.22599792    1.39999998    2.82999992
   16.60722351  124.78099823    1.48000002    2.82999992
   16.61027908  118.22000122    1.64999998    2.82999992
   16.61361122  124.54399872    1.64999998    2.82999992
   16.61666679  121.68699646    1.55999994    2.82999992
   16.62000084  117.83000183    1.36000001    2.82999992
   16.62333298  114.05300140    1.38000000    2.82999992
   16.62944412  114.05300140    2.39000010    2.78999996
   16.63361168  127.55500031    2.67000008    2.78999996
   16.63388824  117.16000366    2.67000008    2.78999996
   16.63722229  120.93800354    3.07999992    2.78999996
   16.64055634  125.82599640    3.03999996    2.78999996
   16.64361191  122.80899811    2.96000004    2.78999996
   16.64694405  119.26000214    3.25000000    2.78999996
   16.64999962  128.13000488    3.21000004    2.78999996
   16.65333366  127.72000122    3.30999994    2.78999996
   16.65666580  124.32900238    3.21000004    2.80999994
   16.65972137  123.68199921    2.51999998    2.80999994
   16.66305542  115.62699890    2.39000010    2.78999996
   16.66638756  122.00299835    2.28999996    2.82999992
   16.66694450  123.80799866    2.28999996    2.82999992
   16.67222214  123.80799866    2.51999998    2.80999994
   16.67638779  117.52999878    2.71000004    2.82999992
   16.67944336  120.12300110    2.44000006    2.78999996
   16.68277740  124.29900360    1.88000000    2.82999992
   16.68610954  137.42900085    2.11999989    2.82999992
   16.68916512  121.90399933    2.34999990    2.78999996
   16.69249916  127.47100067    2.86999989    2.78999996
   16.69555473  128.57000732    3.45000005    2.80999994
   16.69888878  122.08100128    3.39000010    2.78999996
   16.70027924  131.62800598    3.30999994    2.78999996
   16.70250130  121.42299652    3.41000009    2.80999994
   16.70583344  125.15399933    3.76999998    2.78999996
   16.70916748  118.53199768    3.57999992    2.80999994
   16.71500015  118.53199768    2.53999996    2.80999994
   16.71916771  121.42400360    2.34999990    2.80999994
   16.72249985  117.22799683    2.11999989    2.82999992
   16.72555542  123.71800232    2.36999989    2.82999992
   16.72888947  125.94899750    2.82999992    2.80999994
   16.73222351  129.53399658    3.82999992    2.76999998
   16.73361206  125.03700256    3.72000003    2.80999994
   16.73583412  124.75199890    3.23000002    2.78999996
   16.73888969  119.85099792    3.00000000    2.80999994
   16.74222183  118.51999664    3.00000000    2.78999996
   16.74527740  124.60399628    2.07999992    2.80999994
   16.74861145  127.20899963    1.75000000    2.82999992
   16.75194359  119.00800323    1.71000004    2.82999992
   16.75777817  119.00800323    1.46000004    2.82999992
   16.76194382  118.67400360    1.38000000    2.82999992
   16.76527786  115.66300201    1.23000002    2.84999990
   16.76694489  125.24700165    1.23000002    2.84999990
   16.76861000  123.90100098    1.23000002    2.84999990
   16.77194405  119.06199646    1.33000004    2.82999992
   16.77527809  114.03500366    1.33000004    2.82999992
   16.77833366  113.76100159    1.34000003    2.82999992
   16.78166580  122.98600006    1.60000002    2.80999994
   16.78499985  124.06900024    1.55999994    2.82999992
   16.78805542  119.34999847    1.55999994    2.82999992
   16.79138756  119.96299744    1.61000001    2.82999992
   16.79444313  120.38899994    2.13000011    2.80999994
   16.80083275  120.38899994    1.16999996    2.82999992
   16.80499840  121.60299683    1.30999994    2.82999992
   16.80805397  120.48200226    1.25000000    2.84999990
   16.81138802  125.52500153    1.53999996    2.80999994
   16.81444359  115.19799805    1.51999998    2.82999992
   16.81777954  124.04000092    1.55999994    2.82999992
   16.82111168  126.06199646    2.19000006    2.82999992
   16.82416725  120.19499969    2.13000011    2.82999992
   16.82750130  121.74400330    1.96000004    2.82999992
   16.83083344  122.78800201    1.78999996    2.82999992
   16.83361244  135.57600403    2.09999990    2.82999992
   16.83416748  122.93800354    2.07999992    2.82999992
   16.83750153  128.13099670    2.19000006    2.82999992
   16.84361267  128.13099670    2.44000006    2.80999994
   16.84777832  123.78600311    2.76999998    2.80999994
   16.85083389  124.08200073    2.84999990    2.80999994
   16.85416794  123.24900055    2.71000004    2.80999994
   16.85750008  120.89700317    2.89000010    2.78999996
   16.86055565  120.26300049    2.80999994    2.82999992
   16.86388969  116.76000214    2.91000009    2.80999994
   16.86694527  120.23500061    2.71000004    2.80999994
   16.86722183  119.36699677    2.71000004    2.80999994
   16.87055588  120.45300293    2.69000006    2.78999996
   16.87388992  112.88899994    2.48000002    2.78999996
   16.87694550  118.32399750    2.34999990    2.82999992
   16.88027763  119.82599640    3.03999996    2.80999994
   16.88638878  119.82599640    2.66000009    2.80999994
   16.89055634  142.64900208    2.71000004    2.80999994
   16.89388847  124.35800171    2.73000002    2.78999996
   16.89694405  122.39800262    2.73000002    2.78999996
   16.90027809  125.39399719    2.36999989    2.82999992
   16.90083313  116.07099915    2.36999989    2.82999992
   16.90388870  128.33500671    2.55999994    2.80999994
   16.90722275  120.13800049    2.21000004    2.82999992
   16.91027832  119.00800323    2.05999994    2.82999992
   16.91361046  120.53600311    1.60000002    2.82999992
   16.91694450  120.63099670    1.41999996    2.82999992
   16.92000008  118.45099640    1.13000000    2.82999992
   16.92333221  121.73300171    0.95999998    2.82999992
   16.92916679  121.73300171    0.79000002    2.82999992
   16.93333244  128.93400574    0.79000002    2.82999992
   16.93388748  125.62999725    0.79000002    2.82999992
   16.93722153  125.37000275    0.70999998    2.82999992
   16.94027710  117.06600189    0.70999998    2.82999992
   16.94361115  127.76100159    0.70999998    2.82999992
   16.94694328  119.83000183    0.70999998    2.82999992
   16.95000076  122.26300049    0.70999998    2.82999992
   16.95333481  119.98899841    0.73000002    2.82999992
   16.95666695  116.55999756    0.76999998    2.82999992
   16.95972252  134.30999756    0.76999998    2.82999992
   16.96305656  119.35099792    0.76999998    2.82999992
   16.96638870  118.34600067    0.75000000    2.82999992
   16.96722221  118.98100281    0.76999998    2.82999992
   16.97222328  118.98100281    0.76999998    2.82999992
   16.97638893  118.95800018    0.76999998    2.84999990
   16.97944450  115.91100311    0.80000001    2.84999990
   16.98277855  128.11000061    0.76999998    2.82999992
   16.98583412  126.07299805    0.73000002    2.82999992
   16.98916626  126.15299988    0.79000002    2.82999992
   16.99250031  115.81400299    0.98000002    2.82999992
   16.99583435  123.41000366    1.64999998    2.80999994
   16.99888992  125.49299622    1.63000000    2.80999994
   17.00055504  127.84999847    1.39999998    2.82999992
   17.00250053  114.40100098    1.39999998    2.82999992
   17.00555611  118.79100037    1.36000001    2.82999992
   17.00888824  122.37899780    0.98000002    2.82999992
   17.01499939  122.37899780    0.81999999    2.82999992
   17.01916695  120.62500000    0.80000001    2.84999990
   17.02222252  124.68599701    0.86000001    2.82999992
   17.02555466  120.95999908    0.80000001    2.82999992
   17.02888870  124.67199707    0.79000002    2.82999992
   17.03194427  119.43399811    0.76999998    2.82999992
   17.03388786  119.64499664    0.79000002    2.82999992
   17.03555489  114.01000214    0.76999998    2.82999992
   17.03861046  112.92900085    0.79000002    2.84999990
   17.04194450  116.28500366    0.80000001    2.82999992
   17.04527664  117.20700073    0.83999997    2.82999992
   17.04833221  118.48400116    0.83999997    2.82999992
   17.05166626  118.24400330    0.95999998    2.82999992
   17.05777740  118.24400330    1.28999996    2.82999992
   17.06194305  123.72100067    1.09000003    2.82999992
   17.06527710  120.06900024    0.98000002    2.82999992
   17.06722260  123.45500183    1.01999998    2.82999992
   17.06888962  117.60199738    1.05999994    2.80999994
   17.07222366  111.27899933    1.28999996    2.82999992
   17.07527924  116.01300049    1.16999996    2.82999992
   17.07861137  114.39399719    1.03999996    2.82999992
   17.08166695  117.74500275    1.00000000    2.82999992
   17.08500099  116.57399750    0.98000002    2.82999992
   17.08833313  117.10399628    1.14999998    2.82999992
   17.09138870  123.31199646    1.19000006    2.82999992
   17.09472275  122.24700165    1.19000006    2.82999992
   17.10055542  122.24700165    0.81999999    2.82999992
   17.10472298  124.26000214    0.79000002    2.82999992
   17.10805511  116.77100372    0.79000002    2.82999992
   17.11111069  126.26499939    0.73000002    2.82999992
   17.11444473  121.00599670    0.73000002    2.82999992
   17.11777878  124.27999878    0.81999999    2.82999992
   17.12083435  120.41600037    1.00000000    2.82999992
   17.12416649  111.59999847    0.88000000    2.82999992
   17.12750053  122.02700043    0.70999998    2.82999992
   17.13055611  120.53700256    0.64999998    2.82999992
   17.13388824  115.26200104    0.63000000    2.82999992
   17.13583374  123.12300110    0.63000000    2.82999992
   17.13750076  117.34999847    0.63000000    2.84999990
   17.14361191  117.34999847    0.61000001    2.82999992
   17.14749908  124.94999695    0.61000001    2.84999990
   17.15083313  119.14700317    0.61000001    2.82999992
   17.15416718  111.74900055    0.61000001    2.82999992
   17.15722275  116.68199921    0.61000001    2.82999992
   17.16055489  121.42800140    0.63000000    2.82999992
   17.16388893  117.58399963    0.63000000    2.82999992
   17.16694450  117.85700226    0.63000000    2.82999992
   17.16916656  118.33399963    0.63000000    2.82999992
   17.17055511  121.96900177    0.63000000    2.82999992
   17.17388916  126.91300201    0.64999998    2.84999990
   17.17694473  122.26300049    0.70999998    2.82999992
   17.18027687  118.46199799    0.73000002    2.82999992
   17.18638802  118.46199799    0.73000002    2.82999992
   17.19055557  123.88200378    0.75000000    2.82999992
   17.19361115  121.68000031    0.73000002    2.82999992
   17.19694328  120.91500092    0.75000000    2.82999992
   17.20027924  120.82099915    0.76999998    2.82999992
   17.20250130  119.45200348    0.76999998    2.82999992
   17.20388985  121.62300110    0.75000000    2.82999992
   17.20722389  116.36699677    0.75000000    2.82999992
   17.21027946  117.62999725    0.75000000    2.80999994
   17.21361160  118.38300323    0.75000000    2.84999990
   17.21666718  115.35299683    0.76999998    2.82999992
   17.22000122  117.73000336    0.76999998    2.82999992
   17.22333336  118.47399902    0.79000002    2.82999992
   17.22916794  118.47399902    0.76999998    2.82999992
   17.23333359  109.73500061    0.75000000    2.82999992
   17.23583412  120.35199738    0.70999998    2.82999992
   17.23694420  120.71199799    0.70999998    2.82999992
   17.24027824  119.84500122    0.69000000    2.82999992
   17.24333382  118.68000031    0.69000000    2.82999992
   17.24666786  118.52600098    0.67000002    2.82999992
   17.24972153  118.11599731    0.67000002    2.82999992
   17.25305557  116.54599762    0.67000002    2.84999990
   17.25638962  117.93499756    0.63000000    2.82999992
   17.25944519  119.39399719    0.63000000    2.84999990
   17.26277733  118.65499878    0.61000001    2.84999990
   17.26611137  124.00499725    0.61000001    2.82999992
   17.27222252  124.00499725    0.63000000    2.82999992
   17.27611160  116.36499786    0.64999998    2.82999992
   17.27944374  119.23500061    0.69000000    2.82999992
   17.28277779  115.10900116    0.69000000    2.84999990
   17.28583336  119.39499664    0.70999998    2.84999990
   17.28916550  118.34999847    0.70999998    2.82999992
   17.29249954  114.30500031    0.69000000    2.82999992
   17.29555511  117.12699890    0.70999998    2.84999990
   17.29888916  114.53800201    0.70999998    2.82999992
   17.30194283  113.31099701    0.70999998    2.84999990
   17.30305481  115.45700073    0.73000002    2.82999992
   17.30555534  113.85199738    0.70999998    2.82999992
   17.30888748  110.76899719    0.70999998    2.84999990
   17.31499863  110.76899719    0.70999998    2.82999992
   17.31916809  119.57900238    0.69000000    2.82999992
   17.32222366  121.74500275    0.69000000    2.82999992
   17.32555580  116.15799713    0.69000000    2.82999992
   17.32888985  116.22200012    0.69000000    2.82999992
   17.33194542  111.71800232    0.69000000    2.82999992
   17.33527756  121.28900146    0.69000000    2.82999992
   17.33638954  118.06600189    0.69000000    2.82999992
   17.33889008  121.60399628    0.69000000    2.82999992
   17.34194565  118.52600098    0.69000000    2.82999992
   17.34527779  116.93800354    0.70999998    2.82999992
   17.34833336  120.43399811    0.70999998    2.82999992
   17.35166740  112.18299866    0.73000002    2.82999992
   17.35777855  112.18299866    0.73000002    2.82999992
   17.36194420  118.20700073    0.73000002    2.82999992
   17.36527824  115.21399689    0.73000002    2.82999992
   17.36833382  116.55500031    0.70999998    2.82999992
   17.37000084  121.48300171    0.73000002    2.84999990
   17.37194443  115.91000366    0.73000002    2.82999992
   17.37527847  118.50499725    0.70999998    2.82999992
   17.37861061  117.93499756    0.70999998    2.82999992
   17.38166618  125.22899628    0.73000002    2.80999994
   17.38500023  115.91100311    0.73000002    2.82999992
   17.38805580  122.43800354    0.73000002    2.82999992
   17.39138794  121.69699860    0.70999998    2.82999992
   17.39472198  120.34400177    0.73000002    2.82999992
   17.40055466  120.34400177    0.79000002    2.82999992
   17.41916656  111.56400299    0.83999997    2.80999994
   17.42222214  118.36499786    0.83999997    2.82999992
   17.42555428  119.97200012    0.83999997    2.82999992
   17.42860985  114.36900330    0.83999997    2.82999992
   17.43194389  114.66300201    0.89999998    2.82999992
   17.43527603  117.45500183    0.89999998    2.82999992
   17.43833160  123.54900360    0.89999998    2.82999992
   17.44388771  123.54900360    0.89999998    2.82999992
   17.44777679  135.49899292    0.88000000    2.82999992
   17.45111275  138.06399536    0.86000001    2.82999992
   17.45222282  125.51499939    0.83999997    2.80999994
   17.45472336  140.66000366    0.81999999    2.82999992
   17.45805550  150.07499695    0.83999997    2.82999992
   17.46111107  145.88900757    0.81999999    2.82999992
   17.46444511  138.95100403    0.81999999    2.82999992
   17.46777916  132.03100586    0.80000001    2.80999994
   17.47083473  144.13900757    0.80000001    2.82999992
   17.47416687  139.73500061    0.79000002    2.82999992
   17.47750092  137.37800598    0.76999998    2.82999992
   17.48055649  144.93600464    0.76999998    2.82999992
   17.48666763  144.93600464    0.76999998    2.82999992
   17.49083328  131.33500671    0.76999998    1.44000006
   17.49388885  143.53399658    0.76999998    1.21000004
   17.49722290  137.26400757    0.76999998    1.21000004
   17.50055504  144.97000122    0.75000000    2.82999992
   17.50361061  137.95700073    0.75000000    2.82999992
   17.50694466  137.26899719    0.76999998    2.82999992
   17.51027870  159.57200623    0.76999998    2.82999992
   17.51333427  144.98500061    0.76999998    2.82999992
   17.51666641  123.74900055    0.79000002    2.82999992
   17.51888847  150.90800476    0.76999998    2.82999992
   17.52055550  131.82600403    0.76999998    2.82999992
   17.52361107  153.12199402    0.76999998    2.82999992
   17.52944374  153.12199402    0.79000002    2.82999992
   17.53361130  138.77999878    0.76999998    2.82999992
   17.53666687  145.48800659    0.79000002    2.82999992
   17.53999901  137.19099426    0.80000001    2.82999992
   17.54333305  124.29799652    0.79000002    2.82999992
   17.54638863  154.99699402    0.80000001    2.82999992
   17.54972076  125.96900177    0.79000002    2.82999992
   17.55222130  145.99800110    0.79000002    2.82999992
   17.55333328  132.34500122    0.79000002    2.80999994
   17.55666542  147.59700012    0.79000002    2.82999992
   17.55972099  152.93600464    0.79000002    2.82999992
   17.56305504  151.50300598    0.79000002    2.82999992
   17.56638718  169.88200378    0.79000002    2.82999992
   17.57222366  169.88200378    0.79000002    2.82999992
   17.57638931  202.37699890    0.79000002    2.82999992
   17.57972336  201.06300354    0.79000002    2.82999992
   17.58277893  191.48699951    0.79000002    2.82999992
   17.58555603  216.35699463    0.79000002    2.82999992
   17.58638954  236.24099731    0.79000002    2.82999992
   17.58972359  230.48599243    0.79000002    2.82999992
   17.59305573  218.98100281    0.76999998    2.82999992
   17.59611130  215.68099976    0.76999998    2.82999992
   17.59944534  224.63900757    0.76999998    2.82999992
   17.60250092  221.81799316    0.76999998    2.82999992
   17.60583305  193.96099854    0.75000000    2.82999992
   17.60916710  193.62800598    0.76999998    2.82999992
   17.61499977  193.62800598    0.76999998    2.82999992
   17.61916733  167.80599976    0.76999998    2.82999992
   17.62249947  185.56500244    0.75000000    2.82999992
   17.62583351  197.21800232    0.76999998    2.82999992
   17.62888908  180.82299805    0.75000000    2.82999992
   17.63222313  184.62600708    0.75000000    2.84999990
   17.63527679  144.26800537    0.75000000    2.82999992
   17.63861084  149.52799988    0.75000000    2.82999992
   17.64194489  175.83799744    0.70999998    2.82999992
   17.64500046  166.38299561    0.70999998    2.82999992
   17.64833260  172.39500427    0.70999998    2.82999992
   17.65166664  138.62699890    0.70999998    2.82999992
   17.65222168  147.95500183    0.70999998    2.82999992
   17.65805435  147.95500183    0.73000002    2.82999992
   17.66222191  150.12199402    0.75000000    2.82999992
   17.66527748  156.48599243    0.75000000    2.82999992
   17.66860962  140.03399658    0.76999998    2.82999992
   17.67194366  165.64399719    0.76999998    2.82999992
   17.67499924  153.97599792    0.75000000    2.80999994
   17.67833328  153.20799255    0.75000000    2.82999992
   17.68138885  144.83399963    0.75000000    2.82999992
   17.68472099  121.30699921    0.73000002    2.82999992
   17.68555450  114.19599915    0.73000002    2.82999992
   17.68833160  153.15800476    0.75000000    2.82999992
   17.69166565  149.51100159    0.73000002    2.82999992
   17.69499969  156.70300293    0.75000000    2.82999992
   17.70083427  156.70300293    0.76999998    2.82999992
   17.70499992  123.43900299    0.76999998    2.80999994
   17.70833397  144.87500000    0.76999998    2.80999994
   17.71138954  132.75500488    0.76999998    2.82999992
   17.71472359  131.93499756    0.75000000    2.82999992
   17.71777916  134.02099609    0.75000000    2.82999992
   17.71888924  142.43499756    0.75000000    2.82999992
   17.72138977  128.84300232    0.75000000    2.82999992
   17.72472191  138.20500183    0.75000000    2.82999992
   17.72805595  119.72499847    0.76999998    2.82999992
   17.73111153  131.63600159    0.76999998    2.82999992
   17.73444557  129.44599915    0.79000002    2.82999992
   17.73750114  128.47700500    0.79000002    2.82999992
   17.74361229  128.47700500    0.79000002    2.82999992
   17.74777794  123.38400269    0.79000002    2.82999992
   17.75111198  122.91799927    0.80000001    2.82999992
   17.75222206  121.18199921    0.80000001    2.82999992
   17.75444412  135.87100220    0.79000002    2.82999992
   17.75777817  121.00399780    0.80000001    2.80999994
   17.76111031  128.79699707    0.79000002    2.82999992
   17.76416588  122.23100281    0.79000002    2.82999992
   17.76749992  117.60399628    0.76999998    2.82999992
   17.77055550  119.55400085    0.76999998    2.82999992
   17.77388954  126.76699829    0.79000002    2.82999992
   17.77722168  124.49099731    0.76999998    2.82999992
   17.78027725  121.32299805    0.75000000    2.82999992
   17.78666687  121.32299805    0.73000002    2.82999992
   17.79055595  119.51399994    0.73000002    2.82999992
   17.79388809  115.16799927    0.75000000    2.82999992
   17.79722214  116.48999786    0.73000002    2.82999992
   17.80027771  119.91699982    0.73000002    2.82999992
   17.80360985  123.97200012    0.75000000    2.82999992
   17.80666542  126.50199890    0.73000002    2.82999992
   17.80999947  126.03900146    0.73000002    2.82999992
   17.81333351  121.65499878    0.73000002    2.82999992
   17.81638718  119.00700378    0.73000002    2.82999992
   17.81888962  118.60399628    0.70999998    2.82999992
   17.82000160  116.41400146    0.70999998    2.82999992
   17.82333374  118.73300171    0.73000002    2.82999992
   17.82944489  118.73300171    0.70999998    2.80999994
   17.83361244  114.73999786    0.73000002    2.82999992
   17.83666801  115.14499664    0.75000000    2.82999992
   17.84000015  119.14399719    0.76999998    2.82999992
   17.84305573  124.18900299    0.76999998    2.82999992
   17.84638977  121.81999969    0.76999998    2.82999992
   17.84972191  112.88800049    0.76999998    2.82999992
   17.85222244  111.36699677    0.76999998    2.82999992
   17.85305595  114.20500183    0.76999998    2.82999992
   17.85639000  115.76499939    0.75000000    2.82999992
   17.85972214  116.01399994    0.75000000    2.82999992
   17.86277771  120.18900299    0.79000002    2.82999992
   17.86611176  122.71700287    0.79000002    2.82999992
   17.87222290  122.71700287    0.83999997    2.80999994
   17.87638855  122.74299622    0.83999997    2.82999992
   17.87944412  116.51300049    0.81999999    2.82999992
   17.88277817  117.09400177    0.81999999    2.82999992
   17.88555527  125.14299774    0.81999999    2.82999992
   17.88638878  120.63800049    0.81999999    2.82999992
   17.88972282  117.18199921    0.81999999    2.82999992
   17.89305496  125.80699921    0.81999999    2.82999992
   17.89611053  119.65599823    0.81999999    2.82999992
   17.89944458  115.75299835    0.83999997    2.82999992
   17.90277672  109.60800171    0.83999997    2.82999992
   17.90583229  115.93599701    0.86000001    2.82999992
   17.90916634  103.47899628    0.86000001    2.82999992
   17.91499901  103.47899628    0.86000001    2.82999992
   17.91916656  110.22499847    0.88000000    2.82999992
   17.92249870  117.89800262    0.88000000    2.82999992
   17.92555428  121.00599670    0.92000002    2.80999994
   17.92888832  126.01999664    0.92000002    2.82999992
   17.93222237  119.62699890    0.92000002    2.82999992
   17.93527603  116.79499817    0.92000002    2.82999992
   17.93861008  117.72399902    0.89999998    2.82999992
   17.94194412  129.24299622    0.89999998    2.82999992
   17.94499969  112.71499634    0.89999998    2.82999992
   17.94833183  112.42600250    0.89999998    2.82999992
   17.95138931  118.02899933    0.92000002    2.82999992
   17.95222282  109.27300262    0.92000002    2.82999992
   17.95805550  109.27300262    0.94000000    2.80999994
   17.96194458  113.32800293    0.92000002    2.80999994
   17.96527863  121.04000092    0.92000002    2.82999992
   17.96861076  117.09899902    0.89999998    2.82999992
   17.97166634  112.36699677    0.89999998    2.82999992
   17.97500038  113.45200348    0.88000000    2.80999994
   17.97805595  112.24299622    0.86000001    2.82999992
   17.98139000  111.97499847    0.86000001    2.82999992
   17.98472214  118.90799713    0.86000001    2.82999992
   17.98555565  113.43599701    0.86000001    2.82999992
   17.98805618  112.64700317    0.86000001    2.82999992
   17.99138832  111.11199951    0.88000000    2.82999992
   17.99472237  116.92500305    0.88000000    2.80999994
   18.00083351  116.92500305    0.88000000    2.82999992
   18.00499916  117.41999817    0.86000001    2.82999992
   18.00805473  113.23100281    0.88000000    2.82999992
   18.01138878  117.86399841    0.86000001    2.82999992
   18.01444435  122.34999847    0.86000001    2.82999992
   18.01777840  119.88999939    0.83999997    2.82999992
   18.01888847  119.49199677    0.83999997    2.80999994
   18.02138901  109.32399750    0.83999997    2.80999994
   18.02472115  115.59899902    0.80000001    2.82999992
   18.02805519  114.86799622    0.79000002    2.82999992
   18.03111076  123.52500153    0.80000001    2.82999992
   18.03444481  121.45400238    0.81999999    2.80999994
   18.03777695  116.33200073    0.81999999    2.80999994
   18.04361153  116.33200073    0.86000001    2.80999994
   18.04777718  116.08799744    0.89999998    2.80999994
   18.05083275  112.14800262    0.89999998    2.82999992
   18.05222130  117.45500183    0.89999998    2.82999992
   18.05444336  115.02500153    0.92000002    2.80999994
   18.05777740  119.30100250    0.94000000    2.82999992
   18.06110954  115.41899872    0.94000000    2.80999994
   18.06416512  115.16000366    0.94000000    2.82999992
   18.06750107  117.32099915    0.89999998    2.82999992
   18.07083511  119.10700226    0.89999998    2.80999994
   18.07389069  120.05999756    0.88000000    2.80999994
   18.07722282  117.53199768    0.88000000    2.82999992
   18.08027840  109.05999756    0.88000000    2.80999994
   18.08638954  109.05999756    0.88000000    2.80999994
   18.09055710  115.45400238    0.89999998    2.82999992
   18.09388924  116.91699982    0.89999998    2.82999992
   18.09694481  113.54100037    0.89999998    2.80999994
   18.10027885  110.66100311    0.89999998    2.82999992
   18.10361099  106.75299835    0.88000000    2.82999992
   18.10666656  112.08200073    0.88000000    2.82999992
   18.11000061  112.15200043    0.88000000    2.82999992
   18.11305618  110.88200378    0.88000000    2.82999992
   18.11638832  113.07499695    0.88000000    2.82999992
   18.11888885  115.93299866    0.88000000    2.82999992
   18.12027740  112.16999817    0.88000000    2.82999992
   18.12333298  117.88500214    0.86000001    2.82999992
   18.12916756  117.88500214    0.83999997    2.80999994
   18.13333321  113.66999817    0.86000001    2.82999992
   18.13666725  116.18099976    0.86000001    2.82999992
   18.13999939  114.22599792    0.88000000    2.82999992
   18.14305496  113.11199951    0.86000001    2.80999994
   18.14638901  115.18900299    0.86000001    2.82999992
   18.14944458  114.35800171    0.83999997    2.82999992
   18.15222168  102.99199677    0.83999997    2.82999992
   18.15333366  105.46800232    0.83999997    2.80999994
   18.15638924  115.99800110    0.83999997    2.82999992
   18.15972137  114.28099823    0.83999997    2.82999992
   18.16277695  113.00000000    0.83999997    2.80999994
   18.16611099  110.48600006    0.83999997    2.82999992
   18.17222214  110.48600006    0.86000001    2.82999992
   18.17638779  109.52799988    0.88000000    2.82999992
   18.17944336  115.11900330    0.88000000    2.82999992
   18.18277740  110.82199860    0.86000001    2.80999994
   18.18555450  121.04000092    0.86000001    2.82999992
   18.18638802  111.66699982    0.86000001    2.82999992
   18.18944359  110.70400238    0.83999997    2.82999992
   18.19277763  109.23899841    0.83999997    2.82999992
   18.19583321  102.02600098    0.83999997    2.80999994
   18.19916534  110.37400055    0.83999997    2.84999990
   18.20250130  111.11599731    0.83999997    2.82999992
   18.20555687  115.14900208    0.86000001    2.82999992
   18.20888901  113.76499939    0.79000002    0.19000000
   18.21500015  113.76499939    0.75000000    2.82999992
   18.21916771  137.94700623    0.73000002    2.82999992
   18.22249985  145.53199768    0.73000002    2.80999994
   18.22555542  181.68800354    0.75000000    2.80999994
   18.22888947  235.40499878    0.75000000    2.82999992
   18.23194504  285.17199707    0.76999998    2.82999992
   18.23527718  264.54598999    0.75000000    2.82999992
   18.23861122  285.88699341    0.73000002    2.82999992
   18.24166679  258.48999023    0.75000000    2.82999992
   18.24500084  259.33999634    0.76999998    2.80999994
   18.24833298  293.95800781    0.79000002    2.82999992
   18.25138855  290.13101196    0.79000002    2.80999994
   18.25222206  246.85800171    0.79000002    2.80999994
   18.25777817  246.85800171    0.79000002    2.82999992
   18.26222229  214.76600647    0.79000002    2.82999992
   18.26527786  224.09399414    0.80000001    2.80999994
   18.26861000  202.80700684    0.80000001    2.82999992
   18.27194405  219.89799500    0.79000002    2.82999992
   18.27499962  186.95700073    0.76999998    2.82999992
   18.27833366  161.57000732    0.73000002    2.82999992
   18.28138924  150.03999329    0.75000000    2.82999992
   18.28472137  162.86900330    0.75000000    2.82999992
   18.28555489  144.28900146    0.75000000    2.82999992
   18.28861046  137.16000366    0.75000000    2.82999992
   18.29166603  149.46000671    0.75000000    2.82999992
   18.29500008  163.95700073    0.73000002    2.82999992
   18.30055428  163.95700073    0.75000000    2.80999994
   18.30472183  116.02999878    0.75000000    2.82999992
   18.30805397  146.09199524    0.76999998    2.80999994
   18.31138802  136.29299927    0.79000002    2.82999992
   18.31444359  120.66000366    0.76999998    2.82999992
   18.31777954  127.73000336    0.79000002    2.80999994
   18.31888962  118.16699982    0.79000002    2.80999994
   18.32139015  128.66299438    0.79000002    2.80999994
   18.32444572  108.60600281    0.79000002    2.80999994
   18.32777786  115.93199921    0.76999998    2.82999992
   18.33083344  113.94899750    0.79000002    2.82999992
   18.33416748  112.22100067    0.79000002    2.82999992
   18.33750153  119.53600311    0.80000001    2.80999994
   18.34361267  119.53600311    0.80000001    2.82999992
   18.34777832  105.24600220    0.80000001    2.80999994
   18.35083389  107.41400146    0.79000002    2.80999994
   18.35222244  106.23600006    0.79000002    2.82999992
   18.35472298  109.14499664    0.79000002    2.82999992
   18.35777855  110.66999817    0.79000002    2.80999994
   18.36111069  114.16999817    0.79000002    2.82999992
   18.36416626  102.55899811    0.76999998    2.82999992
   18.36750031  114.04499817    0.76999998    2.82999992
   18.37083435  104.93000031    0.76999998    2.82999992
   18.37388992  112.35800171    0.75000000    2.82999992
   18.37722206  108.71800232    0.73000002    2.82999992
   18.38055611  113.66200256    0.73000002    2.82999992
   18.38638878  113.66200256    0.70999998    2.80999994
   18.39055634  118.85199738    0.75000000    2.82999992
   18.39361191  109.63700104    0.76999998    2.80999994
   18.39694405  117.37400055    0.76999998    2.82999992
   18.40027809  111.08699799    0.79000002    2.82999992
   18.40361023  122.74800110    0.79000002    2.80999994
   18.40666580  121.58599854    0.79000002    2.82999992
   18.40999985  119.90399933    0.79000002    2.82999992
   18.41333389  117.02700043    0.80000001    2.80999994
   18.41638756  105.72799683    0.79000002    2.80999994
   18.41888809  111.72699738    0.80000001    2.82999992
   18.43972206  111.72699738    0.94000000    2.80999994
   18.44361115  117.38400269    0.94000000    2.80999994
   18.44694328  112.08499908    0.94000000    2.80999994
   18.45027924  108.33399963    0.94000000    2.80999994
   18.45222282  110.01100159    0.94000000    2.80999994
   18.45388985  116.95899963    0.94000000    2.80999994
   18.46000099  115.23799896    0.92000002    2.82999992
   18.46333504  114.84899902    0.94000000    2.80999994
   18.46638870  116.38600159    0.95999998    2.80999994
   18.46972275  114.14800262    0.95999998    2.80999994
   18.47277832  113.26399994    0.95999998    2.80999994
   18.47611237  108.38800049    0.95999998    2.80999994
   18.48250008  108.38800049    0.94000000    2.78999996
   18.48638916  116.12200165    0.94000000    2.80999994
   18.48972321  118.43699646    0.94000000    2.80999994
   18.49305534  110.25800323    0.94000000    2.82999992
   18.49611092  109.23300171    0.94000000    2.80999994
   18.49944496  117.94999695    0.95999998    2.80999994
   18.50277710  108.98799896    0.95999998    2.80999994
   18.50583267  110.73600006    0.95999998    2.78999996
   18.50916672  119.43099976    0.95999998    2.80999994
   18.51222229  106.13700104    0.94000000    2.80999994
   18.51555634  111.22399902    0.94000000    2.82999992
   18.51888847  111.48600006    0.94000000    2.80999994
   18.51944351  107.16400146    0.94000000    2.80999994
   18.52527809  107.16400146    0.95999998    2.80999994
   18.52944374  107.14900208    0.92000002    2.80999994
   18.53249931  102.95200348    0.92000002    2.80999994
   18.53583336  106.98500061    0.92000002    2.80999994
   18.53916550  110.83100128    0.92000002    2.80999994
   18.54222107  111.78800201    0.83999997    2.80999994
   18.54555511  103.80599976    0.83999997    2.80999994
   18.54888916  104.12200165    0.83999997    2.82999992
   18.55194283  103.09799957    0.83999997    2.82999992
   18.55277634  113.66600037    0.83999997    2.82999992
   18.55555534  105.27300262    0.81999999    2.80999994
   18.55888748  113.20099640    0.83999997    2.80999994
   18.56222153  114.01200104    0.83999997    2.80999994
   18.56805611  114.01200104    0.88000000    2.82999992
   18.57222366  106.59700012    0.88000000    2.80999994
   18.57527924  108.16300201    0.86000001    0.11000000
   18.57861137  106.46499634    0.86000001    2.80999994
   18.58194542  107.58399963    0.86000001    2.80999994
   18.58500099  106.52799988    0.86000001    2.80999994
   18.58611107  112.17600250    0.86000001    2.80999994
   18.58861160  103.56400299    0.86000001    2.78999996
   18.59194565  114.41000366    0.88000000    2.80999994
   18.59500122  110.18499756    0.86000001    2.78999996
   18.59833336  110.57499695    0.83999997    2.80999994
   18.60166740  109.71800232    0.83999997    2.80999994
   18.60499954  109.46900177    0.83999997    2.80999994
   18.61083412  109.46900177    0.81999999    2.80999994
   18.61499977  104.48300171    0.80000001    2.78999996
   18.61833382  106.06900024    0.81999999    2.78999996
   18.61944389  107.00800323    0.81999999    2.78999996
   18.62166595  106.47200012    0.81999999    2.80999994
   18.62500000  107.75599670    0.81999999    2.80999994
   18.62833405  105.76899719    0.83999997    2.80999994
   18.63138962   99.46659851    0.86000001    2.80999994
   18.63472176  106.33599854    0.86000001    2.80999994
   18.63777733  109.28700256    0.86000001    2.80999994
   18.64111137  109.72200012    0.98000002    2.80999994
   18.64444351  111.43599701    0.95999998    2.80999994
   18.64749908  108.59700012    0.92000002    2.80999994
   18.65361023  108.59700012    0.88000000    2.80999994
   18.65777779  103.21299744    0.86000001    2.82999992
   18.66110992  108.29499817    0.86000001    2.80999994
   18.66444397  107.60800171    0.86000001    2.82999992
   18.66749954  105.34799957    0.83999997    2.80999994
   18.67083359  102.73500061    0.83999997    2.80999994
   18.67416573  108.09700012    0.80000001    2.80999994
   18.67722130  102.29299927    0.80000001    2.82999992
   18.68055534  114.43699646    0.79000002    2.80999994
   18.68361092  106.46800232    0.79000002    2.80999994
   18.68610954  108.92500305    0.79000002    2.80999994
   18.68750000  108.81400299    0.79000002    2.80999994
   18.69055557  105.09700012    0.79000002    2.80999994
   18.69666672  105.09700012    0.80000001    2.80999994
   18.70083427  105.48999786    0.80000001    2.78999996
   18.70416832  107.10600281    0.81999999    2.80999994
   18.70722389  106.93099976    0.83999997    2.80999994
   18.71055603  114.21399689    0.83999997    2.80999994
   18.71389008  108.62599945    0.83999997    2.78999996
   18.71694565  109.65599823    0.86000001    2.80999994
   18.71944427  109.36100006    0.86000001    2.80999994
   18.72055626  103.69100189    0.86000001    2.78999996
   18.72389030  111.22599792    0.89999998    2.80999994
   18.72722244  118.18399811    0.89999998    2.78999996
   18.73027802  106.54499817    0.92000002    2.78999996
   18.73388863  104.20999908    0.92000002    2.80999994
   18.73944473  104.20999908    0.89999998    2.80999994
   18.74361229  101.92299652    0.88000000    2.78999996
   18.74666786   96.62210083    0.86000001    2.80999994
   18.75000000  102.75499725    0.83999997    2.78999996
   18.75277710  102.63099670    0.86000001    2.82999992
   18.75388908  100.74900055    0.86000001    2.82999992
   18.75694466   -1.00000000    0.88000000    2.80999994
   18.76027870   -1.00000000    0.88000000    2.80999994
   18.76333427   -1.00000000    0.89999998    2.80999994
   18.76666641   -1.00000000    0.89999998    2.78999996
   18.76972198   -1.00000000    0.92000002    2.80999994
   18.77305603   -1.00000000    1.01999998    2.78999996
   18.77638817   -1.00000000    0.94000000    2.80999994
   18.78638840   -1.00000000    0.94000000    2.78999996
   18.78972244   -1.00000000    0.94000000    2.78999996
   18.79277802   -1.00000000    0.95999998    2.80999994
   18.79611015   -1.00000000    1.21000004    2.78999996
   18.79944420   -1.00000000    1.21000004    2.80999994
   18.80249977   -1.00000000    1.25000000    2.78999996
   18.80583191   -1.00000000    1.34000003    2.78999996
   18.80888748   -1.00000000    1.60000002    2.80999994
   18.81222153   -1.00000000    1.61000001    2.80999994
   18.81555557   -1.00000000    1.64999998    2.80999994
   18.81861115   -1.00000000    1.75000000    2.80999994
   18.82916832   -1.00000000    1.50000000    2.78999996
   18.83222389   -1.00000000    1.58000004    2.78999996
   18.83555603   -1.00000000    1.85000002    2.78999996
   18.83889008   -1.00000000    2.57999992    2.78999996
   18.84194565   -1.00000000    3.95000005    2.76999998
   18.84527779   -1.00000000    3.61999989    2.76999998
   18.84833336   -1.00000000    4.03999996    2.78999996
   18.85166740   -1.00000000    3.80999994    2.75000000
   18.85499954   -1.00000000    2.48000002    2.76999998
   18.85833359   -1.00000000    2.36999989    2.78999996
   18.86138916   -1.00000000    1.94000006    2.78999996
   18.87194443   -1.00000000    2.13000011    2.75000000
   18.87527847   -1.00000000    2.00000000    2.78999996
   18.87833405   -1.00000000    1.41999996    2.78999996
