    HOUR (UT)   FLARE FACTOR    SKY TESTER    SUN TESTER
   12.03694534   -1.00000000   -1.00000000   -1.00000000
   12.07416630  234.02299500    4.90999985    1.50000000
   12.07722187  337.52700806    4.90999985    1.51999998
   12.08055592  254.89700317    4.90999985    1.51999998
   12.08444405  259.24899292    4.90999985    1.53999996
   12.08916664  246.72300720    4.90999985    1.53999996
   12.09222221  251.67199707    4.90999985    1.53999996
   12.09555531  395.30999756    4.90999985    1.53999996
   12.09749985  326.64999390    4.90999985    1.53999996
   12.09888840  258.73999023    4.90999985    1.53999996
   12.10027790  361.92401123    4.90999985    1.53999996
   12.10166740  296.57299805    4.90999985    1.53999996
   12.10305595  358.35198975    4.90999985    1.53999996
   12.10444450  297.68899536    4.90999985    1.53999996
   12.10583401  357.32598877    4.90999985    1.53999996
   12.10722256  276.23400879    4.90999985    1.55999994
   12.10861111  270.22500610    4.90999985    1.53999996
   12.11000061  334.55999756    4.90999985    1.55999994
   12.11138916  261.96301270    4.90999985    1.55999994
   12.11277771  319.27301025    4.90999985    1.55999994
   12.11416721  262.21899414    4.90999985    1.55999994
   12.11555576  239.56199646    4.90999985    1.55999994
   12.11555576  337.52700806    4.90999985    1.51999998
   12.11583328  254.89700317    4.90999985    1.51999998
   12.11583328  259.24899292    4.90999985    1.53999996
   12.11583328  246.72300720    4.90999985    1.53999996
   12.11611176  251.67199707    4.90999985    1.53999996
   12.11611176  395.30999756    4.90999985    1.53999996
   12.11666679  246.17300415    4.90999985    1.55999994
   12.11999989  309.88598633    4.90999985    1.55999994
   12.12194443  292.67098999    4.90999985    1.55999994
   12.12333393  260.07199097    4.90999985    1.58000004
   12.12472248  296.84298706    4.90999985    1.58000004
   12.12611103  293.32299805    4.90999985    1.58000004
   12.12750053  326.53298950    4.90999985    1.58000004
   12.12888908  310.14401245    4.90999985    1.58000004
   12.13027763  281.90701294    4.90999985    1.58000004
   12.13166714  302.56900024    4.90999985    1.58000004
   12.13305569  280.86300659    4.90999985    1.60000002
   12.13444424  271.75900269    4.90999985    1.58000004
   12.13583279  355.71798706    4.90999985    1.58000004
   12.13722229  277.73699951    4.90999985    1.60000002
   12.13861084  283.66101074    4.90999985    1.60000002
   12.14000034  199.92199707    4.90999985    1.60000002
   12.14000034  246.17300415    4.90999985    1.55999994
   12.14000034  309.88598633    4.90999985    1.55999994
   12.14055538  232.53599548    4.90999985    1.60000002
   12.14388847  214.37800598    4.90999985    1.60000002
   12.14722252  264.94699097    4.90999985    1.60000002
   12.15027714  232.44200134    4.90999985    1.61000001
   12.15361118  231.53300476    4.90999985    1.61000001
   12.15666676  274.08099365    4.90999985    1.61000001
   12.16083336  274.08099365    4.90999985    1.61000001
   12.16499996  211.76600647    4.90999985    1.63000000
   12.16833401  213.98100281    4.90999985    1.63000000
   12.17138958  182.30700684    4.90999985    1.63000000
   12.17388916  172.88999939    4.90999985    1.63000000
   12.17500019  241.53100586    4.90999985    1.63000000
   12.17833328  222.29200745    4.90999985    1.63000000
   12.18138885  208.89300537    4.90999985    1.63000000
   12.18472195  222.83799744    4.90999985    1.63000000
   12.18805599  135.30999756    4.90999985    1.63000000
   12.19111156  163.99600220    4.90999985    1.64999998
   12.19444466  183.78100586    4.90999985    1.64999998
   12.19777775  191.51600647    4.90999985    1.64999998
   12.20388889  191.51600647    4.90999985    1.64999998
   12.20777798  140.91499329    4.90999985    1.64999998
   12.21111107  138.88699341    4.90999985    1.66999996
   12.21444416  175.61000061    4.90999985    1.66999996
   12.21749973  185.51499939    4.90999985    1.66999996
   12.22083282  216.80999756    4.90999985    1.66999996
   12.22416592  183.91200256    4.90999985    1.66999996
   12.22722149  183.10400391    4.90999985    1.66999996
   12.23055553  146.16700745    4.90999985    1.66999996
   12.23388958  183.82000732    4.90999985    1.66999996
   12.23694515  179.62600708    4.90999985    1.69000006
   12.24027824  155.19999695    4.90999985    1.69000006
   12.24083328  182.09399414    4.90999985    1.69000006
   12.24666691  182.09399414    4.90999985    1.69000006
   12.25083351  184.17100525    4.90999985    1.69000006
   12.25388908  143.74800110    4.90999985    1.69000006
   12.25722218  150.02299500    4.90999985    1.69000006
   12.26055527  154.10400391    4.90999985    1.71000004
   12.26361084  192.28900146    4.90999985    1.71000004
   12.26694393  147.15400696    4.90999985    1.71000004
   12.26999950  161.48500061    4.90999985    1.71000004
   12.27333355  175.57200623    4.90999985    1.71000004
   12.27416611  176.37300110    4.90999985    1.71000004
   12.27722168  161.19299316    4.90999985    1.71000004
   12.28027725  142.25300598    4.90999985    1.71000004
   12.28361130  131.21400452    4.90999985    1.71000004
   12.28944492  131.21400452    4.90999985    1.73000002
   12.29361153  145.02900696    4.90999985    1.73000002
   12.29694462  145.30400085    4.90999985    1.73000002
   12.30000019  136.71000671    4.90999985    1.73000002
   12.30333328  138.22900391    4.90999985    1.75000000
   12.30638885  170.86900330    4.90999985    1.75000000
   12.30749989  155.16200256    4.90999985    1.75000000
   12.31000042  147.23699951    4.90999985    1.75000000
   12.31333351  187.64199829    4.90999985    1.75000000
   12.31666660  156.25999451    4.90999985    1.75000000
   12.31972218  139.36700439    4.90999985    1.75000000
   12.32305527  131.61300659    4.90999985    1.76999998
   12.32638836  134.79699707    4.90999985    1.76999998
   12.33222198  134.79699707    4.90999985    1.76999998
   12.33638859  153.53700256    4.90999985    1.76999998
   12.33972168  155.92799377    4.90999985    1.76999998
   12.34083271  127.07499695    4.90999985    1.76999998
   12.34333324  146.54100037    4.90999985    1.78999996
   12.34638882  145.49400330    4.90999985    1.78999996
   12.34972191  143.05400085    4.90999985    1.76999998
   12.35277843  139.29600525    4.90999985    1.78999996
   12.35611153  162.18600464    4.90999985    1.78999996
   12.35944462  130.38900757    4.90999985    1.78999996
   12.36250019  163.26899719    4.90999985    1.78999996
   12.36583328  142.46499634    4.90999985    1.78999996
   12.36916637  132.66600037    4.90999985    1.78999996
   12.37527752  132.66600037    4.90999985    1.80999994
   12.37916660  151.22700500    4.90999985    1.80999994
   12.38249969  165.41700745    4.90999985    1.80999994
   12.38583279  162.60200500    4.90999985    1.80999994
   12.38888836  153.75500488    4.90999985    1.80999994
   12.39222240  145.75000000    4.90999985    1.83000004
   12.39555550  151.71299744    4.90999985    1.83000004
   12.39861107  145.38800049    4.90999985    1.83000004
   12.40194416  130.69500732    4.90999985    1.83000004
   12.40527725  122.92400360    4.90999985    1.83000004
   12.40749931  114.63999939    4.90999985    1.85000002
   12.40888882  139.61300659    4.90999985    1.85000002
   12.41194439  140.88600159    4.90999985    1.85000002
   12.41805553  140.88600159    4.90999985    1.85000002
   12.42222214  129.58999634    4.90999985    1.85000002
   12.42527771  146.42500305    4.90999985    1.85000002
   12.42861176  162.45199585    4.90999985    1.85000002
   12.43194485  125.80699921    4.90999985    1.85000002
   12.43500042  114.59700012    4.90999985    1.86000001
   12.43833351  149.50000000    4.90999985    1.86000001
   12.44083309  145.96899414    4.90999985    1.86000001
   12.44194412  123.34100342    4.90999985    1.86000001
   12.44499969  126.76499939    4.90999985    1.86000001
   12.44833374  120.89800262    4.90999985    1.88000000
   12.45138836  125.25499725    4.90999985    1.86000001
   12.45472240  134.86000061    4.90999985    1.86000001
   12.46083355  134.86000061    4.90999985    1.88000000
   12.46500015  134.91400146    4.90999985    1.88000000
   12.46833324  131.96699524    4.90999985    1.88000000
   12.47138882  134.16200256    4.90999985    1.88000000
   12.47416592  128.49400330    4.90999985    1.88000000
   12.47527695  140.89100647    4.90999985    1.88000000
   12.47833252  139.88299561    4.90999985    1.89999998
   12.48166656  128.20899963    4.90999985    1.89999998
   12.48472214  151.64999390    4.90999985    1.89999998
   12.48805618  137.70799255    4.90999985    1.89999998
   12.49138927  161.18299866    4.90999985    1.88000000
   12.49444485  150.21499634    4.90999985    1.89999998
   12.49777794  163.80099487    4.90999985    1.89999998
   12.50361156  163.80099487    4.90999985    1.89999998
   12.50777817  131.94200134    4.90999985    1.89999998
   12.51111126  130.80700684    4.90999985    1.89999998
   12.51416683  155.68699646    4.90999985    1.91999996
   12.51749992  155.64199829    4.90999985    1.91999996
   12.52083302  151.51300049    4.90999985    1.91999996
   12.52388859  155.60600281    4.90999985    1.91999996
   12.52722168  158.18699646    4.90999985    1.91999996
   12.53027725  153.11399841    4.90999985    1.91999996
   12.53361130  134.83099365    4.90999985    1.91999996
   12.53694534  125.73000336    4.90999985    1.91999996
   12.54000092  145.79699707    4.90999985    1.91999996
   12.54083347  119.44499969    4.90999985    1.91999996
   12.54666710  119.44499969    4.90999985    1.94000006
   12.55055618  157.76400757    4.90999985    1.94000006
   12.55388927  150.89300537    4.90999985    1.94000006
   12.55722237  145.21099854    4.90999985    1.94000006
   12.56027794  139.53300476    4.90999985    1.94000006
   12.56361103  142.10800171    4.90999985    1.94000006
   12.56666660  129.60400391    4.90999985    1.94000006
   12.56999969  129.77799988    4.90999985    1.94000006
   12.57333374  117.06500244    4.90999985    1.94000006
   12.57416630  136.64500427    4.90999985    1.94000006
   12.57694435  144.23800659    4.90999985    1.94000006
   12.57999992  140.86000061    4.90999985    1.94000006
   12.58333302  153.55499268    4.90999985    1.94000006
   12.58944416  153.55499268    4.90999985    1.96000004
   12.59361076  157.35699463    4.90999985    1.96000004
   12.59666634  127.64399719    4.90999985    1.96000004
   12.60000038  127.55899811    4.90999985    1.96000004
   12.60305595  131.63900757    4.90999985    1.98000002
   12.60638905  147.24499512    4.90999985    1.96000004
   12.60750008  133.43899536    4.90999985    1.98000002
   12.61000061  148.00199890    4.90999985    1.96000004
   12.61305618  143.01100159    4.90999985    1.98000002
   12.61638927  140.07000732    4.90999985    1.98000002
   12.61972237  128.05400085    4.90999985    1.98000002
   12.62277794  133.82099915    4.90999985    1.98000002
   12.62611103  142.88499451    4.90999985    1.98000002
   12.63222218  142.88499451    4.90999985    1.98000002
   12.63638878  139.76499939    4.90999985    2.00000000
   12.63944435  127.20899963    4.90999985    2.00000000
   12.64083290  121.02700043    4.90999985    2.00000000
   12.64333344  127.48999786    4.90999985    1.98000002
   12.64666653  121.92400360    4.90999985    2.00000000
   12.64972210  135.68600464    4.90999985    2.00000000
   12.65305519  122.99099731    4.90999985    2.00000000
   12.65611076  125.94300079    4.90999985    2.00000000
   12.65944386  132.52200317    4.90999985    2.00000000
   12.66277695  128.14700317    4.90999985    2.00000000
   12.66583252  124.60700226    4.90999985    2.00000000
   12.66916656  121.70600128    4.90999985    2.00000000
   12.67500019  121.70600128    4.90999985    2.00000000
   12.67916679  133.85299683    4.90999985    2.00000000
   12.68249989  128.81100464    4.90999985    2.00000000
   12.68555546  127.85500336    4.90999985    2.00000000
   12.68888855  137.31199646    4.90999985    2.00000000
   12.69222260  121.37799835    4.90999985    2.00000000
   12.69527817  131.88000488    4.90999985    2.00000000
   12.69861126  152.97700500    4.90999985    2.00000000
   12.70166683  145.64500427    4.90999985    2.00000000
   12.70499992  130.20500183    4.90999985    2.00000000
   12.70749950  128.84399414    4.90999985    2.00000000
   12.70861053  114.73799896    4.90999985    2.00000000
   12.71166611  133.45500183    4.90999985    2.00000000
   12.71805477  133.45500183    4.90999985    2.01999998
   12.72194386  136.22700500    4.90999985    2.01999998
   12.72527695  145.35299683    4.90999985    2.01999998
   12.72861099  117.99700165    4.90999985    2.01999998
   12.73166656  132.47300720    4.90999985    2.01999998
   12.73500061  130.31300354    4.90999985    2.01999998
   12.73833370  150.31300354    4.90999985    2.01999998
   12.74083328  142.30799866    4.90999985    2.01999998
   12.74194431  151.19200134    4.90999985    2.01999998
   12.74499989  139.08000183    4.90999985    2.01999998
   12.74833393  136.40800476    4.90999985    2.01999998
   12.75166702  132.94099426    4.90999985    2.01999998
   12.75472260  126.01200104    4.90999985    2.01999998
   12.76083374  126.01200104    4.90999985    2.01999998
   12.76500034  124.83100128    4.90999985    2.03999996
   12.76805496  125.35399628    4.90999985    2.03999996
   12.77138901  120.93599701    4.90999985    2.03999996
   12.77416611  139.29299927    4.90999985    2.03999996
   12.77499962  136.63400269    4.90999985    2.03999996
   12.77805519  151.24000549    4.90999985    2.03999996
   12.78138828  138.28199768    4.90999985    2.03999996
   12.78472233  141.34100342    4.90999985    2.03999996
   12.78777790  133.66600037    4.90999985    2.03999996
   12.79111195  123.96600342    4.90999985    2.03999996
   12.79416752  136.31100464    4.90999985    2.03999996
   12.79750061  142.81500244    4.90999985    2.03999996
   12.80361176  142.81500244    4.90999985    2.05999994
   12.80777836  144.88699341    4.90999985    2.05999994
   12.81083393  114.40899658    4.90999985    2.05999994
   12.81416702  126.01799774    4.90999985    2.05999994
   12.81750011  132.10400391    4.90999985    2.05999994
   12.82055569  124.97699738    4.90999985    2.05999994
   12.82388878  120.11100006    4.90999985    2.05999994
   12.82722187  112.51300049    4.90999985    2.05999994
   12.83027744  122.70099640    4.90999985    2.05999994
   12.83361053  124.13300323    4.90999985    2.05999994
   12.83666611  123.76000214    4.90999985    2.05999994
   12.84000015  132.01400757    4.90999985    2.05999994
   12.84083271  126.15599823    4.90999985    2.07999992
   12.84638882  126.15599823    4.90999985    2.07999992
   12.85055637  145.34899902    4.90999985    2.07999992
   12.85388947  138.74400330    4.90999985    2.07999992
   12.85694504  136.33900452    4.90999985    2.07999992
   12.86027813  127.02400208    4.90999985    2.07999992
   12.86361122  122.91400146    4.90999985    2.07999992
   12.86666679  128.84700012    4.90999985    2.07999992
   12.86999989  119.34799957    4.90999985    2.07999992
   12.87305546  138.51499939    4.90999985    2.07999992
   12.87416649  123.09400177    4.90999985    2.07999992
   12.87694454  127.48300171    4.90999985    2.07999992
   12.88000011  139.26899719    4.90999985    2.07999992
   12.88333321  111.26499939    4.90999985    2.07999992
   12.88916683  111.26499939    4.90999985    2.07999992
   12.89333344  119.30999756    4.90999985    2.07999992
   12.89666653  105.42500305    4.90999985    2.07999992
   12.89999962  123.11599731    4.90999985    2.09999990
   12.90305519  127.65299988    4.90999985    2.09999990
   12.90638828  122.09100342    4.90999985    2.09999990
   12.90749931  122.54100037    4.90999985    2.09999990
   12.90999985  121.27200317    4.90999985    2.07999992
   12.91305542  128.23599243    4.90999985    2.09999990
   12.91638851  105.80100250    4.90999985    2.09999990
   12.91972256  108.19000244    4.90999985    2.09999990
   12.92277813  130.76400757    4.90999985    2.09999990
   12.92611122  134.28999329    4.90999985    2.09999990
   12.93222237  134.28999329    4.90999985    2.09999990
   12.93638897  104.56900024    4.90999985    2.09999990
   12.93944454  120.62899780    4.90999985    2.09999990
   12.94083309  110.15299988    4.90999985    2.09999990
   12.94305515  108.68399811    4.90999985    2.09999990
   12.94611073  124.09899902    4.90999985    2.09999990
   12.94944477  125.42700195    4.90999985    2.09999990
   12.95277786  113.71099854    4.90999985    2.09999990
   12.95583344  123.46700287    4.90999985    2.09999990
   12.95916653  117.24500275    4.90999985    2.09999990
   12.96222210  134.53100586    4.90999985    2.09999990
   12.96555519  121.18800354    4.90999985    2.09999990
   12.96861076  121.14399719    4.90999985    2.09999990
   12.97499943  121.14399719    4.90999985    2.11999989
   12.97916603  130.33099365    4.90999985    2.11999989
   12.98222160  128.59700012    4.90999985    2.11999989
   12.98555565  120.20700073    4.90999985    2.11999989
   12.98888874  125.01799774    4.90999985    2.11999989
   12.99194431  112.62899780    4.90999985    2.11999989
   12.99527836  112.85600281    4.90999985    2.11999989
   12.99833393  118.24500275    4.90999985    2.13000011
   13.00166702  112.26399994    4.90999985    2.11999989
   13.00472260  103.38099670    4.90999985    2.13000011
   13.00749969  100.69799805    4.88999987    2.11999989
   13.00861073  124.02899933    4.90999985    2.13000011
   13.01166630  112.47299957    4.88999987    2.13000011
   13.01777744  112.47299957    4.88999987    2.13000011
   13.02194405  100.00000000    4.88999987    2.13000011
   13.02527714  109.27200317    4.88999987    2.13000011
   13.02833271  106.66500092    4.88999987    2.15000010
   13.03166676  122.38999939    4.88999987    2.13000011
   13.03472233  115.70800018    4.90999985    2.13000011
   13.03805637  110.44100189    4.88999987    2.13000011
   13.04083347  112.55599976    4.88999987    2.15000010
   13.04166698  112.37300110    4.88999987    2.15000010
   13.04472256  116.24299622    4.90999985    2.15000010
   13.04805565  120.41100311    4.90999985    2.15000010
   13.05138874  116.14199829    4.88999987    2.15000010
   13.05444431  116.41500092    4.90999985    2.15000010
   13.06055546  116.41500092    4.90999985    2.15000010
   13.06472206  103.22200012    4.90999985    2.13000011
   13.06805515  126.51499939    4.90999985    2.15000010
   13.07111073  117.82800293    4.90999985    2.15000010
   13.07416630  124.94999695    4.90999985    2.13000011
   13.09111118  129.05799866    4.90999985    2.15000010
   13.09444427  116.99900055    4.90999985    2.15000010
   13.09777737  131.60499573    4.90999985    2.15000010
   13.10361195  131.60499573    4.88999987    2.15000010
   13.10777855  121.97399902    4.88999987    2.15000010
   13.11111164  122.05799866    4.88999987    2.17000008
   13.11416721  124.67800140    4.88999987    2.15000010
   13.11750031  123.01200104    4.88999987    2.15000010
   13.12055588  117.62000275    4.86999989    2.15000010
   13.12388897  120.51999664    4.86999989    2.15000010
   13.12722206  120.33799744    4.84999990    2.15000010
   13.13027763  115.99099731    4.82999992    2.15000010
   13.13361073  112.47000122    4.80999994    2.15000010
   13.13666630  138.96600342    4.80000019    2.17000008
   13.14000034  148.07899475    4.80000019    2.17000008
   13.14083290  140.36399841    4.78000021    2.17000008
   13.14638901  140.36399841    4.76000023    2.17000008
   13.15055561  141.04800415    4.76000023    2.17000008
   13.15388870  116.13999939    4.76000023    2.17000008
   13.15694427  126.66400146    4.76000023    2.17000008
   13.16027737  132.25000000    4.76000023    2.17000008
   13.16361046  135.86700439    4.71999979    2.17000008
   13.16666698  138.31199646    4.69999981    2.19000006
   13.17000008  125.72399902    4.69999981    2.17000008
   13.17305565  132.36700439    4.69999981    2.19000006
   13.17416668  131.73500061    4.67999983    2.19000006
   13.17694473  142.78199768    4.67999983    2.17000008
   13.18000031  127.89099884    4.65999985    2.17000008
   13.18333340  121.95700073    4.65999985    2.19000006
   13.18944454  121.95700073    4.65999985    2.19000006
   13.19333363  132.13200378    4.65999985    2.19000006
   13.19666672  113.37799835    4.63999987    2.19000006
   13.19999981  123.50499725    4.61999989    2.19000006
   13.20305538  117.02999878    4.59999990    2.21000004
   13.20638847  114.15799713    4.57999992    2.21000004
   13.20749950  127.88600159    4.57999992    2.21000004
   13.21000004  115.95500183    4.57999992    2.19000006
   13.21305561  135.98800659    4.57999992    2.21000004
   13.21638870  122.26599884    4.57999992    2.21000004
   13.21972179  146.78900146    4.55999994    2.21000004
   13.22277737  126.40200043    4.53999996    2.21000004
   13.22611046  126.08300018    4.53999996    2.21000004
   13.23222160  126.08300018    4.53999996    2.21000004
   13.23638916  138.12899780    4.55999994    2.21000004
   13.23944473  116.91799927    4.55999994    2.21000004
   13.24083328  122.46800232    4.55999994    2.21000004
   13.24305534  134.84300232    4.55999994    2.21000004
   13.24611092  137.33399963    4.55999994    2.21000004
   13.24944496  130.77900696    4.53999996    2.21000004
   13.25277805  129.24800110    4.55999994    2.23000002
   13.25583363  123.36799622    4.53999996    2.23000002
   13.25916672  126.88500214    4.53999996    2.23000002
   13.26249981  133.00000000    4.53999996    2.23000002
   13.26555538  120.79699707    4.53999996    2.21000004
   13.26888847  118.95300293    4.53999996    2.21000004
   13.27499962  118.95300293    4.53999996    2.21000004
   13.27916622  129.77900696    4.53999996    2.21000004
   13.28249931  124.26200104    4.53999996    2.23000002
   13.28555584  132.40800476    4.53999996    2.21000004
   13.28888893  130.76699829    4.53999996    2.21000004
   13.29194450  114.90100098    4.53999996    2.21000004
   13.29527855  129.15699768    4.53000021    2.23000002
   13.29833412  138.21600342    4.53000021    2.21000004
   13.30166721  151.10299683    4.53000021    2.23000002
   13.30500031  135.63400269    4.51000023    2.21000004
   13.30749989  137.16400146    4.51000023    2.23000002
   13.30861092  139.93400574    4.48999977    2.23000002
   13.31194496  132.47900391    4.48999977    2.23000002
   13.31777763  132.47900391    4.46999979    2.23000002
   13.32194424  129.12300110    4.44999981    2.23000002
   13.32527733  123.51599884    4.44999981    2.23000002
   13.32833290  127.38099670    4.42999983    2.25000000
   13.33166695  128.59700012    4.42999983    2.23000002
   13.33500004  128.82400513    4.40999985    2.25000000
   13.33805561  121.68199921    4.38999987    2.25000000
   13.34083271  103.94899750    4.36999989    2.25000000
   13.34166622  126.52200317    4.36999989    2.25000000
   13.34499931  120.34300232    4.34999990    2.25000000
   13.34805489  118.81900024    4.32999992    2.25000000
   13.35138893  131.75900269    4.32999992    2.25000000
   13.35444450  130.80599976    4.30999994    2.25000000
   13.36083412  130.80599976    4.30999994    2.25000000
   13.36472225  137.87100220    4.28999996    2.25000000
   13.36805534  131.02499390    4.30999994    2.25000000
   13.37138939  124.84700012    4.28999996    2.25000000
   13.37416649  121.51100159    4.28999996    2.26999998
   13.37500000  127.34600067    4.28999996    2.26999998
   13.37833309  126.04199982    4.26999998    2.25000000
   13.38138866  139.79699707    4.28999996    2.25000000
   13.38472176  125.87100220    4.26999998    2.25000000
   13.38777733  140.10899353    4.26000023    2.25000000
   13.39111137  131.85200500    4.26000023    2.26999998
   13.39444447  126.22000122    4.26000023    2.26999998
   13.39750004  115.84500122    4.23999977    2.25000000
   13.40361118  115.84500122    4.26000023    2.26999998
   13.40777779  119.98600006    4.26000023    2.26999998
   13.41083336  120.48600006    4.26999998    2.26999998
   13.41416645  128.88400269    4.26999998    2.26999998
   13.41722298  114.49500275    4.26999998    2.25000000
   13.42055607  129.54600525    4.28999996    2.26999998
   13.42388916  127.52400208    4.28999996    2.25000000
   13.42694473  138.95799255    4.28999996    2.26999998
   13.43027782  124.52799988    4.28999996    2.25000000
   13.43361092  122.25099945    4.28999996    2.26999998
   13.43666649  126.31099701    4.28999996    2.25000000
   13.44000053  119.21099854    4.28999996    2.25000000
   13.44083309  122.12899780    4.28999996    2.25000000
   13.44638920  122.12899780    4.28999996    2.25000000
   13.45055580  123.30400085    4.28999996    2.26999998
   13.45388889  116.26999664    4.28999996    2.26999998
   13.45694447  136.06599426    4.26999998    2.25000000
   13.46027756  124.09500122    4.26999998    2.26999998
   13.46333313  114.95899963    4.26000023    2.26999998
   13.46666622  131.55700684    4.26000023    2.28999996
   13.46972179  121.34200287    4.26000023    2.26999998
   13.47305489  119.71099854    4.23999977    2.28999996
   13.47416592  110.98799896    4.23999977    2.28999996
   13.47666645  120.72200012    4.23999977    2.26999998
   13.47999954  107.73500061    4.21999979    2.26999998
   13.48305511  138.94400024    4.21999979    2.28999996
   13.48916721  138.94400024    4.19999981    2.28999996
   13.49333382  125.68399811    4.19999981    2.28999996
   13.49666691  121.83699799    4.21999979    2.28999996
   13.49972248  117.83100128    4.21999979    2.28999996
   13.50305557  126.51499939    4.26000023    2.30999994
   13.50638866  119.61299896    4.26000023    2.30999994
   13.50749969  118.05400085    4.26000023    2.28999996
   13.51000023  106.95999908    4.23999977    2.30999994
   13.51333332  124.48600006    4.23999977    2.28999996
   13.51638889  129.53999329    4.21999979    2.28999996
   13.51972198  125.48300171    4.21999979    2.28999996
   13.52277756  124.79199982    4.21999979    2.30999994
   13.52611065  123.16400146    4.19999981    2.28999996
   13.53222179  123.16400146    4.17999983    2.28999996
   13.53638935  125.59100342    4.13999987    2.30999994
   13.53944492  115.75299835    4.11999989    2.30999994
   13.54083347  117.46199799    4.09999990    2.30999994
   13.54305553  132.22200012    4.09999990    2.28999996
   13.54638958  121.93800354    4.07999992    2.28999996
   13.54944515  118.07700348    4.05999994    2.30999994
   13.55277824  133.92599487    4.03999996    2.30999994
   13.55583382  122.19599915    4.01999998    2.30999994
   13.55916691  114.85399628    4.01999998    2.30999994
   13.56250000  114.53700256    4.00000000    2.30999994
   13.56555557  121.43199921    4.00000000    2.30999994
   13.56888866  111.07199860    3.99000001    2.32999992
   13.57499981  111.07199860    3.97000003    2.30999994
   13.57916641  127.16000366    3.95000005    2.32999992
   13.58222198   98.31469727    3.95000005    2.32999992
   13.58555508  121.98500061    3.95000005    2.32999992
   13.58888817  116.49700165    3.97000003    2.32999992
   13.59194374  119.48500061    3.97000003    2.32999992
   13.59527779  122.52200317    3.97000003    2.32999992
   13.59833336  116.73899841    3.99000001    2.32999992
   13.60166740  125.32499695    4.00000000    2.32999992
   13.60500050  142.06100464    4.01999998    2.32999992
   13.60777855  119.95899963    4.01999998    2.32999992
   13.60833359  139.28399658    4.01999998    2.30999994
   13.61166668  114.62799835    4.03999996    2.30999994
   13.61777782  114.62799835    4.07999992    2.30999994
   13.62194443  120.38600159    4.09999990    2.30999994
   13.62527752  129.91600037    4.11999989    2.30999994
   13.62833309  126.55500031    4.11999989    2.30999994
   13.63166714  127.78600311    4.13999987    2.30999994
   13.63472176  121.71399689    4.13999987    2.30999994
   13.63805580  123.21099854    4.13999987    2.30999994
   13.64111137  130.50999451    4.13999987    2.30999994
   13.64166641  141.25500488    4.13999987    2.30999994
   13.64499950  134.21600342    4.13999987    2.30999994
   13.64805508  126.01499939    4.15999985    2.30999994
   13.65138817  112.27799988    4.15999985    2.30999994
   13.65472221  110.98999786    4.17999983    2.30999994
   13.66055489  110.98999786    4.19999981    2.30999994
   13.66472149  133.78399658    4.17999983    2.30999994
   13.66805553  131.01899719    4.15999985    2.30999994
   13.67111111  123.38200378    4.15999985    2.30999994
   13.67444515  126.65100098    4.17999983    2.30999994
   13.67472267  126.12500000    4.17999983    2.30999994
   13.67805576  134.36099243    4.17999983    2.30999994
   13.68138885  124.49099731    4.17999983    2.30999994
   13.68444443  133.58900452    4.15999985    2.30999994
   13.68777752  117.92400360    4.15999985    2.30999994
   13.69083309  124.92700195    4.17999983    2.30999994
   13.69416714  138.30999756    4.17999983    2.30999994
   13.69722271  131.07899475    4.17999983    2.30999994
   13.70361137  131.07899475    4.17999983    2.30999994
   13.70777798  138.95500183    4.17999983    2.30999994
   13.71083355  119.31800079    4.19999981    2.28999996
   13.71416664  131.73699951    4.19999981    2.30999994
   13.71722221  123.31199646    4.19999981    2.30999994
   13.72055531  110.44999695    4.17999983    2.30999994
   13.72361088  131.75599670    4.17999983    2.30999994
   13.72694397  116.69200134    4.15999985    2.30999994
   13.73027706  125.45600128    4.15999985    2.30999994
   13.73333359  139.03300476    4.15999985    2.32999992
   13.73666668  134.67900085    4.13999987    2.32999992
   13.73972225  138.75500488    4.11999989    2.30999994
   13.74111176  127.47899628    4.09999990    2.32999992
   13.74638939  127.47899628    4.07999992    2.32999992
   13.75055599  109.15399933    4.05999994    2.32999992
   13.75361156  133.07400513    4.03999996    2.32999992
   13.75694466  131.86900330    4.01999998    2.34999990
   13.76027775  127.47200012    4.00000000    2.32999992
   13.76333332  121.69599915    3.97000003    2.32999992
   13.76666641  125.10500336    3.95000005    2.34999990
   13.76972198  112.53399658    3.95000005    2.34999990
   13.77305508  121.77200317    3.91000009    2.34999990
   13.77444458  111.96399689    3.91000009    2.34999990
   13.77666664  105.77500153    3.89000010    2.34999990
   13.77999973  123.88099670    3.86999989    2.34999990
   13.78305531  131.56199646    3.82999992    2.34999990
   13.78916740  131.56199646    3.80999994    2.36999989
   13.79333401  125.15699768    3.76999998    2.36999989
   13.79666710  126.27899933    3.76999998    2.36999989
   13.79972267  142.50500488    3.75000000    2.36999989
   13.80305576  127.86299896    3.75000000    2.36999989
   13.80611134  115.90000153    3.73000002    2.36999989
   13.80777836  124.25099945    3.73000002    2.34999990
   13.80972195  123.59200287    3.73000002    2.36999989
   13.81305599  117.56099701    3.73000002    2.36999989
   13.81611156  120.85900116    3.73000002    2.36999989
   13.81944466  141.58799744    3.75000000    2.39000010
   13.82277775  121.61699677    3.75000000    2.36999989
   13.82583332  127.18099976    3.76999998    2.36999989
   13.83222198  127.18099976    3.78999996    2.36999989
   13.83611107  140.04200745    3.78999996    2.36999989
   13.83944416  132.28900146    3.80999994    2.36999989
   13.84111118  118.72799683    3.80999994    2.36999989
   13.84305477  130.04100037    3.80999994    2.36999989
   13.84638882  137.63600159    3.82999992    2.36999989
   13.84944439  124.30599976    3.82999992    2.36999989
   13.85277843  122.94899750    3.82999992    2.36999989
   13.85611153  117.97599792    3.84999990    2.36999989
   13.85916710  134.57899475    3.86999989    2.36999989
   13.86250019  120.99500275    3.89000010    2.34999990
   13.86555576  124.73400116    3.91000009    2.34999990
   13.86888885  125.56600189    3.93000007    2.36999989
   13.87500000  125.56600189    3.95000005    2.34999990
   13.87916660  112.76799774    3.97000003    2.34999990
   13.88222218  123.84799957    3.97000003    2.34999990
   13.88555527  140.08000183    4.00000000    2.36999989
   13.88861084  112.58399963    4.00000000    2.34999990
   13.89194393  117.82199860    4.03999996    2.34999990
   13.89499950  115.29100037    4.03999996    2.34999990
   13.89833355  109.81600189    4.07999992    2.34999990
   13.90166664  111.54900360    4.09999990    2.34999990
   13.90472221  107.47899628    4.11999989    2.34999990
   13.90777779  126.40200043    4.11999989    2.34999990
   13.90833282  124.91699982    4.13999987    2.32999992
   13.91166592  113.59500122    4.13999987    2.34999990
   13.91777802  113.59500122    4.13999987    2.34999990
   13.92194462  123.64499664    4.13999987    2.34999990
   13.92527771  123.10800171    4.11999989    2.34999990
   13.92833328  129.60699463    4.11999989    2.34999990
   13.93166733  124.43499756    4.11999989    2.34999990
   13.93472195  136.27799988    4.09999990    2.34999990
   13.93805599  115.08300018    4.05999994    2.34999990
   13.94111156  123.60600281    4.05999994    2.34999990
   13.94166660  107.00900269    4.03999996    2.36999989
   13.94499969  126.03199768    4.03999996    2.34999990
   13.94805527  130.65899658    4.01999998    2.36999989
   13.95138836  129.35400391    4.01999998    2.36999989
   13.95472240  125.48500061    4.00000000    2.36999989
   13.96055508  125.48500061    3.97000003    2.36999989
   13.96472168  105.82900238    3.95000005    2.36999989
   13.96805477  131.50599670    3.95000005    2.36999989
   13.97111034  129.58299255    3.95000005    2.36999989
   13.97444439  123.42099762    3.93000007    2.36999989
   13.97472191  130.51400757    3.93000007    2.34999990
   13.97805500  126.98200226    3.93000007    2.36999989
   13.98111057  118.51699829    3.93000007    2.39000010
   13.98444462  126.52999878    3.93000007    2.36999989
   13.98777771  131.18400574    3.93000007    2.39000010
   13.99083328  122.66799927    3.93000007    2.39000010
   13.99416733  125.98500061    3.95000005    2.36999989
   13.99722290  127.96499634    3.95000005    2.36999989
   14.00361156  127.96499634    3.91000009    2.39000010
   14.00777817  118.74700165    3.91000009    2.39000010
   14.00805569  122.52899933    3.91000009    2.36999989
   14.01138878  118.05999756    3.91000009    2.39000010
   14.01444435  135.10299683    3.91000009    2.36999989
   14.01777744  118.41799927    3.93000007    2.36999989
   14.02111053  133.67799377    3.91000009    2.39000010
   14.02416611  130.06199646    3.91000009    2.39000010
   14.02750015  132.74400330    3.91000009    2.39000010
   14.03055573  126.34799957    3.89000010    2.39000010
   14.03388977  121.13700104    3.89000010    2.39000010
   14.03722286  136.52299500    3.89000010    2.39000010
   14.04027843  128.33599854    3.89000010    2.39000010
   14.04111195  119.97200012    3.89000010    2.39000010
   14.04638958  119.97200012    3.86999989    2.39000010
   14.05055618  133.04299927    3.86999989    2.39000010
   14.05361176  124.24700165    3.84999990    2.39000010
   14.05694485  127.46600342    3.84999990    2.39000010
   14.06000042  127.01000214    3.82999992    2.39000010
   14.06333351  134.10000610    3.80999994    2.39000010
   14.06666660  125.63700104    3.80999994    2.39000010
   14.06972218  126.34500122    3.78999996    2.39000010
   14.07305527  121.97499847    3.78999996    2.39000010
   14.07444477  130.63999939    3.78999996    2.39000010
   14.07666683  127.39399719    3.78999996    2.39000010
   14.07999992  119.58300018    3.78999996    2.39000010
   14.08333302  130.24800110    3.76999998    2.40000010
   14.08916664  130.24800110    3.76999998    2.39000010
   14.10861111  120.82700348    3.76999998    2.39000010
   14.11166668  114.83300018    3.76999998    2.39000010
   14.11500072  117.07099915    3.76999998    2.39000010
   14.11833382  127.76100159    3.76999998    2.39000010
   14.12138939  116.77899933    3.76999998    2.39000010
   14.12472248  118.45300293    3.76999998    2.40000010
   14.12777805  117.00099945    3.76999998    2.39000010
   14.13222218  117.00099945    3.78999996    2.39000010
   14.13638878  125.22100067    3.76999998    2.40000010
   14.13944435  114.43900299    3.78999996    2.40000010
   14.14166641  134.85200500    3.78999996    2.40000010
   14.14333344  121.33000183    3.78999996    2.40000010
   14.14638901  136.08200073    3.78999996    2.39000010
   14.14972210  132.06799316    3.80999994    2.40000010
   14.15277767  109.85399628    3.78999996    2.40000010
   14.15611076  136.58399963    3.78999996    2.40000010
   14.15944386  135.02999878    3.78999996    2.40000010
   14.16249943  140.38099670    3.78999996    2.40000010
   14.16583252  125.06099701    3.78999996    2.40000010
   14.16888905  132.99600220    3.76999998    2.39000010
   14.17500019  132.99600220    3.73000002    2.40000010
   14.17916679  129.26300049    3.73000002    2.40000010
   14.18249989  133.27299500    3.73000002    2.40000010
   14.18555546  129.36399841    3.73000002    2.40000010
   14.18888855  135.50700378    3.72000003    2.40000010
   14.19194412  117.32700348    3.73000002    2.40000010
   14.19527817  121.66400146    3.73000002    2.40000010
   14.19833374  118.05500031    3.73000002    2.40000010
   14.20166683  126.75399780    3.76999998    2.40000010
   14.20499992  120.35700226    3.76999998    2.40000010
   14.20805550  124.87799835    3.76999998    2.40000010
   14.20861053  121.98300171    3.76999998    2.40000010
   14.21194458  132.73100281    3.76999998    2.40000010
   14.21777725  132.73100281    3.76999998    2.40000010
   14.22194386  112.05300140    3.75000000    2.40000010
   14.22527695  121.74800110    3.73000002    2.40000010
   14.22833252  117.45899963    3.73000002    2.40000010
   14.23166656  134.04400635    3.73000002    2.40000010
   14.23472214  113.06800079    3.73000002    2.40000010
   14.23805618  127.04000092    3.73000002    2.40000010
   14.24138927  104.36499786    3.75000000    2.40000010
   14.24194431  105.93499756    3.75000000    2.40000010
   14.24499989  122.80000305    3.73000002    2.42000008
   14.24805546  110.06600189    3.73000002    2.40000010
   14.25138855  118.56999969    3.75000000    2.40000010
   14.25472260  121.15599823    3.75000000    2.40000010
   14.26083374  121.15599823    3.75000000    2.42000008
   14.26472187  123.76899719    3.75000000    2.40000010
   14.26805496  123.80300140    3.75000000    2.40000010
   14.27138901  121.08599854    3.76999998    2.40000010
   14.27444458  124.16300201    3.76999998    2.40000010
   14.27527714  129.09500122    3.76999998    2.40000010
   14.27805519  121.42299652    3.76999998    2.40000010
   14.28111076  123.06999969    3.76999998    2.40000010
   14.28444481  131.97700500    3.76999998    2.40000010
   14.28777790  129.38900757    3.75000000    2.40000010
   14.29083347  120.51499939    3.73000002    2.40000010
   14.29416752  121.24099731    3.73000002    2.40000010
   14.29722309  120.75599670    3.73000002    2.42000008
   14.30361176  120.75599670    3.72000003    2.40000010
   14.30777836  130.92799377    3.70000005    2.42000008
   14.30861092  118.98100281    3.70000005    2.40000010
   14.31138897  121.01899719    3.66000009    2.42000008
   14.31444454  121.34100342    3.66000009    2.42000008
   14.31777763  113.71199799    3.68000007    2.42000008
   14.32111073  128.73100281    3.64000010    2.42000008
   14.32416630  108.28299713    3.64000010    2.42000008
   14.32750034  121.68199921    3.61999989    2.42000008
   14.33055592  120.27300262    3.59999990    2.44000006
   14.33388901  110.41600037    3.59999990    2.42000008
   14.33722210  127.51000214    3.57999992    2.44000006
   14.34027767  134.26499939    3.57999992    2.44000006
   14.34194374  116.66999817    3.57999992    2.42000008
   14.34638882  116.66999817    3.59999990    2.44000006
   14.35055637  116.14099884    3.57999992    2.42000008
   14.35361195  135.05999756    3.57999992    2.44000006
   14.35694504  126.72000122    3.57999992    2.44000006
   14.36027813  115.77500153    3.59999990    2.44000006
   14.36333370  123.81099701    3.57999992    2.42000008
   14.36666679  122.67099762    3.55999994    2.44000006
   14.36999989  120.23200226    3.53999996    2.44000006
   14.37305546  135.27999878    3.51999998    2.44000006
   14.37527752  129.63699341    3.50000000    2.44000006
   14.37666702  117.16300201    3.50000000    2.44000006
   14.37972260  121.05699921    3.50000000    2.44000006
   14.38305569  130.96400452    3.48000002    2.44000006
   14.38916683  130.96400452    3.46000004    2.46000004
   14.39333344  130.99600220    3.43000007    2.44000006
   14.39666653  126.25399780    3.43000007    2.44000006
   14.39972210  126.12699890    3.43000007    2.44000006
   14.40305519  124.56600189    3.43000007    2.44000006
   14.40611076  133.10099792    3.41000009    2.44000006
   14.40861034  138.77299500    3.43000007    2.44000006
   14.40999985  128.61799622    3.43000007    2.44000006
   14.41305542  130.10099792    3.45000005    2.44000006
   14.41638851  121.40000153    3.48000002    2.44000006
   14.41972256  134.15800476    3.48000002    2.44000006
   14.42277813  119.95300293    3.48000002    2.44000006
   14.42611122  119.71499634    3.50000000    2.44000006
   14.43222237  119.71499634    3.50000000    2.44000006
   14.43611145  123.77200317    3.50000000    2.44000006
   14.43944454  125.64900208    3.48000002    2.44000006
   14.44194412  134.73500061    3.48000002    2.44000006
   14.44305515  120.78500366    3.48000002    2.44000006
   14.44638920  129.94900513    3.48000002    2.44000006
   14.44944477  115.88400269    3.46000004    2.44000006
   14.45277786  122.21600342    3.46000004    2.44000006
   14.45583344  133.27000427    3.45000005    2.44000006
   14.45916653  121.38600159    3.45000005    2.46000004
   14.46249962  115.38600159    3.43000007    2.46000004
   14.46555519  111.73400116    3.43000007    2.46000004
   14.46888828  117.53399658    3.41000009    2.46000004
   14.47499943  117.53399658    3.39000010    2.44000006
   14.47916603  121.65699768    3.36999989    2.46000004
   14.48222160  121.57900238    3.34999990    2.46000004
   14.48555565  135.42599487    3.34999990    2.46000004
   14.48861122  117.97299957    3.32999992    2.46000004
   14.49194431  112.36699677    3.32999992    2.46000004
   14.49527836  121.07599640    3.30999994    2.46000004
   14.49833393  129.53399658    3.30999994    2.46000004
   14.50166702  125.54900360    3.30999994    2.46000004
   14.50472260  129.42500305    3.32999992    2.46000004
   14.50805569  145.79899597    3.32999992    2.46000004
   14.51000023  124.44200134    3.32999992    2.46000004
   14.51166630  144.08399963    3.32999992    2.46000004
   14.51777744  144.08399963    3.32999992    2.46000004
   14.52194405  123.06199646    3.34999990    2.46000004
   14.52499962  140.63600159    3.36999989    2.46000004
   14.52833271  128.10000610    3.39000010    2.46000004
   14.53166676  144.03700256    3.39000010    2.46000004
   14.53472233  126.24500275    3.39000010    2.46000004
   14.53805637  144.04200745    3.39000010    2.46000004
   14.54111195  137.69299316    3.39000010    2.46000004
   14.54333401  138.73899841    3.39000010    2.48000002
   14.54500008  135.56100464    3.39000010    2.46000004
   14.54805565  126.58899689    3.39000010    2.46000004
   14.55138874  130.18800354    3.39000010    2.46000004
   14.55444431  113.41100311    3.36999989    2.46000004
   14.56055546  113.41100311    3.34999990    2.46000004
   14.56472206  125.11199951    3.36999989    2.46000004
   14.56805515  144.22799683    3.36999989    2.46000004
   14.57111073  120.86000061    3.34999990    2.46000004
   14.57444477  120.35900116    3.34999990    2.46000004
   14.57694435  124.71600342    3.32999992    2.46000004
   14.57805538  129.52200317    3.32999992    2.46000004
   14.58138847  129.47500610    3.32999992    2.48000002
   14.58472157  126.57299805    3.30999994    2.46000004
   14.58777714  121.39600372    3.28999996    2.48000002
   14.59111118  123.20200348    3.28999996    2.48000002
   14.59416676  127.85800171    3.25000000    2.48000002
   14.59749985  125.67800140    3.25000000    2.48000002
   14.60333347  125.67800140    3.23000002    2.48000002
   14.60750008  130.54400635    3.21000004    2.48000002
   14.61027813  127.01899719    3.21000004    2.48000002
   14.61111164  131.66000366    3.20000005    2.48000002
   14.61444473  124.80100250    3.20000005    2.48000002
   14.61777782  126.11299896    3.18000007    2.48000002
   14.62083340  121.53900146    3.16000009    2.48000002
   14.62416649  131.55000305    3.14000010    2.48000002
   14.62722206  118.43599701    3.11999989    2.48000002
   14.63055611  125.66899872    3.11999989    2.48000002
   14.63361073  127.89199829    3.11999989    2.50000000
   14.63694477  138.17300415    3.14000010    2.50000000
   14.64027786  120.34100342    3.16000009    2.50000000
   14.64638901  120.34100342    3.16000009    2.48000002
   14.65055561  118.55599976    3.16000009    2.50000000
   14.65361118  133.11900330    3.14000010    2.48000002
   14.65694427  119.57700348    3.14000010    2.50000000
   14.65999985  126.58899689    3.14000010    2.48000002
   14.66333294  125.98699951    3.11999989    2.50000000
   14.66666698  110.56099701    3.11999989    2.48000002
   14.66972256  121.50599670    3.11999989    2.48000002
   14.67305565  109.80000305    3.14000010    2.50000000
   14.67611122  117.39199829    3.14000010    2.48000002
   14.67722225  131.40899658    3.11999989    2.48000002
   14.68000031  128.71099854    3.14000010    2.50000000
   14.68305588  117.55400085    3.14000010    2.50000000
   14.68916702  117.55400085    3.14000010    2.48000002
   14.69333363  125.24700165    3.16000009    2.48000002
   14.69666672  132.08700562    3.16000009    2.48000002
   14.69972229  112.63899994    3.16000009    2.50000000
   14.70305538  132.51600647    3.18000007    2.48000002
   14.70611095  120.54699707    3.20000005    2.48000002
   14.70944405  129.32600403    3.18000007    2.50000000
   14.71055508  123.57900238    3.18000007    2.50000000
   14.71305561  117.17700195    3.18000007    2.50000000
   14.71611118  120.30799866    3.16000009    2.50000000
   14.71944427  118.65299988    3.18000007    2.48000002
   14.72249985  119.10399628    3.18000007    2.50000000
   14.72583294  111.70099640    3.16000009    2.48000002
   14.73194408  111.70099640    3.16000009    2.48000002
   14.73611164  109.11199951    3.16000009    2.48000002
   14.73944473  112.37999725    3.11999989    2.50000000
   14.74250031  115.47899628    3.11999989    2.50000000
   14.74416733  120.75900269    3.09999990    2.50000000
   14.74611092  120.13800049    3.09999990    2.50000000
   14.74944496  115.22499847    3.07999992    2.50000000
   14.75277805  119.04399872    3.07999992    2.50000000
   14.75583363  110.16699982    3.09999990    2.50000000
   14.75916672  120.66899872    3.07999992    2.50000000
   14.76222229  109.95600128    3.09999990    2.50000000
   14.76555538  116.02799988    3.11999989    2.50000000
   14.76888847  118.01799774    3.11999989    2.50000000
   14.77499962  118.01799774    3.09999990    2.50000000
   14.77888870  121.56199646    3.07999992    2.50000000
   14.78222179  113.64600372    3.05999994    2.50000000
   14.78555584  120.20500183    3.05999994    2.51999998
   14.78861141  117.12000275    3.05999994    2.50000000
   14.79194450  108.51699829    3.07999992    2.50000000
   14.79500008  117.16899872    3.09999990    2.50000000
   14.79833412  129.17599487    3.14000010    2.50000000
   14.80138874  122.14399719    3.14000010    2.50000000
   14.80472279  111.67299652    3.11999989    2.50000000
   14.80805588  125.69499969    3.14000010    2.51999998
   14.81083393  115.41500092    3.11999989    2.50000000
   14.81138897  105.98500061    3.11999989    2.51999998
   14.81777763  105.98500061    3.11999989    2.50000000
   14.82194424  120.29900360    3.14000010    2.50000000
   14.82499981  113.11799622    3.18000007    2.50000000
   14.82833290  112.59700012    3.20000005    2.48000002
   14.83138847  109.28700256    3.21000004    2.50000000
   14.83472157  116.31400299    3.21000004    2.50000000
   14.83805561  115.14700317    3.23000002    2.50000000
   14.84111118  124.35299683    3.23000002    2.50000000
   14.84416676  115.17700195    3.25000000    2.50000000
   14.84472179  111.85600281    3.25000000    2.50000000
   14.84805489  117.86299896    3.25000000    2.50000000
   14.85138893  119.60600281    3.25000000    2.50000000
   14.85444450  115.21299744    3.23000002    2.50000000
   14.86055565  115.21299744    3.20000005    2.50000000
   14.86472225  123.35700226    3.18000007    2.50000000
   14.86777782  108.80300140    3.18000007    2.50000000
   14.87111092  121.87699890    3.16000009    2.50000000
   14.87444496  119.46199799    3.14000010    2.51999998
   14.87750053  124.22100067    3.11999989    2.51999998
   14.87805557  118.18699646    3.11999989    2.50000000
   14.88111115  131.20199585    3.09999990    2.50000000
   14.88444424  115.72699738    3.07999992    2.51999998
   14.88749981  112.97899628    3.05999994    2.51999998
   14.89083290  120.91899872    3.05999994    2.51999998
   14.89388847  113.97100067    3.05999994    2.51999998
   14.89722252  112.25499725    3.07999992    2.51999998
   14.90333271  112.25499725    3.03999996    2.51999998
   14.90749931  121.83999634    3.05999994    2.51999998
   14.91083336  113.87500000    3.05999994    2.51999998
   14.91138840  114.68699646    3.07999992    2.51999998
   14.91444397  117.59700012    3.09999990    2.51999998
   14.91777802  115.07399750    3.07999992    2.51999998
   14.92083359  113.87200165    3.05999994    2.51999998
   14.92416668  117.02600098    3.07999992    2.51999998
   14.92722225  122.41000366    3.09999990    2.51999998
   14.93055630  107.94200134    3.09999990    2.51999998
   14.93388939  107.72399902    3.09999990    2.51999998
   14.93694496  119.38899994    3.09999990    2.51999998
   14.94027805  108.98400116    3.09999990    2.51999998
   14.94638920  108.98400116    3.11999989    2.51999998
   14.95027733  112.54399872    3.11999989    2.51999998
   14.95361137  114.11699677    3.09999990    2.51999998
   14.95694447   99.97789764    3.11999989    2.51999998
   14.96000004  111.94499969    3.14000010    2.51999998
   14.96333313  104.37799835    3.14000010    2.51999998
   14.96638870  123.33599854    3.14000010    2.51999998
   14.96972179  106.85500336    3.14000010    2.51999998
   14.97305489  106.38899994    3.14000010    2.51999998
   14.97611046  114.72499847    3.11999989    2.51999998
   14.97749996  117.37200165    3.11999989    2.51999998
   14.97999954  106.79599762    3.09999990    2.51999998
   14.98305511  114.86100006    3.11999989    2.51999998
   14.98916721  114.86100006    3.16000009    2.51999998
   14.99333382  108.88099670    3.16000009    2.51999998
   14.99638939   98.95429993    3.18000007    2.50000000
   14.99972248  106.62699890    3.21000004    2.50000000
   15.00277805  111.40000153    3.23000002    2.51999998
   15.00611115  116.76300049    3.23000002    2.51999998
   15.00944424  110.78500366    3.23000002    2.51999998
   15.01083374  120.77300262    3.25000000    2.51999998
   15.01305580  119.84400177    3.25000000    2.51999998
   15.01611137  118.35600281    3.23000002    2.51999998
   15.01944447  109.69499969    3.23000002    2.51999998
   15.02250004  109.07599640    3.25000000    2.51999998
   15.02583313  114.54399872    3.25000000    2.51999998
   15.03194427  114.54399872    3.23000002    2.53999996
   15.03611183  112.96099854    3.21000004    2.51999998
   15.03944492  111.25399780    3.20000005    2.53999996
   15.04250050  107.55599976    3.20000005    2.51999998
   15.04444504  106.23300171    3.18000007    2.53999996
   15.04611111  107.36299896    3.18000007    2.53999996
   15.04944515   98.03839874    3.16000009    2.53999996
   15.05277824  111.99800110    3.14000010    2.53999996
   15.05583382   99.57489777    3.11999989    2.53999996
   15.15583324   -1.00000000   -1.00000000   -1.00000000
   15.30000019   -1.00000000   -1.00000000   -1.00000000
   15.51000023   -1.00000000   -1.00000000   -1.00000000
   15.68027782   73.63349915    3.48000002    2.53999996
   15.68361092  112.55400085    3.48000002    2.55999994
   15.68666649  113.34500122    3.46000004    2.55999994
   15.69000053  120.63899994    3.46000004    2.55999994
   15.69305515  107.88800049    3.48000002    2.55999994
   15.69638920  116.25199890    3.46000004    2.55999994
   15.70055580  116.25199890    3.48000002    2.55999994
   15.70472240  100.13300323    3.48000002    2.55999994
   15.70777798  130.64300537    3.48000002    2.55999994
   15.71111107  117.51200104    3.48000002    2.55999994
   15.71361065  106.21499634    3.45000005    2.55999994
   15.71472168  104.08100128    3.45000005    2.55999994
   15.71777725  115.85299683    3.45000005    2.55999994
   15.72111034  109.02799988    3.43000007    2.55999994
   15.72416592  128.22099304    3.41000009    2.55999994
   15.72749996  121.06199646    3.41000009    2.55999994
   15.73083305  122.44400024    3.41000009    2.55999994
   15.73388958  110.22399902    3.39000010    2.55999994
   15.73722267  101.87599945    3.41000009    2.55999994
   15.74333382  101.87599945    3.39000010    2.55999994
   15.74750042  118.58699799    3.39000010    2.55999994
   15.75083351  118.89399719    3.39000010    2.55999994
   15.75388908  101.99299622    3.41000009    2.55999994
   15.75722218  112.75800323    3.36999989    2.55999994
   15.76027775  119.52100372    3.43000007    2.57999992
   15.76361084  113.01599884    3.39000010    2.55999994
   15.76694393  109.12699890    3.48000002    2.55999994
   15.76999950  119.94899750    3.50000000    2.55999994
   15.77333355  106.76599884    3.53999996    2.53999996
   15.77638817  110.74099731    3.59999990    2.55999994
   15.77972221  106.25900269    3.53999996    2.53999996
   15.78027725  113.83200073    3.53999996    2.53999996
   15.78638935  113.83200073    3.55999994    2.55999994
   15.79027843  111.16600037    3.55999994    2.55999994
   15.79361153  114.08499908    3.55999994    2.55999994
   15.79694462  110.02600098    3.53999996    2.55999994
   15.80000019  105.49800110    3.55999994    2.55999994
   15.80333328  118.70899963    3.55999994    2.55999994
   15.80638885   93.69699860    3.55999994    2.55999994
   15.80972195   97.78099823    3.55999994    2.55999994
   15.81277752  115.86199951    3.55999994    2.55999994
   15.81361103  105.22899628    3.55999994    2.55999994
   15.81666660  112.69699860    3.57999992    2.55999994
   15.81972218  105.53800201    3.55999994    2.55999994
   15.82305527  115.72000122    3.57999992    2.55999994
   15.82916641  115.72000122    3.53999996    2.55999994
   15.83333302  110.97200012    3.53999996    2.55999994
   15.83638859  112.92400360    3.51999998    2.55999994
   15.83972168  109.23899841    3.51999998    2.55999994
   15.84277725  113.01100159    3.50000000    2.55999994
   15.84611034  112.84500122    3.46000004    2.55999994
   15.84694386  111.56500244    3.50000000    2.57999992
   15.84972191  109.19799805    3.48000002    2.55999994
   15.85277843  105.00299835    3.48000002    2.55999994
   15.85611153  121.26100159    3.48000002    2.57999992
   15.85944462  101.58300018    3.48000002    2.57999992
   15.86250019  117.03099823    3.43000007    2.55999994
   15.86583328  114.74099731    3.46000004    2.55999994
   15.87194443  114.74099731    3.46000004    2.57999992
   15.87611103  119.95200348    3.45000005    2.57999992
   15.87916660  109.55999756    3.46000004    2.55999994
   15.88027763  115.17299652    3.45000005    2.57999992
   15.88305569  109.81099701    3.48000002    2.57999992
   15.88611126  104.72100067    3.45000005    2.57999992
   15.88944435  119.26799774    3.48000002    2.55999994
   15.89277744  130.81399536    3.48000002    2.55999994
   15.89583302  123.57599640    3.50000000    2.55999994
   15.89916611  118.98200226    3.50000000    2.55999994
   15.90222168  124.02999878    3.50000000    2.57999992
   15.90555477  112.95700073    3.45000005    2.57999992
   15.90861034  108.50399780    3.48000002    2.57999992
   15.91472149  108.50399780    3.53999996    2.57999992
   15.91888905  116.85500336    3.53999996    2.55999994
   15.92222214  123.33499908    3.55999994    2.55999994
   15.92527771  110.04599762    3.61999989    2.55999994
   15.92861176   96.66040039    3.59999990    2.55999994
   15.93166733  104.25000000    3.61999989    2.57999992
   15.93500042  102.90100098    3.61999989    2.55999994
   15.93833351  105.98000336    3.64000010    2.57999992
   15.94138908  114.36399841    3.66000009    2.55999994
   15.94472218  115.38800049    3.57999992    2.55999994
   15.94694424  108.24700165    3.61999989    2.55999994
   15.94833374  113.88200378    3.55999994    2.55999994
   15.95138836  107.87799835    3.57999992    2.57999992
   15.95777798  107.87799835    3.55999994    2.55999994
   15.96166611  120.11000061    3.51999998    2.57999992
   15.96500015  114.23400116    3.50000000    2.57999992
   15.96833324  109.21600342    3.53999996    2.57999992
   15.97138882  110.23100281    3.55999994    2.57999992
   15.97472191  114.32499695    3.55999994    2.57999992
   15.97777748  107.85199738    3.53999996    2.57999992
   15.98027706  116.18000031    3.59999990    2.57999992
   15.98166656  120.82499695    3.51999998    2.55999994
   15.98472214  113.21800232    3.51999998    2.57999992
   15.98805618  100.87300110    3.53999996    2.57999992
   15.99138927  101.05999756    3.50000000    2.57999992
   15.99444485  116.18199921    3.48000002    2.57999992
   16.00055504  116.18199921    3.50000000    2.57999992
   16.00472260  120.79599762    3.50000000    2.57999992
   16.00777817  107.67400360    3.51999998    2.59999990
   16.01111031  114.55699921    3.50000000    2.57999992
   16.01361084  116.01999664    3.50000000    2.57999992
   16.01472282  117.09899902    3.50000000    2.57999992
   16.01777840  104.21700287    3.46000004    2.57999992
   16.02111053  121.40100098    3.46000004    2.57999992
   16.02444458  112.22100067    3.45000005    2.57999992
   16.02750015  101.87899780    3.46000004    2.57999992
   16.03083229  124.15299988    3.43000007    2.57999992
   16.03388786  111.52600098    3.45000005    2.57999992
   16.03722191  111.45300293    3.45000005    2.57999992
   16.04333305  111.45300293    3.43000007    2.57999992
   16.04749870  101.58399963    3.45000005    2.57999992
   16.05083275  116.63200378    3.45000005    2.57999992
   16.05388832  117.15200043    3.43000007    2.57999992
   16.05722237  114.73600006    3.46000004    2.57999992
   16.06027794  114.22200012    3.50000000    2.57999992
   16.06361008  114.03500366    3.55999994    2.57999992
   16.06666756  123.23400116    3.59999990    2.57999992
   16.07000160  110.76699829    3.55999994    2.57999992
   16.07333374  115.06500244    3.61999989    2.57999992
   16.07638931  118.81500244    3.57999992    2.57999992
   16.07972336  118.82199860    3.59999990    2.57999992
   16.08027840  119.66600037    3.59999990    2.57999992
   16.08611107  119.66600037    3.64000010    2.57999992
   16.09027863  112.83899689    3.68000007    2.57999992
   16.09361267  111.08399963    3.66000009    2.55999994
   16.09666824  115.73300171    3.72000003    2.55999994
   16.10000038  102.38200378    3.73000002    2.55999994
   16.10333443  121.37200165    3.76999998    2.55999994
   16.10639000  114.33999634    3.76999998    2.55999994
   16.10972214  115.02500153    3.76999998    2.55999994
   16.11277771  112.58599854    3.80999994    2.57999992
   16.11361122   97.40149689    3.82999992    2.55999994
   16.11638832  112.25399780    3.75000000    2.55999994
   16.11944389  102.02600098    3.78999996    2.55999994
   16.12277794  107.23699951    3.78999996    2.53999996
   16.12916756  107.23699951    3.84999990    2.57999992
   16.13305473  123.84899902    3.82999992    2.55999994
   16.13638878  107.82800293    3.82999992    2.55999994
   16.13972282  115.23400116    3.91000009    2.55999994
   16.14277840   93.59970093    3.91000009    2.57999992
   16.14611053  113.41400146    3.89000010    2.55999994
   16.14694405  108.86299896    3.86999989    2.57999992
   16.14972115   97.78230286    3.91000009    2.55999994
   16.15277672  120.08899689    3.89000010    2.57999992
   16.15611076  111.61000061    3.91000009    2.55999994
   16.15944481  113.88700104    3.95000005    2.55999994
   16.16250038  117.26599884    3.95000005    2.57999992
   16.16583252  111.97799683    3.97000003    2.55999994
   16.17194366  111.97799683    3.99000001    2.57999992
   16.17611122  117.20800018    3.97000003    2.55999994
   16.17916679  109.57199860    3.93000007    2.55999994
   16.18027687  113.09899902    3.93000007    2.57999992
   16.18277740  112.69899750    3.89000010    2.55999994
   16.18583298  113.90599823    3.89000010    2.57999992
   16.18916512  105.17500305    3.91000009    2.57999992
   16.19249916  120.33399963    3.93000007    2.55999994
   16.19555473  114.17199707    3.91000009    2.57999992
   16.19888878  123.61900330    3.89000010    2.55999994
   16.20222282  100.60199738    3.82999992    2.55999994
   16.20527840  116.55999756    3.91000009    2.57999992
   16.20861244  111.56099701    3.80999994    2.57999992
   16.21472359  111.56099701    3.80999994    2.57999992
   16.21888924  108.27600098    3.80999994    2.57999992
   16.22222328  106.26799774    3.80999994    2.55999994
   16.22527885   97.76129913    3.80999994    2.57999992
   16.22861099  111.08100128    3.80999994    2.57999992
   16.23166656  115.73400116    3.78999996    2.57999992
   16.23500061  115.90599823    3.80999994    2.57999992
   16.23805618  115.90699768    3.80999994    2.57999992
   16.24138832  121.10800171    3.91000009    2.59999990
   16.24472237  121.80200195    3.80999994    2.57999992
   16.24694443  123.20200348    3.84999990    2.57999992
   16.24833298  124.78099823    3.82999992    2.57999992
   16.25166702  131.08000183    3.89000010    2.57999992
   16.25749969  131.08000183    3.86999989    2.57999992
   16.26166725  127.92800140    3.86999989    2.57999992
   16.26499939  123.08300018    3.82999992    2.57999992
   16.26805496  130.55099487    3.82999992    2.57999992
   16.27138901  134.21400452    3.84999990    2.57999992
   16.27472115  120.51699829    3.75000000    2.59999990
   16.27777672  125.75800323    3.82999992    2.57999992
   16.28027725  126.30999756    3.80999994    2.57999992
   16.28138924  114.81099701    3.82999992    2.57999992
   16.28472137  125.54000092    3.76999998    2.57999992
   16.28777695  117.50599670    3.82999992    2.57999992
   16.29111099  125.88200378    3.80999994    2.57999992
   16.29416656  119.39700317    3.80999994    2.57999992
   16.30055428  119.39700317    3.80999994    2.57999992
   16.30444336  111.50099945    3.78999996    2.59999990
   16.30777740  116.74600220    3.78999996    2.57999992
   16.31110954  115.95400238    3.84999990    2.57999992
   16.31361008  116.26699829    3.82999992    2.57999992
   16.31472206  117.27999878    3.73000002    2.57999992
   16.31805611  124.28299713    3.78999996    2.57999992
   16.32111168  120.81500244    3.84999990    2.57999992
   16.32444572  135.78700256    3.80999994    2.59999990
   16.32750130  132.06399536    3.84999990    2.57999992
   16.33083344  120.31900024    3.80999994    2.59999990
   16.33416748  134.14999390    3.80999994    2.59999990
   16.33722305  131.75399780    3.78999996    2.59999990
   16.34333420  131.75399780    3.82999992    2.57999992
   16.34749985  128.65600586    3.80999994    2.59999990
   16.35055542  119.87000275    3.82999992    2.59999990
   16.35388947  111.43599701    3.80999994    2.59999990
   16.35694504  127.88800049    3.84999990    2.59999990
   16.36027908  135.88600159    3.80999994    2.59999990
   16.36361122  128.74299622    3.80999994    2.59999990
   16.36666679  120.15699768    3.80999994    2.61999989
   16.37000084  120.01799774    3.75000000    2.59999990
   16.37305641  116.08000183    3.75000000    2.59999990
   16.37638855  127.21800232    3.78999996    2.59999990
   16.37972260  114.84400177    3.80999994    2.59999990
   16.38027763  127.82399750    3.76999998    2.59999990
   16.38611031  127.82399750    3.86999989    2.59999990
   16.39027786  115.92500305    3.82999992    2.59999990
   16.39333344  133.00100708    3.93000007    2.59999990
   16.39666748  129.98699951    3.93000007    2.59999990
   16.39999962  138.01499939    3.93000007    2.57999992
   16.40305519  132.34899902    4.00000000    2.57999992
   16.40638924  126.49199677    4.03999996    2.57999992
   16.40944481  128.22300720    4.11999989    2.57999992
   16.41277695  121.82700348    4.07999992    2.57999992
   16.41361046  140.95599365    4.05999994    2.57999992
   16.41638756  131.71400452    4.11999989    2.57999992
   16.41972160  130.88400269    4.17999983    2.57999992
   16.42277718  121.90599823    4.21999979    2.57999992
   16.42888832  121.90599823    4.21999979    2.57999992
   16.43305397  123.82399750    4.21999979    2.55999994
   16.43638802  124.11499786    4.21999979    2.59999990
   16.43944359  134.80700684    4.15999985    2.57999992
   16.44277763  110.94400024    4.17999983    2.57999992
   16.44610977  118.26499939    4.13999987    2.57999992
   16.44694328  113.25900269    4.15999985    2.59999990
   16.44972038   94.50789642    4.11999989    2.57999992
   16.45305634  115.42800140    4.09999990    2.57999992
   16.45611191  116.09300232    4.05999994    2.57999992
   16.45944595  123.02799988    4.17999983    2.59999990
   16.46250153  115.78099823    4.07999992    2.59999990
   16.46583366  110.09700012    4.05999994    2.59999990
   16.47194481  110.09700012    4.03999996    2.59999990
   16.47611237  114.85199738    3.99000001    2.61999989
   16.47916794  109.20400238    4.05999994    2.59999990
   16.48027802  113.84300232    4.05999994    2.59999990
   16.48277855  116.62799835    4.07999992    2.59999990
   16.48611069  113.45099640    4.11999989    2.59999990
   16.48916626  115.25700378    4.09999990    2.59999990
   16.49250031  104.16400146    4.15999985    2.57999992
   16.49555588   96.84400177    4.09999990    2.57999992
   16.49888992  106.38300323    4.17999983    2.59999990
   16.50222206  110.88899994    4.11999989    2.57999992
   16.50527763  124.43800354    4.26000023    2.57999992
   16.50861168  108.43699646    4.32999992    2.57999992
   16.51472282  108.43699646    4.34999990    2.57999992
   16.51888847  122.61699677    4.32999992    2.57999992
   16.52194405  121.22499847    4.28999996    2.57999992
   16.52527809  123.42099762    4.32999992    2.55999994
   16.52861023  110.87300110    4.40999985    2.57999992
   16.53166580  111.04199982    4.34999990    2.57999992
   16.53499985   99.99230194    4.36999989    2.57999992
   16.53805542   93.57230377    4.40999985    2.57999992
   16.54138756  108.12000275    4.36999989    2.57999992
   16.54472160  111.58200073    4.38999987    2.57999992
   16.54694366  118.60299683    4.34999990    2.57999992
   16.54833221  107.86799622    4.32999992    2.57999992
   16.55166626  106.71499634    4.32999992    2.57999992
   16.55749893  106.71499634    4.30999994    2.57999992
   16.56166649  107.12699890    4.26000023    2.57999992
   16.56499863  103.81999969    4.28999996    2.59999990
   16.56805611  111.06300354    4.26000023    2.59999990
   16.57139015  112.16600037    4.21999979    2.57999992
   16.57444572  107.01699829    4.26000023    2.59999990
   16.57777786  107.77799988    4.26000023    2.59999990
   16.58027840  115.76999664    4.23999977    2.59999990
   16.58139038   97.14080048    4.26999998    2.57999992
   16.58472252  112.44200134    4.28999996    2.59999990
   16.58777809  100.18900299    4.26000023    2.59999990
   16.59111214  115.42500305    4.32999992    2.59999990
   16.59416771  106.44499969    4.30999994    2.59999990
   16.60027885  106.44499969    4.34999990    2.57999992
   16.60444450  124.48799896    4.36999989    2.59999990
   16.60777855  112.46900177    4.40999985    2.57999992
   16.61083412  107.15599823    4.38999987    2.57999992
   16.61361122  123.09799957    4.46999979    2.57999992
   16.61444473  110.88099670    4.44999981    2.57999992
   16.61777878  123.59100342    4.46999979    2.57999992
   16.62083435  118.73300171    4.46999979    2.59999990
   16.62416649  110.41699982    4.46999979    2.57999992
   16.62722206  111.24700165    4.38999987    2.59999990
   16.63055611  107.85399628    4.42999983    2.59999990
   16.63388824  110.32499695    4.46999979    2.57999992
   16.63694382  115.97499847    4.42999983    2.57999992
   16.64333344  115.97499847    4.44999981    2.59999990
   16.64749908  102.67600250    4.46999979    2.57999992
   16.65055466  108.30100250    4.42999983    2.57999992
   16.65388870  108.03299713    4.38999987    2.55999994
   16.65694427  117.93800354    4.46999979    2.57999992
   16.66027832  111.38400269    4.48999977    2.59999990
   16.66333389  112.91500092    4.44999981    2.59999990
   16.66666603  118.76200104    4.42999983    2.59999990
   16.67000008  105.51100159    4.42999983    2.59999990
   16.67305565  115.51799774    4.46999979    2.59999990
   16.67638779  109.78099823    4.48999977    2.59999990
   16.67944336  112.67500305    4.48999977    2.59999990
   16.68055534  101.74500275    4.51000023    2.59999990
   16.70111275  101.74500275    4.73999977    2.59999990
   16.70527840  106.15200043    4.71999979    2.57999992
   16.70861244   96.67459869    4.69999981    2.59999990
   16.71166801  110.61900330    4.71999979    2.57999992
   16.71389008  108.58499908    4.71999979    2.57999992
   16.71527863  109.07900238    4.71999979    2.57999992
   16.71861076  100.97899628    4.71999979    2.57999992
   16.72194481  103.72899628    4.78000021    2.57999992
   16.72500038  101.20600128    4.76000023    2.57999992
   16.72833443  108.00099945    4.73999977    2.59999990
   16.73139000   95.88690186    4.69999981    2.57999992
   16.73472214   96.33989716    4.71999979    2.57999992
   16.73777771   98.81060028    4.63999987    2.59999990
   16.74388885   98.81060028    4.59999990    2.57999992
   16.74805641   96.35250092    4.61999989    2.59999990
   16.75138855  102.39900208    4.67999983    2.59999990
   16.75444412   99.33350372    4.59999990    2.59999990
   16.75777817  101.55500031    4.69999981    2.59999990
   16.76111031   96.19100189    4.67999983    2.59999990
   16.76416588   99.22840118    4.69999981    2.59999990
   16.76749992   98.54190063    4.73999977    2.59999990
   16.77055550   97.01210022    4.76000023    2.59999990
   16.77388954  101.52200317    4.73999977    2.59999990
   16.77694511  101.71399689    4.80000019    2.57999992
   16.78027725  102.13800049    4.84999990    2.59999990
   16.78083229   97.06410217    4.80999994    2.57999992
   16.78694344   97.06410217    4.84999990    2.57999992
   16.79083252   96.60679626    4.88999987    2.57999992
   16.79416656  107.88600159    4.86999989    2.57999992
   16.79749870  105.72899628    4.90999985    2.57999992
   16.80055428  107.13700104    4.88999987    2.55999994
   16.80388832  107.59500122    4.90999985    2.57999992
   16.80694389   99.45520020    4.86999989    2.57999992
   16.81027794  103.45099640    4.88999987    2.57999992
   16.81361008  102.70899963    4.90999985    2.57999992
   16.81416512  103.31500244    4.90999985    2.57999992
   16.81722260  105.50800323    4.90999985    2.57999992
   16.82027817  105.98000336    4.88999987    2.57999992
   16.82361221  102.75199890    4.86999989    2.57999992
   16.82972336  102.75199890    4.90999985    2.57999992
   16.83388901  101.82800293    4.90999985    2.55999994
   16.83694458  105.19400024    4.90999985    2.55999994
   16.84027863  101.55400085    4.90999985    2.55999994
   16.84333420  109.22899628    4.90999985    2.55999994
   16.84666824  104.65299988    4.90999985    2.55999994
   16.84749985  115.58999634    4.90999985    2.57999992
   16.85027885  104.27999878    4.90999985    2.55999994
   16.85333443  100.32399750    4.90999985    2.57999992
   16.85666656  109.22399902    4.90999985    2.57999992
   16.85972214  103.37200165    4.90999985    2.57999992
   16.86305618  118.31400299    4.90999985    2.57999992
   16.86638832  115.08599854    4.90999985    2.57999992
   16.87249947  115.08599854    4.90999985    2.57999992
   16.87666702  118.31300354    4.90999985    2.57999992
   16.87972260  111.10700226    4.90999985    2.57999992
   16.88083267  110.34500122    4.90999985    2.57999992
   16.88361168  113.02400208    4.90999985    2.57999992
   16.88666725  121.82099915    4.90999985    2.57999992
   16.88999939  114.61499786    4.90999985    2.57999992
   16.89305496  105.46199799    4.90999985    2.57999992
   16.89638901  108.30599976    4.90999985    2.57999992
   16.89972115   99.67710114    4.90999985    2.57999992
   16.90277672  112.51899719    4.90999985    2.59999990
   16.90611076  121.12200165    4.90999985    2.57999992
   16.90916634  102.24500275    4.90999985    2.57999992
   16.91527748  102.24500275    4.90999985    2.57999992
   16.91944313  112.12899780    4.90999985    2.57999992
   16.92277718  119.44000244    4.90999985    2.55999994
   16.92583275  120.04599762    4.90999985    2.57999992
   16.92916679  121.46900177    4.90999985    2.55999994
   16.93222237  120.24700165    4.90999985    2.57999992
   16.93555450  113.98600006    4.90999985    2.57999992
   16.93888855  104.22000122    4.90999985    2.55999994
   16.94194412  114.81700134    4.90999985    2.57999992
   16.94527626   99.30879974    4.90999985    2.55999994
   16.94749832  104.40699768    4.90999985    2.55999994
   16.94888878  107.93499756    4.90999985    2.55999994
   16.95194435  111.83599854    4.90999985    2.55999994
   16.95805550  111.83599854    4.90999985    2.55999994
   16.96222305  113.76899719    4.90999985    2.55999994
   16.96555710  115.90200043    4.90999985    2.55999994
   16.96861076  119.55899811    4.90999985    2.55999994
   16.97194481  106.50800323    4.90999985    2.55999994
   16.97527885   92.60569763    4.90999985    2.55999994
   16.97833443  103.93299866    4.90999985    2.57999992
   16.98083305  110.68499756    4.90999985    2.57999992
   16.98222351  115.06400299    4.90999985    2.57999992
   16.98527718  105.53700256    4.90999985    2.55999994
   16.98861122  107.95300293    4.90999985    2.55999994
   16.99166679  111.78800201    4.90999985    2.57999992
   16.99500084  113.98999786    4.90999985    2.57999992
   17.00111198  113.98999786    4.90999985    2.57999992
   17.00527763  117.65899658    4.90999985    2.57999992
   17.00833321  110.64700317    4.90999985    2.57999992
   17.01166725  110.05300140    4.90999985    2.57999992
   17.01416588  104.21099854    4.90999985    2.57999992
   17.01527786  109.42900085    4.90999985    2.57999992
   17.01833344  110.80400085    4.90999985    2.59999990
   17.02166557  102.23600006    4.90999985    2.57999992
   17.02472115  102.88899994    4.90999985    2.57999992
   17.02805519  104.14800262    4.90999985    2.57999992
   17.03138924  105.71399689    4.90999985    2.57999992
   17.03444481  101.33100128    4.90999985    2.57999992
   17.03777695  114.58300018    4.90999985    2.57999992
   17.04388809  114.58300018    4.90999985    2.57999992
   17.04805565  105.89399719    4.90999985    2.57999992
   17.05111122  110.27100372    4.90999985    2.57999992
   17.05444336  100.61399841    4.90999985    2.57999992
   17.05777740  101.20400238    4.90999985    2.57999992
   17.06083298  105.09799957    4.90999985    2.57999992
   17.06416512  103.66400146    4.90999985    2.57999992
   17.06722260   97.67250061    4.90999985    2.55999994
   17.07055664  100.64099884    4.90999985    2.57999992
   17.07361221   97.09410095    4.90999985    2.57999992
   17.07694626  108.18800354    4.90999985    2.57999992
   17.08027840   90.71829987    4.90999985    2.57999992
   17.08083344  111.01699829    4.90999985    2.57999992
   17.08666801  111.01699829    4.90999985    2.57999992
   17.09083366  105.94000244    4.90999985    2.57999992
   17.09416771  103.61299896    4.90999985    2.57999992
   17.09722328  101.11799622    4.90999985    2.57999992
   17.10055542  103.58200073    4.90999985    2.57999992
   17.10361099  108.93599701    4.90999985    2.57999992
   17.10694504   99.27989960    4.90999985    2.57999992
   17.11027908  103.56900024    4.90999985    2.55999994
   17.11333466  101.75800323    4.90999985    2.55999994
   17.11416626  101.43599701    4.90999985    2.55999994
   17.11694527  103.58200073    4.90999985    2.57999992
   17.12000084   98.58910370    4.90999985    2.57999992
   17.12333298  101.97499847    4.90999985    2.57999992
   17.12944412  101.97499847    4.90999985    2.57999992
   17.13361168  101.27300262    4.90999985    2.57999992
   17.13694382   97.27719879    4.90999985    2.57999992
   17.13999939   96.48909760    4.90999985    2.57999992
   17.14333344  114.46299744    4.90999985    2.57999992
   17.14666748  107.46399689    4.90999985    2.57999992
   17.14749908  105.91400146    4.90999985    2.55999994
   17.15027809  108.28099823    4.90999985    2.57999992
   17.15333366   97.35320282    4.90999985    2.55999994
   17.15666580  104.41500092    4.90999985    2.55999994
   17.15972137  100.01999664    4.90999985    2.57999992
   17.16305542  105.41400146    4.90999985    2.55999994
   17.16638756  102.56300354    4.90999985    2.57999992
   17.17249870  102.56300354    4.90999985    2.57999992
   17.17666626   99.52799988    4.90999985    2.57999992
   17.17972183   98.31970215    4.90999985    2.55999994
   17.18083191  105.12100220    4.90999985    2.57999992
   17.18333244   92.36740112    4.90999985    2.55999994
   17.18638802   92.21589661    4.90999985    2.57999992
   17.18972206   94.67040253    4.90999985    2.55999994
   17.19305420   99.74259949    4.90999985    2.57999992
   17.19610977   97.39800262    4.90999985    2.55999994
   17.19944382  100.86799622    4.90999985    2.57999992
   17.20250130   99.02919769    4.90999985    2.55999994
   17.20583344  100.54399872    4.90999985    2.55999994
   17.20888901  102.39099884    4.90999985    2.55999994
   17.21527863  102.39099884    4.90999985    2.55999994
   17.21944427  109.72299957    4.90999985    2.55999994
   17.22249985  100.30000305    4.90999985    2.55999994
   17.22583389   98.53160095    4.90999985    2.55999994
   17.22916794  100.34899902    4.90999985    2.57999992
   17.23222351   98.71459961    4.90999985    2.57999992
   17.23555565   94.01300049    4.90999985    2.55999994
   17.23861122  106.60600281    4.90999985    2.57999992
   17.24194527  103.30899811    4.90999985    2.57999992
   17.24500084  104.69100189    4.90999985    2.55999994
   17.24749947  113.09999847    4.90999985    2.55999994
   17.24888992  118.03099823    4.90999985    2.57999992
   17.25194359  109.72499847    4.90999985    2.57999992
   17.25805473  109.72499847    4.90999985    2.57999992
   17.26222229  104.85600281    4.90999985    2.57999992
   17.26555634  112.27600098    4.90999985    2.57999992
   17.26861000  101.53800201    4.90999985    2.55999994
   17.27194405  115.67400360    4.90999985    2.57999992
   17.27499962  111.64600372    4.90999985    2.57999992
   17.27833366  110.70099640    4.90999985    2.57999992
   17.28083229  109.05599976    4.90999985    2.57999992
   17.28194427  105.91100311    4.90999985    2.57999992
   17.28499985  102.75000000    4.90999985    2.57999992
   17.28833199  102.28099823    4.90999985    2.57999992
   17.29166603  104.98500061    4.90999985    2.57999992
   17.29472160  101.24900055    4.90999985    2.57999992
   17.30083275  101.24900055    4.90999985    2.57999992
   17.30499840  102.32299805    4.90999985    2.57999992
   17.30833244  103.51399994    4.90999985    2.55999994
   17.31138802  103.63400269    4.90999985    2.55999994
   17.31416512  105.76499939    4.90999985    2.57999992
   17.31527710  108.88999939    4.90999985    2.57999992
   17.31833458  103.96199799    4.90999985    2.55999994
   17.32166672  108.59899902    4.90999985    2.57999992
   17.32500076  103.07299805    4.90999985    2.57999992
   17.32805634  110.54900360    4.90999985    2.57999992
   17.33139038  108.40599823    4.90999985    2.57999992
   17.33444595  106.48799896    4.90999985    2.57999992
   17.33777809  107.79299927    4.90999985    2.57999992
   17.34388924  107.79299927    4.90999985    2.57999992
   17.34805679  104.17500305    4.90999985    2.57999992
   17.35111237  105.06600189    4.90999985    2.57999992
   17.35444450  106.86100006    4.90999985    2.57999992
   17.35750008  117.70999908    4.90999985    2.57999992
   17.36083412  111.42400360    4.90999985    2.57999992
   17.36388969  103.19100189    4.90999985    2.57999992
   17.36722183  102.06199646    4.90999985    2.57999992
   17.37055588  103.00900269    4.90999985    2.57999992
   17.37361145  105.03500366    4.90999985    2.57999992
   17.37694550  102.00299835    4.90999985    2.57999992
   17.38027763  105.18099976    4.90999985    2.59999990
   17.38083267  108.98400116    4.90999985    2.59999990
   17.38666725  108.98400116    4.90999985    2.57999992
   17.39083290  101.38500214    4.90999985    2.57999992
   17.39388847  114.12699890    4.90999985    2.57999992
   17.39722252   96.59269714    4.90999985    2.57999992
   17.40027809   98.60569763    4.90999985    2.57999992
   17.40361023   99.13069916    4.90999985    2.57999992
   17.40694427  105.95700073    4.90999985    2.57999992
   17.40999985   98.83399963    4.90999985    2.57999992
   17.41333389   98.40260315    4.90999985    2.55999994
   17.41416550  108.06900024    4.90999985    2.55999994
   17.41694450   97.30819702    4.90999985    2.57999992
   17.42000008   99.76110077    4.90999985    2.55999994
   17.42333221   94.35749817    4.90999985    2.55999994
   17.42944336   94.35749817    4.90999985    2.55999994
   17.43361092  104.84500122    4.90999985    2.55999994
   17.43694305   96.54519653    4.90999985    2.55999994
   17.43999863  100.29699707    4.90999985    2.57999992
   17.44333267   91.95249939    4.90999985    2.55999994
   17.44638824   96.44519806    4.90999985    2.55999994
   17.44749832  103.16200256    4.90999985    2.55999994
   17.45027924  108.15000153    4.90999985    2.55999994
   17.45333481  105.56300354    4.90999985    2.57999992
   17.45666695  105.05699921    4.90999985    2.55999994
   17.46000099  111.25800323    4.90999985    2.55999994
   17.46305656  104.94000244    4.90999985    2.57999992
   17.46638870  114.54599762    4.90999985    2.55999994
   17.47222328  114.54599762    4.90999985    2.57999992
   17.47638893  105.26799774    4.90999985    2.57999992
   17.47972298   98.54709625    4.90999985    2.57999992
   17.48083305  104.49400330    4.90999985    2.57999992
   17.48333359   97.96019745    4.90999985    2.57999992
   17.48638916   99.13580322    4.90999985    2.57999992
   17.48972321  101.25399780    4.90999985    2.55999994
   17.49305534  102.68099976    4.90999985    2.57999992
   17.49611092   97.80580139    4.90999985    2.57999992
   17.49944496  104.34500122    4.90999985    2.59999990
   17.50250053   94.26380157    4.90999985    2.57999992
   17.50583267   99.76069641    4.90999985    2.57999992
   17.50916672  102.51399994    4.90999985    2.57999992
   17.51527786  102.51399994    4.90999985    2.57999992
   17.51944351   99.51480103    4.90999985    2.55999994
   17.52249908   96.92559814    4.90999985    2.57999992
   17.52583313  105.31199646    4.90999985    2.57999992
   17.52888870  109.15899658    4.90999985    2.57999992
   17.53222275   94.15859985    4.90999985    2.57999992
   17.53555489  100.41799927    4.90999985    2.57999992
   17.53861046   97.07360077    4.90999985    2.55999994
   17.54194450  103.97200012    4.90999985    2.57999992
   17.54500008   96.67549896    4.90999985    2.55999994
   17.54749870  111.04100037    4.90999985    2.57999992
   17.54861069  104.31400299    4.90999985    2.55999994
   17.55194283  109.75700378    4.90999985    2.57999992
   17.55805397  109.75700378    4.90999985    2.55999994
   17.56222153   96.00769806    4.90999985    2.57999992
   17.56527710  107.32800293    4.90999985    2.57999992
   17.56861115  102.09500122    4.90999985    2.55999994
   17.57194519  108.34899902    4.90999985    2.55999994
   17.57500076  102.83799744    4.90999985    2.55999994
   17.57833481  100.99299622    4.90999985    2.55999994
   17.58083344  113.99400330    4.90999985    2.55999994
   17.58194542  103.27899933    4.90999985    2.55999994
   17.58527756  109.16400146    4.90999985    2.55999994
   17.58833313  102.22299957    4.90999985    2.55999994
   17.59166718   98.78450012    4.90999985    2.53999996
   17.59472275  101.75099945    4.90999985    2.55999994
   17.60083389  101.75099945    4.90999985    2.55999994
   17.60499954  100.37599945    4.90999985    2.55999994
   17.60833359   99.76049805    4.90999985    2.55999994
   17.61138916  105.53399658    4.90999985    2.57999992
   17.61416626  108.79599762    4.90999985    2.55999994
   17.61499977  107.97599792    4.90999985    2.57999992
   17.61833382  102.38700104    4.90999985    2.57999992
   17.62138939  110.92600250    4.90999985    2.57999992
   17.62472153  106.16000366    4.90999985    2.57999992
   17.62777710  105.52300262    4.90999985    2.57999992
   17.63111115  100.69499969    4.90999985    2.55999994
   17.63416672  111.49700165    4.90999985    2.55999994
   17.63750076  100.34100342    4.90999985    2.55999994
   17.64388847  100.34100342    4.90999985    2.57999992
   17.64777756  105.31600189    4.90999985    2.57999992
   17.65111160  102.40599823    4.90999985    2.55999994
   17.65444374  111.32399750    4.90999985    2.55999994
   17.65749931  106.51599884    4.90999985    2.57999992
   17.66083336  100.37400055    4.90999985    2.57999992
   17.66388893  103.19200134    4.90999985    2.57999992
   17.66722107  103.49099731    4.90999985    2.57999992
   17.67027664  108.00199890    4.90999985    2.55999994
   17.67361069  108.68499756    4.90999985    2.55999994
   17.67694473  116.43000031    4.90999985    2.55999994
   17.68000031  103.73100281    4.90999985    2.57999992
   17.68083191  107.50499725    4.90999985    2.55999994
   17.68666649  107.50499725    4.90999985    2.57999992
   17.69083214  102.83399963    4.90999985    2.57999992
   17.69388771  113.64399719    4.90999985    2.55999994
   17.69722176  115.06700134    4.90999985    2.55999994
   17.71472359  125.43299866    4.90999985    2.53999996
   17.71694565  124.90799713    4.90999985    2.55999994
   17.72027779  119.37599945    4.90999985    2.55999994
   17.72333336  112.19799805    4.90999985    2.55999994
   17.72972298  112.19799805    4.90999985    2.55999994
   17.73388863   97.64990234    4.90999985    2.53999996
   17.73694420  112.92800140    4.90999985    2.55999994
   17.74027824  113.57099915    4.90999985    2.55999994
   17.74333382  101.03199768    4.90999985    2.53999996
   17.74666786  119.09100342    4.90999985    2.53999996
   17.74805641  121.88200378    4.90999985    2.53999996
   17.75027847  108.23500061    4.90999985    2.53999996
   17.75333405  106.22699738    4.90999985    2.53999996
   17.75666618  119.93499756    4.90999985    2.53999996
   17.75972176  116.13500214    4.90999985    2.53999996
   17.76305580  113.40399933    4.90999985    2.53999996
   17.76611137  111.59500122    4.90999985    2.55999994
   17.77249908  111.59500122    4.90999985    2.55999994
   17.77666664  101.59600067    4.90999985    2.55999994
   17.77972221  121.46800232    4.90999985    2.55999994
   17.78138924  116.98400116    4.90999985    2.53999996
   17.78361130  109.15699768    4.90999985    2.55999994
   17.78666687  118.73899841    4.90999985    2.55999994
   17.78999901  109.62500000    4.90999985    2.55999994
   17.79305458  111.05000305    4.90999985    2.55999994
   17.79638863  120.04599762    4.90999985    2.55999994
   17.79944420  121.01799774    4.90999985    2.55999994
   17.80277634  111.50900269    4.90999985    2.55999994
   17.80611038  109.69100189    4.90999985    2.55999994
   17.80916595  109.40499878    4.90999985    2.55999994
   17.81527710  109.40499878    4.90999985    2.55999994
   17.81944466  114.67500305    4.90999985    2.55999994
   17.82277870  113.66999817    4.90999985    2.55999994
   17.82583427  116.51899719    4.90999985    2.53999996
   17.82916832  114.15299988    4.90999985    2.55999994
   17.83222389  111.26100159    4.90999985    2.53999996
   17.83555603  112.34100342    4.90999985    2.55999994
   17.83861160   95.61769867    4.90999985    2.55999994
   17.84194565  115.01200104    4.90999985    2.55999994
   17.84527779  106.69699860    4.90999985    2.55999994
   17.84805679  112.40799713    4.90999985    2.55999994
   17.84889030  127.12100220    4.90999985    2.55999994
   17.85194397  115.24900055    4.90999985    2.55999994
   17.85805511  115.24900055    4.90999985    2.53999996
   17.86222267  106.15299988    4.90999985    2.53999996
   17.86555672  111.19699860    4.90999985    2.53999996
   17.86861038  115.25099945    4.90999985    2.55999994
   17.87194443  112.31600189    4.90999985    2.53999996
   17.87527847  136.97700500    4.90999985    2.55999994
   17.87833405  125.43000031    4.90999985    2.53999996
   17.88138962  109.73400116    4.90999985    2.55999994
   17.88222313  115.87899780    4.90999985    2.53999996
   17.88527679  121.13200378    4.90999985    2.53999996
   17.88861084  115.13899994    4.90999985    2.53999996
   17.89194489  123.45500183    4.90999985    2.53999996
   17.89500046  130.60699463    4.90999985    2.53999996
   17.90111160  130.60699463    4.90999985    2.53999996
   17.90527725  126.45200348    4.90999985    2.53999996
   17.90833282  113.27700043    4.90999985    2.55999994
   17.91166687  130.17399597    4.90999985    2.53999996
   17.91472244  122.69699860    4.90999985    2.53999996
   17.91527748  119.62899780    4.90999985    2.55999994
   17.91833305  112.52600098    4.90999985    2.55999994
   17.92166519  125.34400177    4.90999985    2.55999994
   17.92472076  110.89499664    4.90999985    2.53999996
   17.92805481  114.42299652    4.90999985    2.53999996
   17.93138885  118.00399780    4.90999985    2.55999994
   17.93444443  102.79100037    4.90999985    2.53999996
   17.93777657   99.12979889    4.90999985    2.53999996
   17.94388771   99.12979889    4.90999985    2.53999996
   17.94805527  115.19300079    4.90999985    2.55999994
   17.94861031  100.96499634    4.90999985    2.55999994
   17.95166779  103.99600220    4.90999985    2.53999996
   17.95499992  104.48899841    4.90999985    2.53999996
   17.95805550  112.83799744    4.90999985    2.53999996
   17.96138954  111.44499969    4.90999985    2.53999996
   17.96472359  105.12999725    4.90999985    2.53999996
   17.96777916  110.44499969    4.90999985    2.53999996
   17.97111130  103.61699677    4.90999985    2.55999994
   17.97416687   98.19470215    4.90999985    2.51999998
   17.97750092  111.74199677    4.90999985    2.53999996
   17.98055649   93.06659698    4.90999985    2.53999996
   17.98139000  105.82900238    4.90999985    2.53999996
   17.98666763  105.82900238    4.90999985    2.53999996
   17.99083328  108.35299683    4.90999985    2.53999996
   17.99416733  112.27100372    4.90999985    2.53999996
   17.99722290  103.51300049    4.90999985    2.53999996
   18.00055504  116.07700348    4.90999985    2.53999996
   18.00361061  100.34600067    4.90999985    2.53999996
   18.00694466  115.65899658    4.90999985    2.53999996
   18.01000023  104.18299866    4.90999985    2.55999994
   18.01333427  118.26499939    4.90999985    2.53999996
   18.01472282  110.48699951    4.90999985    2.53999996
   18.01694489  105.12000275    4.90999985    2.53999996
   18.02000046  102.56099701    4.90999985    2.53999996
   18.02333260  108.37000275    4.90999985    2.53999996
   18.02944374  108.37000275    4.90999985    2.53999996
   18.03361130  104.70999908    4.90999985    2.55999994
   18.03694344  105.09600067    4.90999985    2.55999994
   18.03999901  116.66699982    4.90999985    2.55999994
   18.04333305  105.99299622    4.90999985    2.55999994
   18.04666710  111.71399689    4.90999985    2.55999994
   18.04805565  116.87000275    4.90999985    2.53999996
   18.05027771  116.68299866    4.90999985    2.53999996
   18.05333328  111.06099701    4.90999985    2.53999996
   18.05666542  106.31900024    4.90999985    2.55999994
   18.05972099  122.90399933    4.90999985    2.53999996
   18.06305504   98.12860107    4.90999985    2.53999996
   18.06638718  105.46099854    4.90999985    2.53999996
   18.07250023  105.46099854    4.90999985    2.53999996
   18.07638931  106.61299896    4.90999985    2.53999996
   18.07972336  115.47699738    4.90999985    2.53999996
   18.08139038  108.49700165    4.90999985    2.53999996
   18.08333397  109.28399658    4.90999985    2.53999996
   18.08638954  105.14600372    4.90999985    2.53999996
   18.08972359  109.29499817    4.90999985    2.53999996
   18.09277916  117.37000275    4.90999985    2.53999996
   18.09611130  104.08399963    4.90999985    2.53999996
   18.09944534  116.27799988    4.90999985    2.53999996
   18.10250092  107.13999939    4.90999985    2.51999998
   18.10583305  111.50299835    4.90999985    2.51999998
   18.10888863   99.33090210    4.90999985    2.51999998
   18.11527824   99.33090210    4.90999985    2.53999996
   18.11944389  115.47299957    4.90999985    2.53999996
   18.12249947  116.70899963    4.90999985    2.51999998
   18.12583351  105.41300201    4.90999985    2.53999996
   18.12888908  104.25499725    4.90999985    2.51999998
   18.13222313  116.83200073    4.90999985    2.53999996
   18.13555527  116.85600281    4.90999985    2.53999996
   18.13861084  117.36900330    4.90999985    2.53999996
   18.14194489  115.40599823    4.90999985    2.53999996
   18.14500046  120.36499786    4.90999985    2.51999998
   18.14805603  111.92700195    4.90999985    2.53999996
   18.14888954  115.16699982    4.90999985    2.53999996
   18.15194321  114.96700287    4.90999985    2.53999996
   18.15805435  114.96700287    4.90999985    2.51999998
   18.16222191  116.60600281    4.90999985    2.55999994
   18.16555595  112.71600342    4.90999985    2.55999994
   18.16860962  113.22499847    4.90999985    2.53999996
   18.17194366  108.58300018    4.90999985    2.53999996
   18.17499924  105.85700226    4.90999985    2.53999996
   18.17833328  110.04799652    4.90999985    2.55999994
   18.18138885  112.58100128    4.90999985    2.53999996
   18.18194389  106.87999725    4.90999985    2.53999996
   18.18499947  100.47599792    4.90999985    2.53999996
   18.18833160  113.40899658    4.90999985    2.53999996
   18.19138718  101.49600220    4.90999985    2.53999996
   18.19472122  106.67400360    4.90999985    2.53999996
   18.20083427  106.67400360    4.90999985    2.53999996
   18.20499992  107.45400238    4.90999985    2.53999996
   18.20833397  116.06600189    4.90999985    2.51999998
   18.21138954  129.68600464    4.90999985    2.51999998
   18.21472359  120.02400208    4.90999985    2.51999998
   18.21527863  129.83399963    4.90999985    2.51999998
   18.21833420  112.70899963    4.90999985    2.51999998
   18.22166634  114.10600281    4.90999985    2.53999996
   18.22472191  115.73100281    4.90999985    2.51999998
   18.22805595  123.57199860    4.90999985    2.51999998
   18.23139000  103.29199982    4.90999985    2.53999996
   18.23444557  114.77400208    4.90999985    2.51999998
   18.23777771  111.58300018    4.90999985    2.53999996
   18.24388885  111.58300018    4.90999985    2.51999998
   18.24777794  114.09799957    4.90999985    2.51999998
   18.24833298  116.05899811    4.90999985    2.51999998
   18.25166702  116.41699982    4.90999985    2.51999998
   18.25499916  123.19799805    4.90999985    2.53999996
   18.25805473  117.91799927    4.90999985    2.53999996
   18.26138878  124.03299713    4.90999985    2.53999996
   18.26444435  129.74899292    4.90999985    2.53999996
   18.26777840  103.80300140    4.90999985    2.53999996
   18.27083397  122.77600098    4.90999985    2.53999996
   18.27416611  113.11499786    4.90999985    2.53999996
   18.27750015  116.35099792    4.90999985    2.51999998
   18.28055573  119.23899841    4.90999985    2.53999996
   18.28166580  114.08100128    4.90999985    2.51999998
   18.28666687  114.08100128    4.90999985    2.53999996
   18.29083252  111.73000336    4.90999985    2.53999996
   18.29388809  116.10199738    4.90999985    2.53999996
   18.29722214  112.93599701    4.90999985    2.53999996
   18.30027771  106.41899872    4.90999985    2.53999996
   18.30360985  112.16300201    4.90999985    2.53999996
   18.30694389  102.28099823    4.90999985    2.53999996
   18.30999947  105.27899933    4.90999985    2.53999996
   18.31333351  106.81900024    4.90999985    2.51999998
   18.31499863  103.37200165    4.90999985    2.51999998
   18.31694603  109.26599884    4.90999985    2.51999998
   18.32027817  104.12599945    4.90999985    2.53999996
   18.32333374  105.29100037    4.90999985    2.53999996
   18.32944489  105.29100037    4.90999985    2.53999996
   18.33361244  107.53600311    4.90999985    2.53999996
   18.33666801  104.62999725    4.90999985    2.53999996
   18.34000015  108.34799957    4.90999985    2.51999998
   18.34333420  102.66100311    4.90999985    2.53999996
   18.34638977  111.14199829    4.90999985    2.51999998
   18.34833336  109.54599762    4.90999985    2.51999998
   18.35000038  106.70500183    4.90999985    2.51999998
   18.35333443  112.33100128    4.90999985    2.53999996
   18.35639000  110.49400330    4.90999985    2.53999996
   18.35972214  111.09400177    4.90999985    2.53999996
   18.36277771  109.71900177    4.90999985    2.53999996
   18.36611176  111.42700195    4.90999985    2.53999996
   18.37222290  111.42700195    4.90999985    2.51999998
   18.37638855  107.61900330    4.90999985    2.51999998
   18.37972260  110.71700287    4.90999985    2.51999998
   18.38166618  115.76699829    4.90999985    2.51999998
   18.38333321  112.43599701    4.90999985    2.51999998
   18.38666725  107.45600128    4.90999985    2.51999998
   18.38972282  115.10199738    4.90999985    2.51999998
   18.39305496  114.08000183    4.90999985    2.50000000
   18.39611053  113.52600098    4.90999985    2.51999998
   18.39944458  108.23799896    4.90999985    2.50000000
   18.40277672  110.03600311    4.90999985    2.51999998
   18.40583229  105.70899963    4.90999985    2.53999996
   18.40916634  116.91300201    4.90999985    2.51999998
   18.41527748  116.91300201    4.90999985    2.53999996
   18.41916656   99.39369965    4.90999985    2.53999996
   18.42249870   97.06449890    4.90999985    2.53999996
   18.42583275  111.69200134    4.90999985    2.51999998
   18.42888832  115.11900330    4.90999985    2.53999996
   18.43222237  118.55100250    4.90999985    2.51999998
   18.43527603  115.80899811    4.90999985    2.51999998
   18.43861008  109.76499939    4.90999985    2.51999998
   18.44166565  106.31300354    4.90999985    2.51999998
   18.44499969  105.61799622    4.90999985    2.53999996
   18.44833183  100.84799957    4.90999985    2.51999998
   18.44888878   97.15059662    4.90999985    2.53999996
   18.45194435  106.30699921    4.90999985    2.51999998
   18.45805550  106.30699921    4.90999985    2.53999996
   18.46222305   98.40249634    4.90999985    2.53999996
   18.46527863  102.14199829    4.90999985    2.51999998
   18.46861076  123.97899628    4.90999985    2.53999996
   18.47166634  116.03500366    4.90999985    2.51999998
   18.47500038  103.95999908    4.90999985    2.51999998
   18.47833443  114.38700104    4.90999985    2.51999998
   18.48139000  111.29000092    4.90999985    2.51999998
   18.48222351  104.65399933    4.90999985    2.51999998
   18.48500061  108.38999939    4.90999985    2.53999996
   18.48833275  113.65399933    4.90999985    2.51999998
   18.49138832  107.67500305    4.90999985    2.51999998
   18.49472237  109.64099884    4.90999985    2.51999998
   18.50083351  109.64099884    4.90999985    2.51999998
   18.50499916  115.93199921    4.90999985    2.51999998
   18.50833321  112.51200104    4.90999985    2.51999998
   18.51138878  105.30300140    4.90999985    2.51999998
   18.51472282  102.34700012    4.90999985    2.51999998
   18.51555634  106.15000153    4.90999985    2.51999998
   18.51833344  105.22499847    4.90999985    2.50000000
   18.52166557  110.73699951    4.90999985    2.50000000
   18.52472115  110.06900024    4.90999985    2.51999998
   18.52805519  100.34200287    4.90999985    2.51999998
   18.53138924  108.74700165    4.90999985    2.50000000
   18.53444481  115.63999939    4.90999985    2.50000000
   18.53777695  112.89099884    4.90999985    2.51999998
   18.54361153  112.89099884    4.90999985    2.51999998
   18.54777718  113.87000275    4.90999985    2.51999998
   18.54888916  115.00199890    4.90999985    2.51999998
   18.55138779  110.81400299    4.90999985    2.51999998
   18.55472183  107.92500305    4.90999985    2.50000000
   18.55777740  120.98699951    4.90999985    2.51999998
   18.56110954  101.82099915    4.90999985    2.50000000
   18.56444359  108.99900055    4.90999985    2.50000000
   18.56750107  119.16300201    4.90999985    2.50000000
   18.57083511  119.77400208    4.90999985    2.50000000
   18.57389069  116.05000305    4.90999985    2.51999998
   18.57722282  117.67199707    4.90999985    2.50000000
   18.58055687  112.18199921    4.90999985    2.51999998
   18.58222389  119.55999756    4.90999985    2.50000000
   18.58666801  119.55999756    4.90999985    2.51999998
   18.59083366  108.97499847    4.90999985    2.51999998
   18.59388924  104.34300232    4.90999985    2.50000000
   18.59722328  110.63500214    4.90999985    2.50000000
   18.60027885  105.00199890    4.90999985    2.51999998
   18.60361099  120.62000275    4.90999985    2.50000000
   18.60666656  111.29100037    4.90999985    2.51999998
   18.61000061  113.69499969    4.90999985    2.50000000
   18.61333466  107.80400085    4.90999985    2.51999998
   18.61555672  118.95600128    4.90999985    2.51999998
   18.61666679  118.49199677    4.90999985    2.51999998
   18.62000084  110.16600037    4.90999985    2.51999998
   18.62305641  108.08599854    4.90999985    2.51999998
   18.62944412  108.08599854    4.90999985    2.51999998
   18.63361168  109.29699707    4.90999985    2.51999998
   18.63666725  113.14700317    4.90999985    2.51999998
   18.63999939  108.76000214    4.90999985    2.51999998
   18.64333344  107.31999969    4.90999985    2.51999998
   18.64638901  110.18099976    4.90999985    2.51999998
   18.64888954  107.03800201    4.90999985    2.51999998
   18.64999962  107.39099884    4.90999985    2.51999998
   18.65333366  109.98300171    4.90999985    2.50000000
   18.65666580  119.30799866    4.90999985    2.51999998
   18.65972137  116.92900085    4.90999985    2.51999998
   18.66305542  112.87799835    4.90999985    2.51999998
   18.66611099  108.44200134    4.90999985    2.51999998
   18.67222214  108.44200134    4.90999985    2.50000000
   18.67638779  108.43599701    4.90999985    2.51999998
   18.67972183  103.87599945    4.90999985    2.51999998
   18.68222237  110.34500122    4.90999985    2.50000000
   18.68305397  118.19799805    4.90999985    2.51999998
   18.68638802  103.76100159    4.90999985    2.50000000
   18.68972206  112.06999969    4.90999985    2.51999998
   18.69277763  103.09600067    4.90999985    2.50000000
   18.69610977  105.47299957    4.90999985    2.51999998
   18.69916534   93.82309723    4.90999985    2.51999998
   18.70250130  107.71299744    4.90999985    2.51999998
   18.70555687   98.88590240    4.90999985    2.51999998
   18.70888901  100.35800171    4.90999985    2.51999998
   18.71500015  100.35800171    4.90999985    2.50000000
   18.73361206   99.91870117    4.90999985    2.50000000
   18.73666763  112.43900299    4.90999985    2.50000000
   18.73999977  105.77400208    4.90999985    2.51999998
   18.74305534  104.91200256    4.90999985    2.51999998
   18.74638939  112.75399780    4.90999985    2.50000000
   18.74972153  102.76899719    4.90999985    2.51999998
   18.75277710  108.04100037    4.90999985    2.51999998
   18.75833321  108.04100037    4.90999985    2.51999998
   18.76222229  103.51499939    4.90999985    2.50000000
   18.76555634   99.81620026    4.90999985    2.50000000
   18.76666641  112.37100220    4.90999985    2.50000000
   18.76916695  105.52400208    4.90999985    2.50000000
   18.77249908  102.71199799    4.90999985    2.51999998
   18.77555466  100.50499725    4.90999985    2.51999998
   18.77888870  104.97399902    4.90999985    2.50000000
   18.78222275  105.25299835    4.90999985    2.51999998
   18.78527641  103.02300262    4.90999985    2.51999998
   18.78861046  105.61699677    4.90999985    2.51999998
   18.79166603  106.05500031    4.90999985    2.51999998
   18.79500008  113.51100159    4.90999985    2.51999998
   18.80111122  113.51100159    4.90999985    2.51999998
   18.80527687  100.06199646    4.90999985    2.51999998
   18.80833244  110.22000122    4.90999985    2.51999998
   18.81166649  104.15799713    4.90999985    2.53999996
   18.81472206  110.16799927    4.90999985    2.53999996
   18.81805611  107.79699707    4.90999985    2.51999998
   18.82139015  104.49900055    4.90999985    2.51999998
   18.82444572  104.98500061    4.90999985    2.51999998
   18.82777786  106.58300018    4.90999985    2.51999998
   18.83083344  110.12899780    4.90999985    2.51999998
   18.83333397  105.09799957    4.90999985    2.50000000
   18.83444595  109.76200104    4.90999985    2.51999998
   18.83777809  104.56900024    4.90999985    2.51999998
   18.84388924  104.56900024    4.90999985    2.51999998
   18.84805679  110.35299683    4.90999985    2.51999998
   18.85138893  110.04900360    4.90999985    2.50000000
   18.85444450  108.26300049    4.90999985    2.51999998
   18.85777855  108.92700195    4.90999985    2.50000000
   18.86083412  111.86599731    4.90999985    2.50000000
   18.86416626  111.91500092    4.90999985    2.48000002
   18.86666679  112.28099823    4.90999985    2.48000002
   18.86777878  102.36299896    4.90999985    2.50000000
   18.87111092  104.56099701    4.90999985    2.50000000
   18.87416649  110.12200165    4.90999985    2.50000000
   18.87750053  108.94400024    4.90999985    2.48000002
   18.88083267  105.10600281    4.90999985    2.50000000
   18.88666725  105.10600281    4.90999985    2.50000000
   18.89083290  105.72599792    4.90999985    2.48000002
   18.89416695  107.83599854    4.90999985    2.48000002
   18.89722252  102.64800262    4.90999985    2.50000000
   18.89999962  106.05000305    4.90999985    2.50000000
   18.90083313  100.41400146    4.90999985    2.48000002
   18.90416718  108.20999908    4.90999985    2.50000000
   18.90749931  109.20099640    4.90999985    2.50000000
   18.91055489  113.18699646    4.90999985    2.50000000
   18.91388893  109.68900299    4.90999985    2.50000000
   18.91694450  107.65499878    4.90999985    2.50000000
   18.92027664  102.21099854    4.90999985    2.50000000
   18.92361069  112.88200378    4.90999985    2.50000000
   18.92972183  112.88200378    4.90999985    2.48000002
   18.93361092  116.43199921    4.90999985    2.50000000
   18.93694305  109.04599762    4.90999985    2.50000000
   18.94027710  105.33000183    4.90999985    2.48000002
   18.94333267  110.66300201    4.90999985    2.50000000
   18.94666672  113.18800354    4.90999985    2.48000002
   18.94972038  109.72599792    4.90999985    2.48000002
   18.95305634  109.70899963    4.90999985    2.50000000
   18.95639038  113.09999847    4.90999985    2.48000002
   18.95944595  100.13400269    4.90999985    2.48000002
   18.96277809   97.46450043    4.90999985    2.50000000
   18.96583366  107.78700256    4.90999985    2.48000002
   18.96666718  111.07800293    4.90999985    2.48000002
   18.97249985  111.07800293    4.90999985    2.48000002
   18.97666740  116.16899872    4.90999985    2.48000002
   18.97972298  112.94599915    4.90999985    2.48000002
   18.98305511   98.38410187    4.90999985    2.48000002
   18.98611069  108.46800232    4.90999985    2.48000002
   18.98944473  111.74400330    4.90999985    2.48000002
   18.99277878  107.95099640    4.90999985    2.50000000
   18.99583435  109.24900055    4.90999985    2.48000002
   18.99916649  109.77300262    4.90999985    2.48000002
   19.00000000  109.95600128    4.90999985    2.48000002
   19.00250053  110.85500336    4.90999985    2.48000002
   19.00583267  111.11499786    4.90999985    2.48000002
   19.00916672  114.56400299    4.90999985    2.48000002
   19.01527786  114.56400299    4.90999985    2.48000002
   19.01944351  110.77999878    4.90999985    2.48000002
   19.02249908  111.11599731    4.90999985    2.48000002
   19.02583313  112.60900116    4.90999985    2.48000002
   19.02916718  112.27500153    4.90999985    2.48000002
   19.03222275  110.62100220    4.90999985    2.48000002
   19.03333282  108.84100342    4.90999985    2.48000002
   19.03583336  110.37500000    4.90999985    2.48000002
   19.03916550  115.00599670    4.90999985    2.48000002
   19.04249954  118.24199677    4.90999985    2.48000002
   19.04555511  117.81999969    4.90999985    2.48000002
   19.04888916  113.87699890    4.90999985    2.48000002
   19.05194283  112.10600281    4.90999985    2.46000004
   19.05805397  112.10600281    4.90999985    2.48000002
   19.06222153  114.45400238    4.90999985    2.48000002
   19.06555557  110.46700287    4.90999985    2.48000002
   19.06666756  113.28199768    4.90999985    2.46000004
   19.06888962  102.19599915    4.90999985    2.48000002
   19.07222366  106.48300171    4.90999985    2.48000002
   19.07555580  106.12100220    4.90999985    2.48000002
   19.07861137  109.17600250    4.90999985    2.46000004
   19.08194542  107.88999939    4.90999985    2.46000004
   19.08500099  108.23000336    4.90999985    2.48000002
   19.08833313  102.25099945    4.90999985    2.48000002
   19.09166718  105.19799805    4.90999985    2.48000002
   19.09472275  108.73799896    4.90999985    2.46000004
   19.10111237  108.73799896    4.90999985    2.46000004
   19.10499954  110.96299744    4.90999985    2.46000004
   19.10833359  110.33300018    4.90999985    2.46000004
   19.11166763  109.25599670    4.90999985    2.46000004
   19.11472321  108.56800079    4.90999985    2.46000004
   19.11805534  116.81700134    4.90999985    2.46000004
   19.12111092  110.85700226    4.90999985    2.46000004
   19.12444496  105.09100342    4.90999985    2.46000004
   19.12777710  111.85500336    4.90999985    2.46000004
   19.13083267  101.93299866    4.90999985    2.46000004
   19.13361168  106.07399750    4.90999985    2.46000004
   19.13500023  107.89199829    4.90999985    2.46000004
   19.13805580  113.55599976    4.90999985    2.48000002
   19.14388847  113.55599976    4.90999985    2.46000004
   19.14805603  106.05799866    4.90999985    2.46000004
   19.15111160  111.57800293    4.90999985    2.46000004
   19.15444374  106.31999969    4.90999985    2.46000004
   19.15777779  112.15899658    4.90999985    2.46000004
   19.16083336  101.19699860    4.90999985    2.48000002
   19.16416550  102.58399963    4.90999985    2.46000004
   19.16666603  106.40299988    4.90999985    2.46000004
   19.16749954  107.22599792    4.90999985    2.46000004
   19.17083359  101.72499847    4.90999985    2.48000002
   19.17416573  109.24299622    4.90999985    2.46000004
   19.17722130  100.16799927    4.90999985    2.46000004
   19.18055534  109.53900146    4.90999985    2.46000004
   19.18666649  109.53900146    4.90999985    2.46000004
   19.19083214  112.46399689    4.90999985    2.46000004
   19.19416618  105.44799805    4.90999985    2.46000004
   19.19722176  108.69200134    4.90999985    2.46000004
   19.20000076  107.45500183    4.90999985    2.46000004
   19.20111275  112.14800262    4.90999985    2.46000004
   19.20416832  108.61900330    4.90999985    2.46000004
   19.20750046  109.51699829    4.90999985    2.46000004
   19.21055603  107.04699707    4.90999985    2.46000004
   19.21389008  106.18599701    4.90999985    2.46000004
   19.21722221  111.26799774    4.90999985    2.46000004
   19.22027779  107.66799927    4.90999985    2.46000004
   19.22361183  113.13999939    4.90999985    2.46000004
   19.22944450  113.13999939    4.90999985    2.46000004
   19.23361206   98.37719727    4.90999985    2.46000004
   19.23694420  108.65699768    4.90999985    2.46000004
   19.24027824  112.18499756    4.90999985    2.46000004
   19.24333382  108.48899841    4.90999985    2.46000004
   19.24666786  108.09400177    4.90999985    2.46000004
   19.24972153  115.35600281    4.90999985    2.46000004
   19.25305557  106.63800049    4.90999985    2.46000004
   19.25638962  109.40200043    4.90999985    2.46000004
   19.25944519  115.43699646    4.90999985    2.46000004
   19.26277733  111.95400238    4.90999985    2.46000004
   19.26611137  101.10900116    4.90999985    2.46000004
   19.26666641  105.91200256    4.90999985    2.46000004
   19.27249908  105.91200256    4.90999985    2.46000004
   19.27638817  110.00399780    4.90999985    2.46000004
   19.27972221  110.96199799    4.90999985    2.46000004
   19.28305435  105.91500092    4.90999985    2.44000006
   19.28610992  103.89700317    4.90999985    2.46000004
   19.28944397  106.69899750    4.90999985    2.46000004
   19.29277802  109.79299927    4.90999985    2.46000004
   19.29583359  111.18299866    4.90999985    2.46000004
   19.29916573  105.03399658    4.90999985    2.46000004
   19.29999924  107.03900146    4.90999985    2.46000004
   19.30277634  102.51799774    4.90999985    2.46000004
   19.30583191  109.30799866    4.90999985    2.46000004
   19.30916595  104.15000153    4.90999985    2.46000004
   19.31527710  104.15000153    4.90999985    2.46000004
   19.31944466  111.13600159    4.90999985    2.46000004
   19.32250023  110.63800049    4.90999985    2.46000004
   19.32583427  106.07499695    4.90999985    2.46000004
   19.32916832  108.87599945    4.90999985    2.46000004
   19.33222389  106.11100006    4.90999985    2.46000004
   19.33333397  110.18000031    4.90999985    2.46000004
   19.33611107  116.35700226    4.90999985    2.46000004
   19.33916664  111.22699738    4.90999985    2.44000006
   19.34250069  111.44000244    4.90999985    2.44000006
   19.34555626  112.30599976    4.90999985    2.46000004
   19.34889030  108.90799713    4.90999985    2.44000006
   19.35222244  105.32800293    4.90999985    2.44000006
   19.35805511  105.32800293    4.90999985    2.42000008
   19.36222267  107.50000000    4.90999985    2.44000006
   19.36555672  108.90699768    4.90999985    2.44000006
   19.36666679  111.31400299    4.90999985    2.44000006
   19.36916733  115.87400055    4.90999985    2.44000006
   19.37222290  116.06999969    4.90999985    2.44000006
   19.37555504  107.30799866    4.90999985    2.44000006
   19.37861061  112.77300262    4.90999985    2.44000006
   19.38194466  114.89800262    4.90999985    2.44000006
   19.38527679  115.18900299    4.90999985    2.44000006
   19.38833237  106.52999878    4.90999985    2.44000006
   19.39166641  115.11399841    4.90999985    2.44000006
   19.39500046  122.55300140    4.90999985    2.44000006
   19.40083313  122.55300140    4.90999985    2.44000006
   19.40499878  114.13999939    4.90999985    2.44000006
   19.40833282  116.38600159    4.90999985    2.44000006
   19.41138840  123.94200134    4.90999985    2.44000006
   19.41472244  129.34599304    4.90999985    2.44000006
   19.41805458  109.13800049    4.90999985    2.42000008
   19.42111015  113.93599701    4.90999985    2.42000008
   19.42444420  100.86799622    4.90999985    2.42000008
   19.42777634  128.23800659    4.90999985    2.44000006
   19.43083191  115.73300171    4.90999985    2.42000008
   19.43333244  116.47599792    4.90999985    2.44000006
   19.43472099   99.34239960    4.90999985    2.44000006
   19.43777657  110.26100159    4.90999985    2.44000006
   19.44388771  110.26100159    4.90999985    2.42000008
   19.44777679  111.76999664    4.90999985    2.42000008
   19.45111275  121.77700043    4.90999985    2.42000008
   19.45444489  120.98200226    4.90999985    2.42000008
   19.45750046  114.45400238    4.90999985    2.42000008
   19.46083450  104.43900299    4.90999985    2.42000008
   19.46416664  111.68599701    4.90999985    2.42000008
   19.46666718  106.10399628    4.90999985    2.42000008
   19.46777916   99.84470367    4.90999985    2.44000006
   19.47083473  123.98200226    4.90999985    2.42000008
   19.47416687  109.62100220    4.90999985    2.44000006
   19.47722244  111.84100342    4.90999985    2.44000006
   19.48055649   98.61039734    4.90999985    2.44000006
   19.48666763   98.61039734    4.90999985    2.44000006
   19.49083328  107.43399811    4.90999985    2.42000008
   19.49388885  117.38800049    4.90999985    2.42000008
   19.49722290  109.00700378    4.90999985    2.42000008
   19.50000000  113.28199768    4.90999985    2.42000008
   19.50083351  112.08499908    4.90999985    2.44000006
   19.50388908  121.29499817    4.90999985    2.40000010
   19.50722313  113.29499817    4.90999985    2.42000008
   19.51027870  121.08699799    4.90999985    2.42000008
   19.51361084  103.49400330    4.90999985    2.42000008
   19.51694489  111.01699829    4.90999985    2.42000008
   19.52000046  108.01000214    4.90999985    2.42000008
   19.52333260  116.90299988    4.90999985    2.42000008
   19.52944374  116.90299988    4.90999985    2.44000006
   19.53361130  115.37300110    4.90999985    2.40000010
   19.53666687  108.63999939    4.90999985    2.42000008
   19.53999901  102.28600311    4.90999985    2.40000010
   19.54333305  104.81199646    4.90999985    2.40000010
   19.54638863  115.02899933    4.90999985    2.40000010
   19.54972076  118.77100372    4.90999985    2.40000010
   19.55305481  118.93499756    4.90999985    2.40000010
   19.55611038  111.22499847    4.90999985    2.40000010
   19.55944443  105.79900360    4.90999985    2.40000010
   19.56250000  116.72299957    4.90999985    2.40000010
   19.56583214  114.46800232    4.90999985    2.40000010
   19.56666756  120.47799683    4.90999985    2.40000010
   19.57222366  120.47799683    4.90999985    2.40000010
   19.57638931  117.91500092    4.90999985    2.40000010
   19.57972336  111.12799835    4.90999985    2.42000008
   19.58277893  119.44999695    4.90999985    2.42000008
   19.58611107  117.51699829    4.90999985    2.42000008
   19.58944511  121.39499664    4.90999985    2.40000010
   19.59277916  116.59600067    4.90999985    2.40000010
   19.59583473  122.70099640    4.90999985    2.42000008
   19.59916687  112.83499908    4.90999985    2.40000010
   19.60000038  109.48500061    4.90999985    2.42000008
   19.60277748  115.41899872    4.90999985    2.42000008
   19.60583305  123.30500031    4.90999985    2.40000010
   19.60916710  126.86599731    4.90999985    2.42000008
   19.61527824  126.86599731    4.90999985    2.40000010
   19.61916733  111.95300293    4.90999985    2.40000010
   19.62249947  115.85600281    4.90999985    2.40000010
   19.62583351  118.50099945    4.90999985    2.40000010
   19.62888908  110.16999817    4.90999985    2.40000010
   19.63222313  106.87599945    4.90999985    2.40000010
   19.63333321  116.11399841    4.90999985    2.42000008
   19.63583374  111.60500336    4.90999985    2.42000008
   19.63888931  108.53800201    4.90999985    2.40000010
   19.64222145  109.64299774    4.90999985    2.40000010
   19.64555550  109.32499695    4.90999985    2.40000010
   19.64861107  120.60500336    4.90999985    2.40000010
   19.65194321  111.42099762    4.90999985    2.40000010
   19.65805435  111.42099762    4.90999985    2.40000010
   19.66222191  104.19899750    4.90999985    2.40000010
   19.66527748  113.39600372    4.90999985    2.40000010
   19.66666603  121.87200165    4.90999985    2.40000010
   19.66916656  127.53900146    4.90999985    2.39000010
   19.67222214  118.88099670    4.90999985    2.40000010
   19.67555428  115.54000092    4.90999985    2.40000010
   19.67888832  117.56800079    4.90999985    2.40000010
   19.68194389  102.05999756    4.90999985    2.40000010
   19.68527603  110.85700226    4.90999985    2.40000010
   19.68833160  110.12000275    4.90999985    2.40000010
   19.69166565  121.79000092    4.90999985    2.39000010
   19.69499969  122.76100159    4.90999985    2.40000010
   19.70083427  122.76100159    4.90999985    2.39000010
   19.70499992  120.24600220    4.90999985    2.40000010
   19.70833397  111.55000305    4.90999985    2.39000010
   19.71138954  114.81600189    4.90999985    2.40000010
   19.71472359  114.59700012    4.90999985    2.39000010
   19.71777916  123.48400116    4.90999985    2.39000010
   19.72111130  109.00099945    4.90999985    2.40000010
   19.72444534  117.94000244    4.90999985    2.40000010
   19.72750092  115.09600067    4.90999985    2.40000010
   19.73083305  119.74400330    4.90999985    2.40000010
   19.73333359  119.29100037    4.90999985    2.40000010
   19.75388908  119.29100037    4.90999985    2.40000010
   19.75805473  113.39299774    4.90999985    2.39000010
   19.76138878  123.21399689    4.90999985    2.39000010
   19.76444435  118.56400299    4.90999985    2.39000010
   19.76666641  117.41899872    4.90999985    2.39000010
   19.76833344  116.85500336    4.90999985    2.40000010
   19.77166557  115.87699890    4.90999985    2.39000010
   19.77472115  111.36199951    4.90999985    2.39000010
   19.77805519  124.28199768    4.90999985    2.39000010
   19.78111076  125.76899719    4.90999985    2.39000010
   19.78444481  130.77699280    4.90999985    2.39000010
   19.78777695  120.06300354    4.90999985    2.39000010
   19.79083252  112.49700165    4.90999985    2.39000010
   19.79666710  112.49700165    4.90999985    2.39000010
   19.80083275  111.77300262    4.90999985    2.39000010
   19.80416679  117.54000092    4.90999985    2.39000010
   19.80722237  115.30699921    4.90999985    2.39000010
   19.81055450  116.16500092    4.90999985    2.39000010
   19.81388855  115.11000061    4.90999985    2.39000010
   19.81694603  116.88600159    4.90999985    2.39000010
   19.82027817  119.46600342    4.90999985    2.39000010
   19.82333374  111.54699707    4.90999985    2.39000010
   19.82666779  113.60199738    4.90999985    2.39000010
   19.83000183  115.94999695    4.90999985    2.39000010
   19.83305550  115.31500244    4.90999985    2.39000010
   19.83361244  130.88600159    4.90999985    2.39000010
   19.83972359  130.88600159    4.90999985    2.39000010
   19.84361267  122.44300079    4.90999985    2.36999989
   19.84694481  125.58399963    4.90999985    2.39000010
   19.85027885  118.33899689    4.90999985    2.36999989
   19.85333443  123.09500122    4.90999985    2.36999989
   19.85666656  115.53800201    4.90999985    2.36999989
   19.85972214  109.23100281    4.90999985    2.39000010
   19.86305618  116.62400055    4.90999985    2.36999989
   19.86638832  114.60700226    4.90999985    2.34999990
   19.86694527  119.85800171    4.90999985    2.36999989
   19.87000084  111.90899658    4.90999985    2.36999989
   19.87333298  114.61100006    4.90999985    2.34999990
   19.87638855  122.58799744    4.90999985    2.36999989
   19.88249969  122.58799744    4.90999985    2.34999990
   19.88666725  114.85299683    4.90999985    2.34999990
   19.88972282  121.86199951    4.90999985    2.34999990
   19.89305496  117.62799835    4.90999985    2.34999990
   19.89611053  122.50299835    4.90999985    2.34999990
   19.89944458  117.27700043    4.90999985    2.34999990
   19.90027809  110.44599915    4.90999985    2.34999990
   19.90305519  114.07800293    4.90999985    2.34999990
   19.90638924  116.74900055    4.90999985    2.34999990
   19.90944481  117.05300140    4.90999985    2.34999990
   19.91277695  124.50900269    4.90999985    2.34999990
   19.91611099  127.19200134    4.90999985    2.34999990
   19.91916656  124.36499786    4.90999985    2.34999990
   19.92527771  124.36499786    4.90999985    2.34999990
   19.92944336  118.10199738    4.90999985    2.32999992
   19.93277740  117.15399933    4.90999985    2.34999990
   19.93361092  115.76100159    4.90999985    2.34999990
   19.93638802  113.62599945    4.90999985    2.34999990
   19.93972206  122.79000092    4.90999985    2.34999990
   19.94277763  119.80300140    4.90999985    2.32999992
   19.94610977  118.37300110    4.90999985    2.34999990
   19.94944382  128.21200562    4.90999985    2.34999990
   19.95250130  113.38800049    4.90999985    2.34999990
   19.95583344  137.94099426    4.90999985    2.34999990
   19.95888901  134.40299988    4.90999985    2.32999992
   19.96222305  144.32600403    4.90999985    2.32999992
   19.96805573  144.32600403    4.90999985    2.34999990
   19.97222328  172.06799316    4.90999985    2.32999992
   19.97555542  124.71600342    4.90999985    2.34999990
   19.97861099  153.53399658    4.90999985    2.34999990
   19.98194504  227.28399658    4.90999985    2.32999992
   19.98527718   -1.00000000   -1.00000000   -1.00000000
   19.98833275   -1.00000000    4.90999985    2.32999992
   19.99166679   -1.00000000    4.90999985    2.32999992
   19.99472237   -1.00000000    4.90999985    2.32999992
   19.99805641   -1.00000000    4.90999985    2.32999992
   20.00166702   -1.00000000    4.90999985    2.32999992
   20.00472260   -1.00000000    4.90999985    2.32999992
   20.01499939   -1.00000000    4.90999985    2.32999992
   20.01833344   -1.00000000    4.90999985    2.30999994
   20.02138901   -1.00000000    4.90999985    2.32999992
   20.02472115   -1.00000000    4.90999985    2.32999992
   20.02777672   -1.00000000    4.90999985    2.32999992
   20.03111076   -1.00000000    4.90999985    2.32999992
   20.03472137   -1.00000000    4.90999985    2.32999992
   20.03777695   -1.00000000    4.90999985    2.32999992
   20.04111099   -1.00000000    4.90999985    2.32999992
   20.04416656   -1.00000000    4.90999985    2.32999992
   20.04749870   -1.00000000    4.90999985    2.32999992
   20.05777740   -1.00000000    4.90999985    2.32999992
   20.06110954   -1.00000000    4.90999985    2.32999992
   20.06416512   -1.00000000    4.90999985    2.32999992
   20.06777954   -1.00000000    4.90999985    2.32999992
   20.07083511   -1.00000000    4.90999985    2.30999994
   20.07416725   -1.00000000    4.90999985    2.32999992
   20.07722282   -1.00000000    4.90999985    2.32999992
   20.08055687   -1.00000000    4.90999985    2.32999992
   20.08388901   -1.00000000    4.90999985    2.32999992
   20.08694458   -1.00000000    4.90999985    2.30999994
   20.09027863   -1.00000000    4.90999985    2.32999992
   20.10083389   -1.00000000    4.90999985    2.32999992
   20.10388947   -1.00000000    4.90999985    2.30999994
   20.10722351   -1.00000000    4.90999985    2.30999994
   20.11027908   -1.00000000    4.90999985    2.30999994
   20.11361122   -1.00000000    4.90999985    2.30999994
   20.11666679   -1.00000000    4.90999985    2.30999994
   20.12000084   -1.00000000    4.90999985    2.30999994
   20.12305641   -1.00000000    4.90999985    2.28999996
   20.12638855   -1.00000000    4.90999985    2.30999994
   20.12972260   -1.00000000    4.90999985    2.28999996
   20.13277817   -1.00000000    4.90999985    2.28999996
   20.14361191   -1.00000000    4.90999985    2.28999996
   20.14666748   -1.00000000    4.90999985    2.30999994
   20.14999962   -1.00000000    4.90999985    2.30999994
   20.15305519   -1.00000000    4.90999985    2.30999994
   20.15638924   -1.00000000    4.90999985    2.30999994
   20.15972137   -1.00000000    4.90999985    2.28999996
   20.16277695   -1.00000000    4.90999985    2.28999996
   20.16611099   -1.00000000    4.90999985    2.28999996
   20.16972160   -1.00000000    4.90999985    2.28999996
   20.17277718   -1.00000000    4.90999985    2.30999994
   20.17611122   -1.00000000    4.90999985    2.28999996
   20.18638802   -1.00000000    4.90999985    2.28999996
   20.18972206   -1.00000000    4.90999985    2.28999996
   20.19277763   -1.00000000    4.90999985    2.26999998
   20.19610977   -1.00000000    4.90999985    2.26999998
   20.19916534   -1.00000000    4.90999985    2.28999996
   20.20277786   -1.00000000    4.90999985    2.28999996
   20.20583344   -1.00000000    4.90999985    2.28999996
   20.20916748   -1.00000000    4.90999985    2.28999996
   20.21222305   -1.00000000    4.90999985    2.28999996
   20.21555710   -1.00000000    4.90999985    2.28999996
   20.21888924   -1.00000000    4.90999985    2.26999998
   20.22916794   -1.00000000    4.90999985    2.26999998
   20.23250008   -1.00000000    4.90999985    2.26999998
   20.23611069   -1.00000000    4.90999985    2.26999998
   20.23916626   -1.00000000    4.90999985    2.26999998
   20.24250031   -1.00000000    4.90999985    2.26999998
   20.24555588   -1.00000000    4.90999985    2.26999998
   20.24888992   -1.00000000    4.90999985    2.26999998
   20.25222206   -1.00000000    4.90999985    2.26999998
   20.25527763   -1.00000000    4.90999985    2.26999998
   20.25861168   -1.00000000    4.90999985    2.26999998
   20.26166725   -1.00000000    4.90999985    2.25000000
   20.27194405   -1.00000000    4.90999985    2.25000000
   20.27527809   -1.00000000    4.90999985    2.25000000
   20.27861023   -1.00000000    4.90999985    2.25000000
   20.28166580   -1.00000000    4.90999985    2.25000000
   20.28499985   -1.00000000    4.90999985    2.25000000
   20.28805542   -1.00000000    4.90999985    2.25000000
   20.29138756   -1.00000000    4.90999985    2.25000000
   20.29444313   -1.00000000    4.90999985    2.25000000
   20.29777718   -1.00000000    4.90999985    2.25000000
   20.30138779   -1.00000000    4.90999985    2.25000000
   20.30444336   -1.00000000    4.90999985    2.26999998
   20.31499863   -1.00000000    4.90999985    2.25000000
   20.31805611   -1.00000000    4.90999985    2.25000000
   20.32139015   -1.00000000    4.90999985    2.25000000
   20.32444572   -1.00000000    4.90999985    2.25000000
   20.32777786   -1.00000000    4.90999985    2.25000000
   20.33111191   -1.00000000    4.90999985    2.25000000
   20.33444595   -1.00000000    4.90999985    2.25000000
   20.33750153   -1.00000000    4.90999985    2.25000000
   20.34083366   -1.00000000    4.90999985    2.25000000
   20.34416771   -1.00000000    4.90999985    2.25000000
   20.34722328   -1.00000000    4.90999985    2.25000000
   20.35777855   -1.00000000    4.90999985    2.25000000
   20.36111069   -1.00000000    4.90999985    2.25000000
   20.36416626   -1.00000000    4.90999985    2.25000000
   20.36777878   -1.00000000    4.90999985    2.25000000
   20.37083435   -1.00000000    4.90999985    2.23000002
   20.37416649   -1.00000000    4.90999985    2.25000000
   20.37750053   -1.00000000    4.90999985    2.25000000
   20.38055611   -1.00000000    4.90999985    2.23000002
   20.38388824   -1.00000000    4.90999985    2.23000002
   20.38694382   -1.00000000    4.90999985    2.23000002
   20.39027786   -1.00000000    4.90999985    2.23000002
   20.40055466   -1.00000000    4.90999985    2.23000002
   20.40388870   -1.00000000    4.90999985    2.23000002
   20.40694427   -1.00000000    4.90999985    2.23000002
   20.41027832   -1.00000000    4.90999985    2.23000002
   20.41333389   -1.00000000    4.90999985    2.23000002
   20.41666603   -1.00000000    4.90999985    2.23000002
   20.42000008   -1.00000000    4.90999985    2.21000004
   20.42305565   -1.00000000    4.90999985    2.23000002
   20.42638779   -1.00000000    4.90999985    2.21000004
   20.42944336   -1.00000000    4.90999985    2.21000004
   20.43277740   -1.00000000    4.90999985    2.21000004
   20.44333267   -1.00000000    4.90999985    2.21000004
   20.44666672   -1.00000000    4.90999985    2.21000004
   20.45000076   -1.00000000    4.90999985    2.21000004
   20.45305634   -1.00000000    4.90999985    2.21000004
   20.45639038   -1.00000000    4.90999985    2.21000004
   20.45944595   -1.00000000    4.90999985    2.23000002
   20.46277809   -1.00000000    4.90999985    2.21000004
   20.46583366   -1.00000000    4.90999985    2.21000004
   20.46944427   -1.00000000    4.90999985    2.21000004
   20.47249985   -1.00000000    4.90999985    2.21000004
   20.47583389   -1.00000000    4.90999985    2.21000004
   20.48638916   -1.00000000    4.90999985    2.21000004
   20.48944473   -1.00000000    4.90999985    2.21000004
   20.49277878   -1.00000000    4.90999985    2.19000006
   20.49583435   -1.00000000    4.90999985    2.19000006
   20.49916649   -1.00000000    4.90999985    2.19000006
   20.50277710   -1.00000000    4.90999985    2.21000004
   20.50583267   -1.00000000    4.90999985    2.21000004
   20.50916672   -1.00000000    4.90999985    2.19000006
   20.51250076   -1.00000000    4.90999985    2.19000006
   20.51555634   -1.00000000    4.90999985    2.19000006
   20.51888847   -1.00000000    4.90999985    2.19000006
   20.52916718   -1.00000000    4.90999985    2.19000006
   20.53222275   -1.00000000    4.90999985    2.19000006
   20.53583336   -1.00000000    4.90999985    2.19000006
   20.53888893   -1.00000000    4.90999985    2.19000006
   20.54222107   -1.00000000    4.90999985    2.19000006
   20.54555511   -1.00000000    4.90999985    2.19000006
   20.54861069   -1.00000000    4.90999985    2.19000006
   20.55194283   -1.00000000    4.90999985    2.17000008
   20.55499840   -1.00000000    4.90999985    2.17000008
   20.55833244   -1.00000000    4.90999985    2.17000008
   20.56138802   -1.00000000    4.90999985    2.17000008
   20.57194519   -1.00000000    4.90999985    2.17000008
   20.57527924   -1.00000000    4.90999985    2.17000008
   20.57833481   -1.00000000    4.90999985    2.17000008
   20.58166695   -1.00000000    4.90999985    2.17000008
   20.58472252   -1.00000000    4.90999985    2.15000010
   20.58805656   -1.00000000    4.90999985    2.15000010
   20.59138870   -1.00000000    4.90999985    2.17000008
   20.59444427   -1.00000000    4.90999985    2.15000010
   20.59777832   -1.00000000    4.90999985    2.17000008
   20.60111237   -1.00000000    4.90999985    2.15000010
   20.60416794   -1.00000000    4.90999985    2.17000008
   20.61472321   -1.00000000    4.90999985    2.15000010
   20.61805534   -1.00000000    4.90999985    2.15000010
   20.62138939   -1.00000000    4.90999985    2.15000010
   20.62444496   -1.00000000    4.90999985    2.17000008
   20.62777710   -1.00000000    4.90999985    2.15000010
   20.63083267   -1.00000000    4.90999985    2.15000010
   20.63444519   -1.00000000    4.90999985    2.15000010
   20.63777733   -1.00000000    4.90999985    2.15000010
   20.64083290   -1.00000000    4.90999985    2.15000010
   20.64416695   -1.00000000    4.90999985    2.15000010
   20.64722252   -1.00000000    4.90999985    2.13000011
   20.65777779   -1.00000000    4.90999985    2.13000011
   20.66083336   -1.00000000    4.90999985    2.13000011
   20.66416550   -1.00000000    4.90999985    2.11999989
   20.66777802   -1.00000000    4.90999985    2.11999989
   20.67111015   -1.00000000    4.90999985    2.11999989
   20.67416573   -1.00000000    4.90999985    2.11999989
   20.67749977   -1.00000000    4.90999985    2.11999989
   20.68055534   -1.00000000    4.90999985    2.11999989
   20.68388748   -1.00000000    4.90999985    2.11999989
   20.68694305   -1.00000000    4.90999985    2.11999989
   20.69027710   -1.00000000    4.90999985    2.11999989
   20.70055580   -1.00000000    4.90999985    2.11999989
   20.70361137   -1.00000000    4.90999985    2.09999990
   20.70694542   -1.00000000    4.90999985    2.11999989
   20.71027946   -1.00000000    4.90999985    2.11999989
   20.71333504   -1.00000000    4.90999985    2.09999990
   20.71666718   -1.00000000    4.90999985    2.09999990
   20.71972275   -1.00000000    4.90999985    2.09999990
   20.72305679   -1.00000000    4.90999985    2.09999990
   20.72611237   -1.00000000    4.90999985    2.09999990
   20.72944450   -1.00000000    4.90999985    2.09999990
