    HOUR (UT)   FLARE FACTOR    SKY TESTER    SUN TESTER
   12.43694496   -1.00000000   -1.00000000   -1.00000000
   12.46000004  170.20100403    0.00000000    0.00000000
   12.46333313  169.26499939    0.00000000    0.00000000
   12.46638870  167.20199585    0.00000000    0.00000000
   12.46972179  203.82800293    0.00000000    0.00000000
   12.47305489  178.48899841    0.00000000    0.00000000
   12.47611046  181.99000549    0.00000000    0.00000000
   12.48027706  181.99000549    0.00000000    0.00000000
   12.48444462  174.18400574    0.00000000    0.00000000
   12.48777771  157.01499939    0.00000000    0.00000000
   12.49083328  186.01100159    0.00000000    0.00000000
   12.49305534  175.67599487    0.00000000    0.00000000
   12.49472237  153.51199341    0.00000000    0.00000000
   12.49777794  177.33799744    0.00000000    0.00000000
   12.50111103  172.40299988    0.00000000    0.00000000
   12.50444412  160.35099792    0.86000001    2.01999998
   12.50749969  189.05299377    0.86000001    2.01999998
   12.51083374  170.02200317    0.86000001    2.01999998
   12.51388931  168.36900330    0.86000001    2.01999998
   12.51722240  151.90800476    0.86000001    2.01999998
   12.52305508  151.90800476    0.86000001    2.01999998
   12.52722168  157.82600403    0.86000001    2.01999998
   12.53055573  177.15899658    0.86000001    2.01999998
   12.53361130  156.15299988    0.86000001    2.01999998
   12.53694534  182.35699463    0.86000001    2.01999998
   12.54027843  170.65199280    0.86000001    2.01999998
   12.54333401  168.84300232    0.86000001    2.01999998
   12.54666710  153.91299438    0.86000001    2.01999998
   12.55000019  179.29100037    0.86000001    2.01999998
   12.55305576  176.97500610    0.86000001    2.01999998
   12.55638885  165.16900635    0.86000001    2.01999998
   12.55944443  149.34700012    0.86000001    2.01999998
   12.56000042  175.42199707    0.86000001    2.01999998
   12.56611156  175.42199707    0.86000001    2.01999998
   12.56999969  180.55299377    0.86000001    2.01999998
   12.57333374  170.66400146    0.86000001    2.01999998
   12.57666683  163.81500244    0.86000001    2.01999998
   12.57972240  163.22099304    0.86000001    2.01999998
   12.58305550  170.03999329    0.86000001    2.01999998
   12.58638859  150.42599487    0.86000001    2.01999998
   12.58944416  155.75799561    0.86000001    2.01999998
   12.59277725  158.36599731    0.86000001    2.01999998
   12.59333324  165.66799927    0.86000001    2.01999998
   12.59638882  162.10000610    0.86000001    2.01999998
   12.59972191  174.66000366    0.86000001    2.01999998
   12.60277843  174.75000000    0.86000001    2.01999998
   12.60888958  174.75000000    0.86000001    2.01999998
   12.61305618  168.58500671    0.86000001    2.01999998
   12.61666679  154.38600159    0.86000001    2.01999998
   12.61999989  148.10899353    0.86000001    2.01999998
   12.62305546  154.80900574    0.86000001    2.01999998
   12.62638855  150.07800293    0.86000001    2.01999998
   12.62694454  146.19500732    0.86000001    2.01999998
   12.62972260  166.43600464    0.86000001    2.01999998
   12.63305569  150.99400330    0.86000001    2.01999998
   12.63638878  149.51699829    0.86000001    2.01999998
   12.63944435  160.15899658    0.86000001    2.01999998
   12.64277744  154.77400208    0.86000001    2.01999998
   12.64611053  150.58700562    0.86000001    2.01999998
   12.65166664  150.58700562    0.86000001    2.01999998
   12.65583324  151.36599731    0.86000001    2.01999998
   12.65916634  154.04899597    0.86000001    2.01999998
   12.66027737  140.88499451    0.86000001    2.01999998
   12.66277695  137.11999512    0.86000001    2.01999998
   12.66583252  157.22900391    0.86000001    2.01999998
   12.66916656  153.09800720    0.86000001    2.01999998
   12.67222214  169.78999329    0.86000001    2.01999998
   12.67555618  151.36099243    0.86000001    2.01999998
   12.67888927  151.68699646    0.86000001    2.01999998
   12.68194485  150.66700745    0.86000001    2.01999998
   12.68527794  148.08200073    0.86000001    2.01999998
   12.68833351  156.60099792    0.86000001    2.01999998
   12.69444466  156.60099792    0.86000001    2.01999998
   12.69861126  138.60699463    0.86000001    2.01999998
   12.70194435  146.15299988    0.86000001    2.01999998
   12.70527744  144.20899963    0.86000001    2.01999998
   12.70861053  141.97399902    0.86000001    2.01999998
   12.71166611  142.33999634    0.86000001    2.01999998
   12.71500015  138.49200439    0.86000001    2.01999998
   12.71833324  158.23699951    0.86000001    2.01999998
   12.72138882  144.43800354    0.86000001    2.01999998
   12.72472191  154.89399719    0.86000001    2.01999998
   12.72694397  148.82200623    0.86000001    2.01999998
   12.72833252  132.67700195    0.86000001    2.01999998
   12.73166656  142.22200012    0.86000001    2.01999998
   12.73750019  142.22200012    0.86000001    2.01999998
   12.74138927  145.94099426    0.86000001    2.01999998
   12.74472237  145.75199890    0.86000001    2.01999998
   12.74805546  142.98500061    0.86000001    2.01999998
   12.75111103  168.97399902    0.86000001    2.01999998
   12.75444412  146.55900574    0.86000001    2.01999998
   12.75777817  139.68299866    0.86000001    2.01999998
   12.76027775  148.83099365    0.86000001    2.01999998
   12.76111126  147.13999939    0.86000001    2.01999998
   12.76444435  145.13099670    0.86000001    2.01999998
   12.76777744  150.94700623    0.86000001    2.01999998
   12.77083302  144.16999817    0.86000001    2.01999998
   12.77416611  133.49899292    0.86000001    2.01999998
   12.78027725  133.49899292    0.86000001    2.01999998
   12.78444481  155.85000610    0.86000001    2.01999998
   12.78750038  141.89799500    0.86000001    2.01999998
   12.79083347  142.63600159    0.86000001    2.01999998
   12.79361153  141.20300293    0.86000001    2.01999998
   12.79472256  136.69599915    0.86000001    2.01999998
   12.79777813  145.46299744    0.86000001    2.01999998
   12.80111122  129.04699707    0.86000001    2.01999998
   12.80416679  149.13600159    0.86000001    2.01999998
   12.80749989  138.10499573    0.86000001    2.01999998
   12.81083393  133.35699463    0.86000001    2.01999998
   12.81388950  130.70700073    0.86000001    2.01999998
   12.81722260  131.81100464    0.86000001    2.01999998
   12.82305527  131.81100464    0.86000001    2.01999998
   12.82722187  137.56700134    0.86000001    2.01999998
   12.83055592  138.65499878    0.86000001    2.01999998
   12.83361053  131.75500488    0.86000001    2.01999998
   12.83694458  148.16400146    0.86000001    2.01999998
   12.84000015  144.96499634    0.86000001    2.01999998
   12.84333324  139.80999756    0.86000001    2.01999998
   12.84666634  145.46800232    0.86000001    2.01999998
   12.84972191  138.35099792    0.86000001    2.01999998
   12.85305595  127.60800171    0.86000001    2.01999998
   12.85638905  148.14700317    0.86000001    2.01999998
   12.85944462  124.66200256    0.86000001    2.01999998
   12.86027813  130.44900513    0.86000001    2.01999998
   12.86583328  130.44900513    0.86000001    2.01999998
   12.86999989  131.80599976    0.86000001    2.01999998
   12.87333393  129.18299866    0.86000001    2.01999998
   12.87666702  126.34200287    0.86000001    2.01999998
   12.87972260  128.79499817    0.86000001    2.01999998
   12.88305569  125.70400238    0.86000001    2.01999998
   12.88611126  125.14399719    0.86000001    2.01999998
   12.88944435  128.13999939    0.86000001    2.01999998
   12.89277744  141.77600098    0.86000001    2.01999998
   12.89361095  126.55599976    0.86000001    2.01999998
   12.89638901  126.25000000    0.86000001    2.01999998
   12.89944458  126.22299957    0.86000001    2.01999998
   12.90277767  134.75999451    0.86000001    2.01999998
   12.90888882  134.75999451    0.86000001    2.01999998
   12.91277695  141.92399597    0.86000001    2.01999998
   12.91611099  131.50199890    0.86000001    2.01999998
   12.91944504  132.66999817    0.86000001    2.01999998
   12.92250061  135.06799316    0.86000001    2.01999998
   12.92583370  138.24099731    0.86000001    2.01999998
   12.92694473  131.02499390    0.86000001    2.01999998
   12.92972279  139.58200073    0.86000001    2.01999998
   12.93277836  138.99400330    0.86000001    2.01999998
   12.93611145  136.64100647    0.86000001    2.01999998
   12.93944454  134.03300476    0.86000001    2.01999998
   12.94250011  132.41900635    0.86000001    2.01999998
   12.94583321  144.93600464    0.86000001    2.01999998
   12.95166683  144.93600464    0.86000001    2.01999998
   12.95583344  143.03700256    0.86000001    2.01999998
   12.95888901  137.90899658    0.86000001    2.01999998
   12.96027756  136.32200623    0.86000001    2.01999998
   12.96277714  130.87800598    0.86000001    2.01999998
   12.96583271  135.58799744    0.86000001    2.01999998
   12.96916580  142.28999329    0.86000001    2.01999998
   12.97222137  131.52400208    0.86000001    2.01999998
   12.97555542  135.99899292    0.86000001    2.01999998
   12.97888851  140.07899475    0.86000001    2.01999998
   12.98194408  130.30599976    0.86000001    2.01999998
   12.98527813  139.73100281    0.86000001    2.01999998
   12.98861122  128.90400696    0.86000001    2.01999998
   12.99444485  128.90400696    0.86000001    2.01999998
   12.99861145  126.67900085    0.86000001    2.01999998
   13.00194454  132.02900696    0.86000001    2.01999998
   13.00500011  132.74699402    0.86000001    2.01999998
   13.00833321  124.62300110    0.86000001    2.01999998
   13.01138878  135.78999329    0.86000001    2.01999998
   13.01472187  133.33999634    0.86000001    2.01999998
   13.01805496  119.71299744    0.86000001    2.01999998
   13.02111053  130.45199585    0.86000001    2.01999998
   13.02444458  135.87300110    0.86000001    2.01999998
   13.02694416  129.20799255    0.86000001    2.01999998
   13.02805519  135.59399414    0.86000001    2.01999998
   13.03111076  125.78800201    0.86000001    2.01999998
   13.03722286  125.78800201    0.86000001    2.01999998
   13.04138947  128.92799377    0.86000001    2.01999998
   13.04472256  132.47500610    0.86000001    2.01999998
   13.04777813  133.50000000    0.86000001    2.01999998
   13.05111122  128.62399292    0.86000001    2.01999998
   13.05444431  127.90000153    0.86000001    2.01999998
   13.05749989  133.52299500    0.86000001    2.01999998
   13.06027794  125.00000000    0.86000001    2.01999998
   13.06138897  130.79699707    0.86000001    2.01999998
   13.06444454  133.10899353    0.86000001    2.01999998
   13.06777763  132.92199707    0.86000001    2.01999998
   13.07083321  123.76999664    0.86000001    2.01999998
   13.07416630  125.88400269    0.86000001    2.01999998
   13.08027744  125.88400269    0.86000001    2.01999998
   13.08416653  127.35099792    0.86000001    2.01999998
   13.08749962  126.56900024    0.86000001    2.01999998
   13.09083271  125.84100342    0.86000001    2.01999998
   13.09361076  130.92599487    0.86000001    2.01999998
   13.09444427  129.49099731    0.86000001    2.01999998
   13.09749985  121.49099731    0.86000001    2.01999998
   13.10083389  130.65899658    0.86000001    2.01999998
   13.10388947  130.31599426    0.86000001    2.01999998
   13.10722256  138.93200684    0.86000001    2.01999998
   13.11055565  122.32199860    0.86000001    2.01999998
   13.11361122  125.77600098    0.86000001    2.01999998
   13.11694431  125.54900360    0.86000001    2.01999998
   13.12305546  125.54900360    0.86000001    2.01999998
   13.12722206  126.53800201    0.86000001    2.01999998
   13.13027763  129.07499695    0.86000001    2.01999998
   13.13361073  125.75700378    0.86000001    2.01999998
   13.13666630  123.80200195    0.86000001    2.01999998
   13.14000034  130.15699768    0.86000001    2.01999998
   13.14333344  134.38699341    0.86000001    2.01999998
   13.14638901  128.27699280    0.86000001    2.01999998
   13.14972210  122.86199951    0.86000001    2.01999998
   13.15305519  127.81500244    0.86000001    2.01999998
   13.15611076  122.91100311    0.86000001    2.01999998
   13.15944386  120.60900116    0.86000001    2.01999998
   13.16027737  128.02099609    0.86000001    2.01999998
   13.16583252  128.02099609    0.86000001    2.01999998
   13.17000008  123.77999878    0.86000001    2.01999998
   13.17305565  132.58799744    0.86000001    2.01999998
   13.17638874  127.11299896    0.86000001    2.01999998
   13.17972279  124.89499664    0.86000001    2.01999998
   13.18277836  127.48899841    0.86000001    2.01999998
   13.18611145  125.09999847    0.86000001    2.01999998
   13.18944454  121.77799988    0.86000001    2.01999998
   13.19250011  129.90699768    0.86000001    2.01999998
   13.19361115  122.88700104    0.86000001    2.01999998
   13.19638920  136.74099731    0.86000001    2.01999998
   13.19944477  126.02100372    0.86000001    2.01999998
   13.20277786  133.47099304    0.86000001    2.01999998
   13.20861053  133.47099304    0.86000001    2.01999998
   13.21277714  125.84500122    0.86000001    2.01999998
   13.21611118  131.52200317    0.86000001    2.01999998
   13.21916580  123.94100189    0.86000001    2.01999998
   13.22249985  132.23599243    0.86000001    2.01999998
   13.22583294  122.71900177    0.86000001    2.01999998
   13.22694397  127.71399689    0.86000001    2.01999998
   13.22944355  130.31500244    0.86000001    2.01999998
   13.23249912  126.80899811    0.86000001    2.01999998
   13.23583317  131.50500488    0.86000001    2.01999998
   13.23916721  127.94400024    0.86000001    2.01999998
   13.24222279  127.08000183    0.86000001    2.01999998
   13.24555588  129.62300110    0.86000001    2.01999998
   13.25138855  129.62300110    0.86000001    2.01999998
   13.25555515  133.22500610    0.86000001    2.01999998
   13.25888920  127.76999664    0.86000001    2.01999998
   13.26027775  129.00199890    0.86000001    2.01999998
   13.26249981  131.30499268    0.86000001    2.01999998
   13.26555538  127.45800018    0.86000001    2.01999998
   13.26888847  127.79900360    0.86000001    2.01999998
   13.27222157  133.73800659    0.86000001    2.01999998
   13.27527714  135.29200745    0.86000001    2.01999998
   13.27861118  125.04000092    0.86000001    2.01999998
   13.28166676  125.04299927    0.86000001    2.01999998
   13.28500080  120.75900269    0.86000001    2.01999998
   13.28833389  119.88899994    0.86000001    2.01999998
   13.29444504  119.88899994    0.86000001    2.01999998
   13.29861164  117.71399689    0.86000001    2.01999998
   13.30166721  121.22000122    0.86000001    2.01999998
   13.30500031  125.18399811    0.86000001    2.01999998
   13.30805588  125.39199829    0.86000001    2.01999998
   13.31138897  118.99700165    0.86000001    2.01999998
   13.31472206  112.08200073    0.86000001    2.01999998
   13.31805515  126.65200043    0.86000001    2.01999998
   13.32138920  125.15499878    0.86000001    2.01999998
   13.32444477  118.05100250    0.86000001    2.01999998
   13.32694435  113.59500122    0.86000001    2.01999998
   13.32833290  119.06999969    0.86000001    2.01999998
   13.33138847  113.78500366    0.86000001    2.01999998
   13.33722210  113.78500366    0.86000001    2.01999998
   13.34138870  111.74400330    0.86000001    2.01999998
   13.34472179  119.15699768    0.86000001    2.01999998
   13.34777737  111.41200256    0.86000001    2.01999998
   13.35111141  118.21099854    0.86000001    2.01999998
   13.35416698  119.33000183    0.86000001    2.01999998
   13.35750008  119.32800293    0.86000001    2.01999998
   13.36027813  115.98300171    0.86000001    2.01999998
   13.36111164  121.86299896    0.86000001    2.01999998
   13.36416721  120.09100342    0.86000001    2.01999998
   13.36750031  113.67099762    0.86000001    2.01999998
   13.37083340  118.95300293    0.86000001    2.01999998
   13.37388897  124.02300262    0.86000001    2.01999998
   13.38000011  124.02300262    0.86000001    2.01999998
   13.38416672  116.34300232    0.86000001    2.01999998
   13.38749981  112.32800293    0.86000001    2.01999998
   13.39055538  116.27700043    0.86000001    2.01999998
   13.39361095  109.05699921    0.86000001    2.01999998
   13.39444447  113.46199799    0.86000001    2.01999998
   13.39750004  112.93800354    0.86000001    2.01999998
   13.40083313  116.10500336    0.86000001    2.01999998
   13.40416622  119.12799835    0.86000001    2.01999998
   13.40722179  119.09700012    0.86000001    2.01999998
   13.41055489  123.17800140    0.86000001    2.01999998
   13.41361046  122.39099884    0.86000001    2.01999998
   13.41694450  114.63400269    0.86000001    2.01999998
   13.42277813  114.63400269    0.86000001    2.01999998
   13.42694473  117.91799927    0.86000001    2.01999998
   13.43027782  117.72499847    0.86000001    2.01999998
   13.43361092  115.13500214    0.86000001    2.01999998
   13.43666649  116.84799957    0.86000001    2.01999998
   13.44000053  112.91799927    0.86000001    2.01999998
   13.44305515  112.08399963    0.86000001    2.01999998
   13.44638920  116.89499664    0.86000001    2.01999998
   13.44972229  126.14399719    0.86000001    2.01999998
   13.45277786  123.62000275    0.86000001    2.01999998
   13.45611095  111.29399872    0.86000001    2.01999998
   13.45944405  115.64600372    0.86000001    2.01999998
   13.46027756  111.40299988    0.86000001    2.01999998
   13.48111057  111.40299988    0.86000001    2.01999998
   13.48527813  116.06400299    0.86000001    2.01999998
   13.48833370  111.91899872    0.86000001    2.01999998
   13.49166679  115.56999969    0.86000001    2.01999998
   13.49361134  116.75599670    0.86000001    2.01999998
   13.49527836  113.95999908    0.86000001    2.01999998
   13.49833393  114.73600006    0.86000001    2.01999998
   13.50166702  116.90100098    0.86000001    2.01999998
   13.50500011  107.84899902    0.86000001    2.01999998
   13.50805569  113.66899872    0.86000001    2.01999998
   13.51138878  117.12100220    0.86000001    2.01999998
   13.51472187  116.00000000    0.86000001    2.01999998
   13.51777744  120.26599884    0.86000001    2.01999998
   13.52388859  120.26599884    0.86000001    2.01999998
   13.52777767  114.14199829    0.86000001    2.01999998
   13.53111076  116.03099823    0.86000001    2.01999998
   13.53444481  112.69100189    0.86000001    2.01999998
   13.53750038  115.59999847    0.86000001    2.01999998
   13.54083347  114.82099915    0.86000001    2.01999998
   13.54416752  112.10199738    0.86000001    2.01999998
   13.54722309  110.81900024    0.86000001    2.01999998
   13.55055618  112.73300171    0.86000001    2.01999998
   13.55361176  110.99700165    0.86000001    2.01999998
   13.55694485  116.05899811    0.86000001    2.01999998
   13.56027794  110.05500031    0.86000001    2.01999998
   13.56083393  109.12599945    0.86000001    2.01999998
   13.56666660  109.12599945    0.86000001    2.01999998
   13.57083321  112.83000183    0.86000001    2.01999998
   13.57388878   96.87200165    0.86000001    2.01999998
   13.57722187  109.74099731    0.86000001    2.01999998
   13.58055592  108.34999847    0.86000001    2.01999998
   13.58361053  109.33799744    0.86000001    2.01999998
   13.58694458  118.63899994    0.86000001    2.01999998
   13.59000015  110.84700012    0.86000001    2.01999998
   13.59333324  113.43599701    0.86000001    2.01999998
   13.59416676  103.55400085    0.86000001    2.01999998
   13.59694386  115.21299744    0.86000001    2.01999998
   13.60027790  109.96099854    0.86000001    2.01999998
   13.60361195  113.16100311    0.86000001    2.01999998
   13.60944462  113.16100311    0.86000001    2.01999998
   13.61361122  111.65599823    0.86000001    2.01999998
   13.61694431  107.11499786    0.86000001    2.01999998
   13.61999989  102.62799835    0.86000001    2.01999998
   13.62333393  115.49800110    0.86000001    2.01999998
   13.62638855  108.53700256    0.86000001    2.01999998
   13.62750053  107.63500214    0.86000001    2.01999998
   13.63000011  108.77200317    0.86000001    2.01999998
   13.63333321  111.18399811    0.86000001    2.01999998
   13.63666630  106.61900330    0.86000001    2.01999998
   13.63972187  107.73200226    0.86000001    2.01999998
   13.64305496  110.47000122    0.86000001    2.01999998
   13.64611053  106.04100037    0.86000001    2.01999998
   13.65222168  106.04100037    0.86000001    2.01999998
   13.65638828  103.62100220    0.86000001    2.01999998
   13.65972137  102.44400024    0.86000001    2.01999998
   13.66083336  100.58200073    0.86000001    2.01999998
   13.66333294   98.73590088    0.86000001    2.01999998
   13.66666698  104.36499786    0.86000001    2.01999998
   13.67000008  101.45300293    0.86000001    2.01999998
   13.67305565  104.75700378    0.86000001    2.01999998
   13.67638874  104.33300018    0.86000001    2.01999998
   13.67944431  104.13700104    0.86000001    2.01999998
   13.68277836  102.34200287    0.86000001    2.01999998
   13.68611145   98.91439819    0.86000001    2.01999998
   13.68916702  107.41600037    0.86000001    2.01999998
   13.69527817  107.41600037    0.86000001    2.01999998
   13.69916630  105.19200134    0.86000001    2.01999998
   13.70249939  103.02799988    0.86000001    2.01999998
   13.70583344  103.54399872    0.86000001    2.01999998
   13.70888901   98.03320313    0.86000001    2.01999998
   13.71222210   92.78029633    0.86000001    2.01999998
   13.71555519  100.08699799    0.86000001    2.01999998
   13.71861076   99.34179688    0.86000001    2.01999998
   13.72194386   95.99160004    0.86000001    2.01999998
   13.72499943   92.44599915    0.86000001    2.01999998
   13.72749996  106.84200287    0.86000001    2.01999998
   13.72861099  103.59700012    0.86000001    2.01999998
   13.73194408  103.91100311    0.86000001    2.01999998
   13.73805618  103.91100311    0.86000001    2.01999998
   13.74222279  102.97000122    0.86000001    2.01999998
   13.74527836  106.97000122    0.86000001    2.01999998
   13.74861145   98.73829651    0.86000001    2.01999998
   13.75194454   96.22910309    0.86000001    2.01999998
   13.75500011   96.97969818    0.86000001    2.01999998
   13.75833321  102.33699799    0.86000001    2.01999998
   13.76083374  102.17800140    0.86000001    2.01999998
   13.76194477  109.52700043    0.86000001    2.01999998
   13.76527786  109.32299805    0.86000001    2.01999998
   13.76861095  107.83599854    0.86000001    2.01999998
   13.77166653  105.57800293    0.86000001    2.01999998
   13.77499962   98.08740234    0.86000001    2.01999998
   13.78083324   98.08740234    0.86000001    2.01999998
   13.78500080  100.51399994    0.86000001    2.01999998
   13.78833389  101.37200165    0.86000001    2.01999998
   13.79138947   96.92620087    0.86000001    2.01999998
   13.79416752  107.64600372    0.86000001    2.01999998
   13.79500008  105.57499695    0.86000001    2.01999998
   13.79833412  115.97899628    0.86000001    2.01999998
   13.80166721  105.02200317    0.86000001    2.01999998
   13.80472279  114.08200073    0.86000001    2.01999998
   13.80805588  119.02300262    0.86000001    2.01999998
   13.81111145  110.14700317    0.86000001    2.01999998
   13.81444454  110.78099823    0.86000001    2.01999998
   13.81777763  108.64800262    0.86000001    2.01999998
   13.82361126  108.64800262    0.86000001    2.01999998
   13.82805538  112.04199982    0.86000001    2.01999998
   13.83111095  102.91899872    0.86000001    2.01999998
   13.83444405  105.20200348    0.86000001    2.01999998
   13.83777714  103.12000275    0.86000001    2.01999998
   13.84083271  108.91799927    0.86000001    2.01999998
   13.84416676  107.33200073    0.86000001    2.01999998
   13.84722233  110.61900330    0.86000001    2.01999998
   13.85055637   98.47989655    0.86000001    2.01999998
   13.85388947  119.99600220    0.86000001    2.01999998
   13.85694504  117.19999695    0.86000001    2.01999998
   13.86027813  113.06400299    0.86000001    2.01999998
   13.86083412  118.18699646    0.86000001    2.01999998
   13.86638927  118.18699646    0.86000001    2.01999998
   13.87055588  120.73999786    0.86000001    2.01999998
   13.87388897  111.14600372    0.86000001    2.01999998
   13.87722206  120.41999817    0.86000001    2.01999998
   13.88027763  113.52200317    0.86000001    2.01999998
   13.88361073  121.48799896    0.86000001    2.01999998
   13.88666630  114.53800201    0.86000001    2.01999998
   13.89000034  126.56700134    0.86000001    2.01999998
   13.89333344  114.71199799    0.86000001    2.01999998
   13.89416695  126.84300232    0.86000001    2.01999998
   13.89694405  118.91899872    0.86000001    2.01999998
   13.89999962  131.60299683    0.86000001    2.01999998
   13.90333271  116.92400360    0.86000001    2.01999998
   13.90944386  116.92400360    0.86000001    2.01999998
   13.91361046  119.79100037    0.86000001    2.01999998
   13.91666698  126.02400208    0.86000001    2.01999998
   13.92000008  124.37000275    0.86000001    2.01999998
   13.92305565  131.61700439    0.86000001    2.01999998
   13.92638874  123.98300171    0.86000001    2.01999998
   13.92750072  112.47399902    0.86000001    2.01999998
   13.93027782  118.69300079    0.86000001    2.01999998
   13.93333340  117.73600006    0.86000001    2.01999998
   13.93666649  112.49600220    0.86000001    2.01999998
   13.94000053  118.77700043    0.86000001    2.01999998
   13.94305515  117.23000336    0.86000001    2.01999998
   13.94638920  120.05000305    0.86000001    2.01999998
   13.95222187  120.05000305    0.86000001    2.01999998
   13.95638847  103.29399872    0.86000001    2.01999998
   13.95944405  116.28099823    0.86000001    2.01999998
   13.96083355  115.44699860    0.86000001    2.01999998
   13.96333313  114.90799713    0.86000001    2.01999998
   13.96638870  109.21099854    0.86000001    2.01999998
   13.96972179  117.77700043    0.86000001    2.01999998
   13.97277737  115.68599701    0.86000001    2.01999998
   13.97611046  117.39299774    0.86000001    2.01999998
   13.97944355  113.30300140    0.86000001    2.01999998
   13.98249912  123.31300354    0.86000001    2.01999998
   13.98583317  122.22200012    0.86000001    2.01999998
   13.98916721  122.79000092    0.86000001    2.01999998
   13.99499989  122.79000092    0.86000001    2.01999998
   13.99916649  118.58999634    0.86000001    2.01999998
   14.00249958  111.55000305    0.86000001    2.01999998
   14.00555515  114.05300140    0.86000001    2.01999998
   14.00888920  113.79000092    0.86000001    2.01999998
   14.01222229  111.13500214    0.86000001    2.01999998
   14.01527786  111.62500000    0.86000001    2.01999998
   14.01861095  122.77400208    0.86000001    2.01999998
   14.02166653  109.42700195    0.86000001    2.01999998
   14.02499962  119.65499878    0.86000001    2.01999998
   14.02750015  112.16000366    0.86000001    2.01999998
   14.02888870  112.87100220    0.86000001    2.01999998
   14.03194427  112.95700073    0.86000001    2.01999998
   14.03777790  112.95700073    0.86000001    2.01999998
   14.04194450  124.56500244    0.86000001    2.01999998
   14.04527855  114.82199860    0.86000001    2.01999998
   14.04861164  119.99299622    0.86000001    2.01999998
   14.05166721  110.98100281    0.86000001    2.01999998
   14.05500031  113.24500275    0.86000001    2.01999998
   14.05805588  115.68499756    0.86000001    2.01999998
   14.06083393  117.76499939    0.86000001    2.01999998
   14.06194496  117.67500305    0.86000001    2.01999998
   14.06500053  119.22000122    0.86000001    2.01999998
   14.06833363  109.63800049    0.86000001    2.01999998
   14.07166672  120.03900146    0.86000001    2.01999998
   14.07472229  116.57299805    0.86000001    2.01999998
   14.08083344  116.57299805    0.86000001    2.01999998
   14.08500004  118.20600128    0.86000001    2.01999998
   14.08805561  115.33100128    0.86000001    2.01999998
   14.09138870  119.29199982    0.86000001    2.01999998
   14.09416676  115.87799835    0.86000001    2.01999998
   14.09499931  114.74600220    0.86000001    2.01999998
   14.09805489  117.87100220    0.86000001    2.01999998
   14.10138893  113.03299713    0.86000001    2.01999998
   14.10444450  115.46499634    0.86000001    2.01999998
   14.10777855  111.33799744    0.86000001    2.01999998
   14.11111164  117.85399628    0.86000001    2.01999998
   14.11416721  118.07199860    0.86000001    2.01999998
   14.11750031  116.56999969    0.86000001    2.01999998
   14.12361145  116.56999969    0.86000001    2.01999998
   14.12777805  112.79799652    0.86000001    2.01999998
   14.13083363  119.21299744    0.86000001    2.01999998
   14.13416672  111.48600006    0.86000001    2.01999998
   14.13749981  117.89299774    0.86000001    2.01999998
   14.14055538  109.35299683    0.86000001    2.01999998
   14.14388847  110.00199890    0.86000001    2.01999998
   14.14722252  111.55400085    0.86000001    2.01999998
   14.15027714  106.23000336    0.86000001    2.01999998
   14.15361118  119.43299866    0.86000001    2.01999998
   14.15666676  102.63500214    0.86000001    2.01999998
   14.15999985  111.53600311    0.86000001    2.01999998
   14.16083336  112.31099701    0.86000001    2.01999998
   14.16638851  112.31099701    0.86000001    2.01999998
   14.17055607  114.91300201    0.86000001    2.01999998
   14.17388916  101.22499847    0.86000001    2.01999998
   14.17694473  107.37500000    0.86000001    2.01999998
   14.18027782  111.08799744    0.86000001    2.01999998
   14.18361092  110.10600281    0.86000001    2.01999998
   14.18666649  114.08699799    0.86000001    2.01999998
   14.19000053  116.74800110    0.86000001    2.01999998
   14.19305515  106.40799713    0.86000001    2.01999998
   14.19416714  117.17400360    0.86000001    2.01999998
   14.19694424  107.39099884    0.86000001    2.01999998
   14.19999981  112.09400177    0.86000001    2.01999998
   14.20333290  102.92400360    0.86000001    2.01999998
   14.20916653  102.92400360    0.86000001    2.01999998
   14.21333313  115.64700317    0.86000001    2.01999998
   14.21666622  110.44599915    0.86000001    2.01999998
   14.21999931  111.37699890    0.86000001    2.01999998
   14.22305489  110.04199982    0.86000001    2.01999998
   14.22638798  111.71099854    0.86000001    2.01999998
   14.22749996  113.62500000    0.86000001    2.01999998
   14.22999954  114.78600311    0.86000001    2.01999998
   14.23305511  113.53600311    0.86000001    2.01999998
   14.23638916  112.65000153    0.86000001    2.01999998
   14.23972225  114.10600281    0.86000001    2.01999998
   14.24277782  106.13999939    0.86000001    2.01999998
   14.24611092  118.82099915    0.86000001    2.01999998
   14.25222206  118.82099915    0.86000001    2.01999998
   14.25638866  104.82199860    0.86000001    2.01999998
   14.25944424  104.94300079    0.86000001    2.01999998
   14.26083374  111.17500305    0.86000001    2.01999998
   14.26333332  114.07599640    0.86000001    2.01999998
   14.26638889  107.69999695    0.86000001    2.01999998
   14.26972198  112.95999908    0.86000001    2.01999998
   14.27305508  112.60399628    0.86000001    2.01999998
   14.27611065  108.80699921    0.86000001    2.01999998
   14.27944374  110.32800293    0.86000001    2.01999998
   14.28249931  112.52899933    0.86000001    2.01999998
   14.28583336  111.88600159    0.86000001    2.01999998
   14.28916740  119.35700226    0.86000001    2.01999998
   14.29500008  119.35700226    0.86000001    2.01999998
   14.29916668  108.23300171    0.86000001    2.01999998
   14.30222225  103.55599976    0.86000001    2.01999998
   14.30555534  113.66999817    0.86000001    2.01999998
   14.30888939  112.58200073    0.86000001    2.01999998
   14.31194496  109.04900360    0.86000001    2.01999998
   14.31527805  100.15200043    0.86000001    2.01999998
   14.31861115  111.60199738    0.86000001    2.01999998
   14.32166672  118.43399811    0.86000001    2.01999998
   14.32499981  118.49700165    0.86000001    2.01999998
   14.32750034  117.70400238    0.86000001    2.01999998
   14.32861137  110.65699768    0.86000001    2.01999998
   14.33166695  116.32499695    0.86000001    2.01999998
   14.33777714  116.32499695    0.86000001    2.01999998
   14.34194374  107.67500305    0.86000001    2.01999998
   14.34527779  108.35800171    0.86000001    2.01999998
   14.34833336  103.26699829    0.86000001    2.01999998
   14.35166740  112.19100189    0.86000001    2.01999998
   14.35500050  108.25700378    0.86000001    2.01999998
   14.35805607  110.35099792    0.86000001    2.01999998
   14.36083412  107.11499786    0.86000001    2.01999998
   14.36194515  109.53399658    0.86000001    2.01999998
   14.36500072  115.83899689    0.86000001    2.01999998
   14.36833382  110.20200348    0.86000001    2.01999998
   14.37166691  104.68099976    0.86000001    2.01999998
   14.37472248  108.68199921    0.86000001    2.01999998
   14.38055611  108.68199921    0.86000001    2.01999998
   14.38472176  109.61000061    0.86000001    2.01999998
   14.38805580  104.52600098    0.86000001    2.01999998
   14.39138889  102.91600037    0.86000001    2.01999998
   14.39416695  104.33899689    0.86000001    2.01999998
   14.39499950  109.11000061    0.86000001    2.01999998
   14.39805508  100.12200165    0.86000001    2.01999998
   14.40138817   95.81069946    0.86000001    2.01999998
   14.40472221   95.77290344    0.86000001    2.01999998
   14.40777779  103.55000305    0.86000001    2.01999998
   14.41111088  104.36100006    0.86000001    2.01999998
   14.41444397  112.25800323    0.86000001    2.01999998
   14.41750050  108.15699768    0.86000001    2.01999998
   14.42361164  108.15699768    0.86000001    2.01999998
   14.42777824  108.02799988    0.86000001    2.01999998
   14.43083382  111.51100159    0.86000001    2.01999998
   14.43416691  113.01899719    0.86000001    2.01999998
   14.43722248  104.97000122    0.86000001    2.01999998
   14.44055557  102.97599792    0.86000001    2.01999998
   14.44388866  108.48999786    0.86000001    2.01999998
   14.44694424  109.18499756    0.86000001    2.01999998
   14.45027733  111.01100159    0.86000001    2.01999998
   14.45361137  106.82099915    0.86000001    2.01999998
   14.45666695  106.45400238    0.86000001    2.01999998
   14.46000004  109.31800079    0.86000001    2.01999998
   14.46083355  112.41600037    0.86000001    2.01999998
   14.46638870  112.41600037    0.86000001    2.01999998
   14.47055531  104.06099701    0.86000001    2.01999998
   14.47361088   97.57330322    0.86000001    2.01999998
   14.47694397   98.34999847    0.86000001    2.01999998
   14.49444485  104.70400238    0.86000001    2.01999998
   14.49694443  107.11799622    0.86000001    2.01999998
   14.50027752   96.31659698    0.86000001    2.01999998
   14.50333309  102.74500275    0.86000001    2.01999998
   14.50944424  102.74500275    0.86000001    2.01999998
   14.51361084   99.25610352    0.86000001    2.01999998
   14.51666641   92.21019745    0.86000001    2.01999998
   14.51999950  100.72699738    0.86000001    2.01999998
   14.52333355  101.98100281    0.86000001    2.01999998
   14.52638817   99.66629791    0.86000001    2.01999998
   14.52777767   97.48110199    0.86000001    2.01999998
   14.53027725  100.71900177    0.86000001    2.01999998
   14.53333378   95.91819763    0.86000001    2.01999998
   14.53666687  105.45300293    0.86000001    2.01999998
   14.54000092   -1.00000000    0.86000001    2.01999998
   14.54305553   -1.00000000    0.86000001    2.01999998
   14.54638958   -1.00000000    0.86000001    2.01999998
   14.55611134   -1.00000000    0.86000001    2.01999998
   14.55944443   -1.00000000    0.86000001    2.01999998
   14.56305599   -1.00000000    0.86000001    2.01999998
   14.56638908   -1.00000000    0.86000001    2.01999998
   14.56972218   -1.00000000    0.86000001    2.01999998
   14.57277775   -1.00000000    0.86000001    2.01999998
   14.57611084   89.17430115    0.86000001    2.01999998
   14.57944393   80.74639893    0.86000001    2.01999998
   14.58249950   91.87850189    0.86000001    2.01999998
   14.58666611   87.29149628    0.86000001    2.01999998
   14.58972168   93.46559906    0.86000001    2.01999998
   14.59499931   93.46559906    0.86000001    2.01999998
   14.59916592  105.93699646    0.86000001    2.01999998
   14.60249996  100.11100006    0.86000001    2.01999998
   14.60555553  109.43399811    0.86000001    2.01999998
   14.60888958   97.69840240    0.86000001    2.01999998
   14.61222267  100.20800018    0.86000001    2.01999998
   14.61527824  102.18000031    0.86000001    2.01999998
   14.61861134   98.98100281    0.86000001    2.01999998
   14.62194443   95.33930206    0.86000001    2.01999998
   14.62500000  100.13600159    0.86000001    2.01999998
   14.62777805   96.44799805    0.86000001    2.01999998
   14.62888908   99.03019714    0.86000001    2.01999998
   14.63194466  104.07599640    0.86000001    2.01999998
   14.63805580  104.07599640    0.86000001    2.01999998
   14.64222240   94.61319733    0.86000001    2.01999998
   14.64527798   94.76390076    0.86000001    2.01999998
   14.64861107   96.09429932    0.86000001    2.01999998
   14.65166664  100.31600189    0.86000001    2.01999998
   14.65499973   96.81749725    0.86000001    2.01999998
   14.65833282   91.07150269    0.86000001    2.01999998
   14.66111088   98.46910095    0.86000001    2.01999998
   14.66194439   93.15869904    0.86000001    2.01999998
   14.66499996   99.65249634    0.86000001    2.01999998
   14.66833401  107.88999939    0.86000001    2.01999998
   14.67166710  102.31500244    0.86000001    2.01999998
   14.67472267  100.28800201    0.86000001    2.01999998
   14.68083382  100.28800201    0.86000001    2.01999998
   14.68500042  100.05899811    0.86000001    2.01999998
   14.68805599  111.44400024    0.86000001    2.01999998
   14.69138908   93.29010010    0.86000001    2.01999998
   14.69444466   92.82700348    0.86000001    2.01999998
   14.69499969   99.66380310    0.86000001    2.01999998
   14.69833374  110.19999695    0.86000001    2.01999998
   14.70138836  106.89199829    0.86000001    2.01999998
   14.70472240  107.51999664    0.86000001    2.01999998
   14.70805550  107.95300293    0.86000001    2.01999998
   14.71111107  104.94200134    0.86000001    2.01999998
   14.71444416  102.91600037    0.86000001    2.01999998
   14.71749973  106.66400146    0.86000001    2.01999998
   14.72361088  106.66400146    0.86000001    2.01999998
   14.72777748  110.47599792    0.86000001    2.01999998
   14.72833252  107.26699829    0.86000001    2.01999998
   14.73138809  110.37000275    0.86000001    2.01999998
   14.73472214  106.40499878    0.86000001    2.01999998
   14.73805618  107.89299774    0.86000001    2.01999998
   14.74111176  100.62799835    0.86000001    2.01999998
   14.74444485  108.50900269    0.86000001    2.01999998
   14.74777794  108.68199921    0.86000001    2.01999998
   14.75083351  106.60900116    0.86000001    2.01999998
   14.75416660   98.76080322    0.86000001    2.01999998
   14.75722218  106.98899841    0.86000001    2.01999998
   14.76055527  104.06400299    0.86000001    2.01999998
   14.76111126  101.85299683    0.86000001    2.01999998
   14.76638889  101.85299683    0.86000001    2.01999998
   14.77055550  103.82499695    0.86000001    2.01999998
   14.77388859  106.92199707    0.86000001    2.01999998
   14.77694416  105.50000000    0.86000001    2.01999998
   14.78027725  106.07199860    0.86000001    2.01999998
   14.78361130  101.95099640    0.86000001    2.01999998
   14.78666687  104.50099945    0.86000001    2.01999998
   14.79000092  104.15899658    0.86000001    2.01999998
   14.79333401  106.42500305    0.86000001    2.01999998
   14.79444504  100.83000183    0.86000001    2.01999998
   14.79694462  101.22899628    0.86000001    2.01999998
   14.80027771  108.19200134    0.86000001    2.01999998
   14.80333328  101.08000183    0.86000001    2.01999998
   14.80916691  101.08000183    0.86000001    2.01999998
   14.81333351  111.23300171    0.86000001    2.01999998
   14.81666660   98.62470245    0.86000001    2.01999998
   14.81999969  103.91500092    0.86000001    2.01999998
   14.82305527  109.12200165    0.86000001    2.01999998
   14.82638836  104.34999847    0.86000001    2.01999998
   14.82777786  103.37999725    0.86000001    2.01999998
   14.82999992  107.78399658    0.86000001    2.01999998
   14.83333302  102.50499725    0.86000001    2.01999998
   14.83638859  106.38300323    0.86000001    2.01999998
   14.83972168  106.45999908    0.86000001    2.01999998
   14.84277725   99.07099915    0.86000001    2.01999998
   14.84611034  104.72200012    0.86000001    2.01999998
   14.85222244  104.72200012    0.86000001    2.01999998
   14.85638905  103.65200043    0.86000001    2.01999998
   14.85944462  101.18499756    0.86000001    2.01999998
   14.86111164  110.27700043    0.86000001    2.01999998
   14.86305618  110.39499664    0.86000001    2.01999998
   14.86638927  110.76200104    0.86000001    2.01999998
   14.86944485  104.51100159    0.86000001    2.01999998
   14.87277794   99.58010101    0.86000001    2.01999998
   14.87583351  104.28299713    0.86000001    2.01999998
   14.87916660  100.88200378    0.86000001    2.01999998
   14.88249969  111.78299713    0.86000001    2.01999998
   14.88555527  101.86299896    0.86000001    2.01999998
   14.88888836  104.42199707    0.86000001    2.01999998
   14.89499950  104.42199707    0.86000001    2.01999998
   14.89916611  109.04699707    0.86000001    2.01999998
   14.90222168  115.39600372    0.86000001    2.01999998
   14.90555477  109.27799988    0.86000001    2.01999998
   14.90888882  106.23999786    0.86000001    2.01999998
   14.91194439  104.46499634    0.86000001    2.01999998
   14.91527748  103.59300232    0.86000001    2.01999998
   14.91861153  106.41200256    0.86000001    2.01999998
   14.92166710   98.61450195    0.86000001    2.01999998
   14.92500019  107.96700287    0.86000001    2.01999998
   14.92777824  103.83399963    0.86000001    2.01999998
   14.92861176  109.44100189    0.86000001    2.01999998
   14.93166733  107.75499725    0.86000001    2.01999998
   14.93777752  107.75499725    0.86000001    2.01999998
   14.94194412  106.09400177    0.86000001    2.01999998
   14.94527817  102.58999634    0.86000001    2.01999998
   14.94833374   99.88490295    0.86000001    2.01999998
   14.95166683   97.53610229    0.86000001    2.01999998
   14.95499992  104.67299652    0.86000001    2.01999998
   14.95805550  101.31400299    0.86000001    2.01999998
   14.96111107  103.71199799    0.86000001    2.01999998
   14.96166611  101.35700226    0.86000001    2.01999998
   14.96500015   94.72160339    0.86000001    2.01999998
   14.96805477  105.62999725    0.86000001    2.01999998
   14.97138882  106.27600098    0.86000001    2.01999998
   14.97472191   97.78079987    0.86000001    2.01999998
   14.98055553   97.78079987    0.86000001    2.01999998
   14.98472214   99.80989838    0.86000001    2.01999998
   14.98805618  102.26000214    0.86000001    2.01999998
   14.99138927   95.14360046    0.86000001    2.01999998
   14.99444485   98.15630341    0.86000001    2.01999998
   14.99499989  102.23799896    0.86000001    2.01999998
   14.99833393  102.95800018    0.86000001    2.01999998
   15.00138855   98.63819885    0.86000001    2.01999998
   15.00472260  101.32399750    0.86000001    2.01999998
   15.00777817   97.84989929    0.86000001    2.01999998
   15.01111126  106.70300293    0.86000001    2.01999998
   15.01444435  102.82299805    0.86000001    2.01999998
   15.01749992  107.87000275    0.86000001    2.01999998
   15.02361107  107.87000275    0.86000001    2.01999998
   15.02777767  108.54599762    0.86000001    2.01999998
   15.02833271  103.53099823    0.86000001    2.01999998
   15.03138828  103.67099762    0.86000001    2.01999998
   15.13249969   -1.00000000   -1.00000000   -1.00000000
   15.23111057   -1.00000000   -1.00000000   -1.00000000
   15.36472225   -1.00000000   -1.00000000   -1.00000000
   15.41083336  108.17500305    0.86000001    2.01999998
   15.41388893  109.94999695    0.86000001    2.01999998
   15.41722298  120.01499939    0.86000001    2.01999998
   15.42027855  107.60800171    0.86000001    2.01999998
   15.42361164  108.64900208    0.86000001    2.01999998
   15.42694473  126.59300232    0.86000001    2.01999998
   15.43111134  126.59300232    0.86000001    2.01999998
   15.43500042  113.00800323    0.86000001    2.01999998
   15.43833351  114.22000122    0.86000001    2.01999998
   15.44166660  118.93499756    0.86000001    2.01999998
   15.44388866  116.83100128    0.86000001    2.01999998
   15.44527817  117.41799927    0.86000001    2.01999998
   15.44833374  117.13899994    0.86000001    2.01999998
   15.45166683  113.38800049    0.86000001    2.01999998
   15.45499992  103.91000366    0.86000001    2.01999998
   15.45805550  112.78099823    0.86000001    2.01999998
   15.46138859  106.90100098    0.86000001    2.01999998
   15.46472168  107.60199738    0.86000001    2.01999998
   15.46777725  116.47899628    0.86000001    2.01999998
   15.47388840  116.47899628    0.86000001    2.01999998
   15.47805500  110.02899933    0.86000001    2.01999998
   15.48111057  110.62200165    0.86000001    2.01999998
   15.48444462  102.80000305    0.86000001    2.01999998
   15.48777771  117.28299713    0.86000001    2.01999998
   15.49083328  116.63700104    0.86000001    2.01999998
   15.49416733  109.75299835    0.86000001    2.01999998
   15.49750042  116.86199951    0.86000001    2.01999998
   15.50055599  107.29799652    0.86000001    2.01999998
   15.50388908  106.05200195    0.86000001    2.01999998
   15.50722218  109.71499634    0.86000001    2.01999998
   15.51027775  104.64499664    0.86000001    2.01999998
   15.51083374  113.55699921    0.86000001    2.01999998
   15.51666641  113.55699921    0.86000001    2.01999998
   15.52083302  115.03399658    0.86000001    2.01999998
   15.52416611  116.83000183    0.86000001    2.01999998
   15.52722168  110.54399872    0.86000001    2.01999998
   15.53055573  110.33100128    0.86000001    2.01999998
   15.53361130   98.39219666    0.86000001    2.01999998
   15.53694534  109.39399719    0.86000001    2.01999998
   15.54027843  106.71399689    0.86000001    2.01999998
   15.54333401  109.33300018    0.86000001    2.01999998
   15.54416752  111.54000092    0.86000001    2.01999998
   15.54722309  105.00299835    0.86000001    2.01999998
   15.55027771  107.50399780    0.86000001    2.01999998
   15.55361176  106.43299866    0.86000001    2.01999998
   15.55944443  106.43299866    0.86000001    2.01999998
   15.56361103  124.68000031    0.86000001    2.01999998
   15.56694412  108.28199768    0.86000001    2.01999998
   15.56999969  105.83100128    0.86000001    2.01999998
   15.57333374  115.38600159    0.86000001    2.01999998
   15.57666683  105.38400269    0.86000001    2.01999998
   15.57750034  114.64399719    0.86000001    2.01999998
   15.58027744  107.72899628    0.86000001    2.01999998
   15.58333302  118.77200317    0.86000001    2.01999998
   15.58666611  107.08300018    0.86000001    2.01999998
   15.59000015  104.92099762    0.86000001    2.01999998
   15.59305477  124.43699646    0.86000001    2.01999998
   15.59638882  106.95600128    0.86000001    2.01999998
   15.60249996  106.95600128    0.86000001    2.01999998
   15.60638905  123.95400238    0.86000001    2.01999998
   15.60972214  114.63500214    0.86000001    2.01999998
   15.61083412  136.80099487    0.86000001    2.01999998
   15.61333370  116.13500214    0.86000001    2.01999998
   15.61666679  134.29600525    0.86000001    2.01999998
   15.61999989  117.17500305    0.86000001    2.01999998
   15.62305546  107.27999878    0.86000001    2.01999998
   15.62638855  144.30700684    0.86000001    2.01999998
   15.62972260  129.43200684    0.86000001    2.01999998
   15.63277817  153.07699585    0.86000001    2.01999998
   15.63611126  165.02200317    0.86000001    2.01999998
   15.63916683  127.37000275    0.86000001    2.01999998
   15.64527798  127.37000275    0.86000001    2.01999998
   15.64944458  156.34199524    0.86000001    2.01999998
   15.65249920  175.79600525    0.86000001    2.01999998
   15.65583324  159.55299377    0.86000001    2.01999998
   15.65916634  184.07000732    0.86000001    2.01999998
   15.66222191  199.81100464    0.86000001    2.01999998
   15.66555500  182.21099854    0.86000001    2.01999998
   15.66861153  199.57600403    0.86000001    2.01999998
   15.67194462  193.45100403    0.86000001    2.01999998
   15.67527771  189.60600281    0.86000001    2.01999998
   15.67750072  184.40400696    0.86000001    2.01999998
   15.67888927  183.56599426    0.86000001    2.01999998
   15.68194485  178.39599609    0.86000001    2.01999998
   15.68805599  178.39599609    0.86000001    2.01999998
   15.69222260  159.92399597    0.86000001    2.01999998
   15.69555569  166.13900757    0.86000001    2.01999998
   15.69861126  119.76499939    0.86000001    2.01999998
   15.70194435  157.29400635    0.86000001    2.01999998
   15.70499992  159.95399475    0.86000001    2.01999998
   15.70833302  137.50599670    0.86000001    2.01999998
   15.71083355  148.28799438    0.86000001    2.01999998
   15.71194458  147.05400085    0.86000001    2.01999998
   15.71500015  153.63299561    0.86000001    2.01999998
   15.71833324  151.93200684    0.86000001    2.01999998
   15.72166634  145.13699341    0.86000001    2.01999998
   15.72472191  138.86199951    0.86000001    2.01999998
   15.73083305  138.86199951    0.86000001    2.01999998
   15.73500061  136.57800293    0.86000001    2.01999998
   15.73833370  142.91799927    0.86000001    2.01999998
   15.74166679  154.69599915    0.86000001    2.01999998
   15.74416733  145.09100342    0.86000001    2.01999998
   15.74527836  150.08599854    0.86000001    2.01999998
   15.74833393  153.60400391    0.86000001    2.01999998
   15.75166702  154.04299927    0.86000001    2.01999998
   15.75500011  153.53799438    0.86000001    2.01999998
   15.75805569  155.58900452    0.86000001    2.01999998
   15.76138878  155.30299377    0.86000001    2.01999998
   15.76472187  150.64100647    0.86000001    2.01999998
   15.76777744  161.17100525    0.86000001    2.01999998
   15.77388859  161.17100525    0.86000001    2.01999998
   15.77805519  172.39399719    0.86000001    2.01999998
   15.78111076  165.56900024    0.86000001    2.01999998
   15.78444481  146.54600525    0.86000001    2.01999998
   15.78750038  166.03700256    0.86000001    2.01999998
   15.79083347  151.43800354    0.86000001    2.01999998
   15.79416752  161.68099976    0.86000001    2.01999998
   15.79722309  164.45100403    0.86000001    2.01999998
   15.80055618  158.05999756    0.86000001    2.01999998
   15.80361176  180.31799316    0.86000001    2.01999998
   15.80694485  173.08900452    0.86000001    2.01999998
   15.81027794  152.09800720    0.86000001    2.01999998
   15.81083393  167.40199280    0.86000001    2.01999998
   15.81666660  167.40199280    0.86000001    2.01999998
   15.82083321  149.16600037    0.86000001    2.01999998
   15.82388878  152.46000671    0.86000001    2.01999998
   15.82722187  162.39100647    0.86000001    2.01999998
   15.83055592  165.10099792    0.86000001    2.01999998
   15.83361053  160.40600586    0.86000001    2.01999998
   15.83694458  148.33200073    0.86000001    2.01999998
   15.84027767  146.16600037    0.86000001    2.01999998
   15.84333324  160.07600403    0.86000001    2.01999998
   15.84416676  161.49899292    0.86000001    2.01999998
   15.84694386  159.64199829    0.86000001    2.01999998
   15.85027790  162.28199768    0.86000001    2.01999998
   15.85333347  159.97500610    0.86000001    2.01999998
   15.85944462  159.97500610    0.86000001    2.01999998
   15.86361122  153.43400574    0.86000001    2.01999998
   15.86694431  163.79899597    0.86000001    2.01999998
   15.86999989  158.86000061    0.86000001    2.01999998
   15.87333393  176.60699463    0.86000001    2.01999998
   15.87638855  189.75599670    0.86000001    2.01999998
   15.87750053  161.12800598    0.86000001    2.01999998
   15.88027763  167.69599915    0.86000001    2.01999998
   15.88361073  163.43299866    0.86000001    2.01999998
   15.88666630  165.50500488    0.86000001    2.01999998
   15.89000034  173.53199768    0.86000001    2.01999998
   15.89333344  172.02999878    0.86000001    2.01999998
   15.89638901  171.00999451    0.86000001    2.01999998
   15.90222168  171.00999451    0.86000001    2.01999998
   15.90638828  169.24899292    0.86000001    2.01999998
   15.90972137  176.37600708    0.86000001    2.01999998
   15.91083336  167.60099792    0.86000001    2.01999998
   15.91333294  171.72200012    0.86000001    2.01999998
   15.91666698  166.49200439    0.86000001    2.01999998
   15.91972256  170.13900757    0.86000001    2.01999998
   15.92305565  168.35099792    0.86000001    2.01999998
   15.92611122  166.25700378    0.86000001    2.01999998
   15.92944431  174.18200684    0.86000001    2.01999998
   15.93277836  170.90600586    0.86000001    2.01999998
   15.93583298  161.82800293    0.86000001    2.01999998
   15.93916702  163.15100098    0.86000001    2.01999998
   15.94527817  163.15100098    0.86000001    2.01999998
   15.94916630  169.74200439    0.86000001    2.01999998
   15.95249939  177.84199524    0.86000001    2.01999998
   15.95583344  176.54299927    0.86000001    2.01999998
   15.95888901  154.74699402    0.86000001    2.01999998
   15.96222210  166.36099243    0.86000001    2.01999998
   15.96555519  168.80499268    0.86000001    2.01999998
   15.96861076  156.15299988    0.86000001    2.01999998
   15.97194386  161.76499939    0.86000001    2.01999998
   15.97499943  169.58599854    0.86000001    2.01999998
   15.97749996  157.94700623    0.86000001    2.01999998
   15.97888851  150.58200073    0.86000001    2.01999998
   15.98222160  152.00500488    0.86000001    2.01999998
   15.98805618  152.00500488    0.86000001    2.01999998
   15.99222279  163.84599304    0.86000001    2.01999998
   15.99527836  134.46200562    0.86000001    2.01999998
   15.99861145  155.30200195    0.86000001    2.01999998
   16.00194359  153.34399414    0.86000001    2.01999998
   16.00499916  153.08500671    0.86000001    2.01999998
   16.00833321  140.85200500    0.86000001    2.01999998
   16.01083374  131.13299561    0.86000001    2.01999998
   16.01194382  150.95899963    0.86000001    2.01999998
   16.01527786  146.83700562    0.86000001    2.01999998
   16.01833344  145.69000244    0.86000001    2.01999998
   16.02166557  159.38699341    0.86000001    2.01999998
   16.02472115  139.17700195    0.86000001    2.01999998
   16.03083229  139.17700195    0.86000001    2.01999998
   16.03499985  139.92900085    0.86000001    2.01999998
   16.03833199  142.85299683    0.86000001    2.01999998
   16.04138756  133.51800537    0.86000001    2.01999998
   16.04444313  142.54600525    0.86000001    2.01999998
   16.04500008  135.92999268    0.86000001    2.01999998
   16.04833221  149.21899414    0.86000001    2.01999998
   16.05138779  139.08200073    0.86000001    2.01999998
   16.05472183  151.00300598    0.86000001    2.01999998
   16.05805397  149.17799377    0.86000001    2.01999998
   16.06110954  141.61999512    0.86000001    2.01999998
   16.06444359  162.24400330    0.86000001    2.01999998
   16.06750107  143.23699951    0.86000001    2.01999998
   16.07361221  143.23699951    0.86000001    2.01999998
   16.07777786  138.75300598    0.86000001    2.01999998
   16.08111191  135.03799438    0.86000001    2.01999998
   16.08416748  124.10800171    0.86000001    2.01999998
   16.08750153  139.10800171    0.86000001    2.01999998
   16.09083366  144.15299988    0.86000001    2.01999998
   16.09388924  149.10000610    0.86000001    2.01999998
   16.09722328  147.55299377    0.86000001    2.01999998
   16.10027885  136.58200073    0.86000001    2.01999998
   16.10361099  145.80499268    0.86000001    2.01999998
   16.10694504  145.02699280    0.86000001    2.01999998
   16.11000061  135.09399414    0.86000001    2.01999998
   16.11083412  142.81100464    0.86000001    2.01999998
   16.11666679  142.81100464    0.86000001    2.01999998
   16.12055588  140.96200562    0.86000001    2.01999998
   16.12388992  144.45500183    0.86000001    2.01999998
   16.12722206  142.56300354    0.86000001    2.01999998
   16.13027763  159.48899841    0.86000001    2.01999998
   16.13361168  149.12300110    0.86000001    2.01999998
   16.13694382  141.70199585    0.86000001    2.01999998
   16.13999939  151.61700439    0.86000001    2.01999998
   16.14333344  137.72000122    0.86000001    2.01999998
   16.14416695  129.95300293    0.86000001    2.01999998
   16.14694405  143.25100708    0.86000001    2.01999998
   16.15027809  137.40499878    0.86000001    2.01999998
   16.15333366  140.23399353    0.86000001    2.01999998
   16.15944481  140.23399353    0.86000001    2.01999998
   16.16361046  129.53199768    0.86000001    2.01999998
   16.16666603  141.65400696    0.86000001    2.01999998
   16.17000008  140.97999573    0.86000001    2.01999998
   16.17305565  130.78100586    0.86000001    2.01999998
   16.17638779  137.04600525    0.86000001    2.01999998
   16.17749977  125.07700348    0.86000001    2.01999998
   16.18000031  132.69200134    0.86000001    2.01999998
   16.18333244  130.98899841    0.86000001    2.01999998
   16.18638802  138.02999878    0.86000001    2.01999998
   16.18972206  133.76300049    0.86000001    2.01999998
   16.19305420  146.25599670    0.86000001    2.01999998
   16.19610977  142.53999329    0.86000001    2.01999998
   16.20222282  142.53999329    0.86000001    2.01999998
   16.20639038  158.98199463    0.86000001    2.01999998
   16.20944595  146.16200256    0.86000001    2.01999998
   16.21083450  148.89500427    0.86000001    2.01999998
   16.21305656  136.42500305    0.86000001    2.01999998
   16.21638870  134.45100403    0.86000001    2.01999998
   16.21944427  137.17900085    0.86000001    2.01999998
   16.22277832  132.13800049    0.86000001    2.01999998
   16.22611237  130.35400391    0.86000001    2.01999998
   16.22916794  130.51499939    0.86000001    2.01999998
   16.23250008  133.35099792    0.86000001    2.01999998
   16.23555565  128.08000183    0.86000001    2.01999998
   16.23888969  137.76100159    0.86000001    2.01999998
   16.24500084  137.76100159    0.86000001    2.01999998
   16.24916649  126.74900055    0.86000001    2.01999998
   16.25250053  133.94500732    0.86000001    2.01999998
   16.25555611  139.46200562    0.86000001    2.01999998
   16.25888824  139.94099426    0.86000001    2.01999998
   16.26222229  140.38200378    0.86000001    2.01999998
   16.26555634  140.52299500    0.86000001    2.01999998
   16.26861000  140.16000366    0.86000001    2.01999998
   16.27194405  135.67900085    0.86000001    2.01999998
   16.27499962  136.98599243    0.86000001    2.01999998
   16.27750015  130.39100647    0.86000001    2.01999998
   16.27861023  127.98899841    0.86000001    2.01999998
   16.28194427  136.68099976    0.86000001    2.01999998
   16.28805542  136.68099976    0.86000001    2.01999998
   16.29194450  113.31700134    0.86000001    2.01999998
   16.29527664  118.32299805    0.86000001    2.01999998
   16.29861069  135.92500305    0.86000001    2.01999998
   16.30166626  118.53500366    0.86000001    2.01999998
   16.30499840  123.65599823    0.86000001    2.01999998
   16.30833244  128.21899414    0.86000001    2.01999998
   16.31110954  119.23500061    0.86000001    2.01999998
   16.31194305  125.60700226    0.86000001    2.01999998
   16.31527710  127.29699707    0.86000001    2.01999998
   16.31833458  126.82099915    0.86000001    2.01999998
   16.32166672  132.78799438    0.86000001    2.01999998
   16.32500076  118.42800140    0.86000001    2.01999998
   16.33083344  118.42800140    0.86000001    2.01999998
   16.33500099  134.50100708    0.86000001    2.01999998
   16.33805656  136.67300415    0.86000001    2.01999998
   16.34138870  116.62500000    0.86000001    2.01999998
   16.34444427  132.54499817    0.86000001    2.01999998
   16.34500122  127.52500153    0.86000001    2.01999998
   16.34833336  132.48300171    0.86000001    2.01999998
   16.35138893  123.17700195    0.86000001    2.01999998
   16.35472298  121.58599854    0.86000001    2.01999998
   16.35805511  130.67500305    0.86000001    2.01999998
   16.36111069  124.22299957    0.86000001    2.01999998
   16.36444473  124.29499817    0.86000001    2.01999998
   16.36777878  124.83100128    0.86000001    2.01999998
   16.37361145  124.83100128    0.86000001    2.01999998
   16.37777710  125.62200165    0.86000001    2.01999998
   16.38111115  131.70899963    0.86000001    2.01999998
   16.38416672  128.69500732    0.86000001    2.01999998
   16.38750076  129.85800171    0.86000001    2.01999998
   16.39055634  130.67900085    0.86000001    2.01999998
   16.39388847  133.55000305    0.86000001    2.01999998
   16.39722252  136.05999756    0.86000001    2.01999998
   16.40027809  134.81199646    0.86000001    2.01999998
   16.40361023  147.91900635    0.86000001    2.01999998
   16.40694427  125.58599854    0.86000001    2.01999998
   16.40999985  147.15600586    0.86000001    2.01999998
   16.41110992  120.68699646    0.86000001    2.01999998
   16.43166542  120.68699646    0.86000001    2.01999998
   16.43583298  137.17199707    0.86000001    2.01999998
   16.43916512  144.97599792    0.86000001    2.01999998
   16.44222069  143.11300659    0.86000001    2.01999998
   16.44444275  143.70899963    0.86000001    2.01999998
   16.44583321  145.36399841    0.86000001    2.01999998
   16.44916534  135.83799744    0.86000001    2.01999998
   16.45222282  139.67500305    0.86000001    2.01999998
   16.45555687  140.76600647    0.86000001    2.01999998
   16.45888901  141.26100159    0.86000001    2.01999998
   16.46194458  146.96800232    0.86000001    2.01999998
   16.46527863  153.97200012    0.86000001    2.01999998
   16.46861076  140.58599854    0.86000001    2.01999998
   16.47444534  140.58599854    0.86000001    2.01999998
   16.47861099  139.19500732    0.86000001    2.01999998
   16.48166656  131.97200012    0.86000001    2.01999998
   16.48500061  144.02999878    0.86000001    2.01999998
   16.48833275  137.50399780    0.86000001    2.01999998
   16.49138832  137.25100708    0.86000001    2.01999998
   16.49472237  144.60099792    0.86000001    2.01999998
   16.49805641  142.69700623    0.86000001    2.01999998
   16.50111198  141.12699890    0.86000001    2.01999998
   16.50444412  127.31600189    0.86000001    2.01999998
   16.50749969  131.76400757    0.86000001    2.01999998
   16.51083374  147.84599304    0.86000001    2.01999998
   16.51138878  133.59399414    0.86000001    2.01999998
   16.51722145  133.59399414    0.86000001    2.01999998
   16.52138901  148.57699585    0.86000001    2.01999998
   16.52472115  148.07800293    0.86000001    2.01999998
   16.52777672  141.91400146    0.86000001    2.01999998
   16.53111076  149.16299438    0.86000001    2.01999998
   16.53444481  149.20599365    0.86000001    2.01999998
   16.53750038  136.68400574    0.86000001    2.01999998
   16.54083252  147.67199707    0.86000001    2.01999998
   16.54388809  136.47000122    0.86000001    2.01999998
   16.54472160  134.23399353    0.86000001    2.01999998
   16.54777718  139.36099243    0.86000001    2.01999998
   16.55083275  137.06500244    0.86000001    2.01999998
   16.55416679  136.75300598    0.86000001    2.01999998
   16.56027794  136.75300598    0.86000001    2.01999998
   16.56416512  134.72399902    0.86000001    2.01999998
   16.56750107  137.53500366    0.86000001    2.01999998
   16.57083511  141.79899597    0.86000001    2.01999998
   16.57389069  131.35800171    0.86000001    2.01999998
   16.57722282  134.92900085    0.86000001    2.01999998
   16.57805634  139.09500122    0.86000001    2.01999998
   16.58083344  141.82400513    0.86000001    2.01999998
   16.58388901  141.54100037    0.86000001    2.01999998
   16.58722305  127.75399780    0.86000001    2.01999998
   16.59055710  148.07899475    0.86000001    2.01999998
   16.59361267  145.15800476    0.86000001    2.01999998
   16.59694481  126.29399872    0.86000001    2.01999998
   16.60305595  126.29399872    0.86000001    2.01999998
   16.60722351  177.11099243    0.86000001    2.01999998
   16.61027908  195.95799255    0.86000001    2.01999998
   16.61138916  210.66499329    0.86000001    2.01999998
   16.61416626  238.49600220    0.86000001    2.01999998
   16.61722183  228.55799866    0.86000001    2.01999998
   16.62055588  206.46600342    0.86000001    2.01999998
   16.62388992  189.57499695    0.86000001    2.01999998
   16.62694550  206.91499329    0.86000001    2.01999998
   16.63027763  230.41099548    0.86000001    2.01999998
   16.63333321  204.12100220    0.86000001    2.01999998
   16.63666725  224.76600647    0.86000001    2.01999998
   16.63999939  191.80099487    0.86000001    2.01999998
   16.64583397  191.80099487    0.86000001    2.01999998
   16.64999962  207.38800049    0.86000001    2.01999998
   16.65305519  174.02799988    0.86000001    2.01999998
   16.65638924  197.20100403    0.86000001    2.01999998
   16.65972137  196.54499817    0.86000001    2.01999998
   16.66277695  199.88900757    0.86000001    2.01999998
   16.66611099  190.70899963    0.86000001    2.01999998
   16.66944313  173.98100281    0.86000001    2.01999998
   16.67249870  185.11300659    0.86000001    2.01999998
   16.67583275  190.48300171    0.86000001    2.01999998
   16.67805481  184.65800476    0.86000001    2.01999998
   16.67944336  191.41400146    0.86000001    2.01999998
   16.68249893  192.06900024    0.86000001    2.01999998
   16.68861008  192.06900024    0.86000001    2.01999998
   16.69277763  173.82699585    0.86000001    2.01999998
   16.69610977  173.83099365    0.86000001    2.01999998
   16.69916534  171.60600281    0.86000001    2.01999998
   16.70250130  174.09700012    0.86000001    2.01999998
   16.70583344  160.38999939    0.86000001    2.01999998
   16.70888901  160.75799561    0.86000001    2.01999998
   16.71138954  164.28900146    0.86000001    2.01999998
   16.71277809  169.06799316    0.86000001    2.01999998
   16.71583366  163.12199402    0.86000001    2.01999998
   16.71916771  165.56900024    0.86000001    2.01999998
   16.72249985  139.65800476    0.86000001    2.01999998
   16.72555542  159.61700439    0.86000001    2.01999998
   16.73139000  159.61700439    0.86000001    2.01999998
   16.73555565  154.69500732    0.86000001    2.01999998
   16.73888969  154.55700684    0.86000001    2.01999998
   16.74222183  158.61199951    0.86000001    2.01999998
   16.74472237  150.16099548    0.86000001    2.01999998
   16.74583435  157.96299744    0.86000001    2.01999998
   16.74888992  161.57499695    0.86000001    2.01999998
   16.75222206  156.64100647    0.86000001    2.01999998
   16.75555611  148.14999390    0.86000001    2.01999998
   16.75861168  146.54800415    0.86000001    2.01999998
   16.76194382  142.87699890    0.86000001    2.01999998
   16.76527786  141.92399597    0.86000001    2.01999998
   16.76833344  138.84599304    0.86000001    2.01999998
   16.77444458  138.84599304    0.86000001    2.01999998
   16.77861023  144.06700134    0.86000001    2.01999998
   16.78166580  140.42599487    0.86000001    2.01999998
   16.78499985  139.79600525    0.86000001    2.01999998
   16.78805542  136.30099487    0.86000001    2.01999998
   16.79138756  139.39300537    0.86000001    2.01999998
   16.79472160  119.25599670    0.86000001    2.01999998
   16.79777718  141.53900146    0.86000001    2.01999998
   16.80111122  138.60600281    0.86000001    2.01999998
   16.80444336  134.86799622    0.86000001    2.01999998
   16.80749893  147.39900208    0.86000001    2.01999998
   16.81083298  141.41099548    0.86000001    2.01999998
   16.81138802  134.97900391    0.86000001    2.01999998
   16.81722260  134.97900391    0.86000001    2.01999998
   16.82139015  122.98600006    0.86000001    2.01999998
   16.82444572  129.30099487    0.86000001    2.01999998
   16.82777786  131.70899963    0.86000001    2.01999998
   16.83111191  137.46899414    0.86000001    2.01999998
   16.83416748  131.06700134    0.86000001    2.01999998
   16.83750153  129.85299683    0.86000001    2.01999998
   16.84083366  133.51800537    0.86000001    2.01999998
   16.84388924  141.40100098    0.86000001    2.01999998
   16.84472275  141.61999512    0.86000001    2.01999998
   16.84749985  144.94599915    0.86000001    2.01999998
   16.85083389  123.75900269    0.86000001    2.01999998
   16.85388947  145.13800049    0.86000001    2.01999998
   16.86000061  145.13800049    0.86000001    2.01999998
   16.86416626  127.25900269    0.86000001    2.01999998
   16.86750031  136.97099304    0.86000001    2.01999998
   16.87055588  130.57499695    0.86000001    2.01999998
   16.87388992  138.99699402    0.86000001    2.01999998
   16.87722206  133.13999939    0.86000001    2.01999998
   16.87805557  130.82699585    0.86000001    2.01999998
   16.88083267  146.88800049    0.86000001    2.01999998
   16.88388824  140.45300293    0.86000001    2.01999998
   16.88722229  134.36099243    0.86000001    2.01999998
   16.89055634  137.99499512    0.86000001    2.01999998
   16.89361191  148.95700073    0.86000001    2.01999998
   16.89694405  145.18200684    0.86000001    2.01999998
   16.90277672  145.18200684    0.86000001    2.01999998
   16.90694427  135.82299805    0.86000001    2.01999998
   16.91027832  126.82399750    0.86000001    2.01999998
   16.91138840  135.06399536    0.86000001    2.01999998
   16.91388893  138.19599915    0.86000001    2.01999998
   16.91694450  133.05900574    0.86000001    2.01999998
   16.92027664  135.45899963    0.86000001    2.01999998
   16.92361069  143.07200623    0.86000001    2.01999998
   16.92666626  138.58599854    0.86000001    2.01999998
   16.93000031  135.43699646    0.86000001    2.01999998
   16.93333244  137.62699890    0.86000001    2.01999998
   16.93638802  138.83000183    0.86000001    2.01999998
   16.93972206  130.00000000    0.86000001    2.01999998
   16.94583321  130.00000000    0.86000001    2.01999998
   16.95000076  147.34100342    0.86000001    2.01999998
   16.95305634  140.02400208    0.86000001    2.01999998
   16.95639038  135.50500488    0.86000001    2.01999998
   16.95944595  136.99200439    0.86000001    2.01999998
   16.96277809  142.46899414    0.86000001    2.01999998
   16.96611214  142.06900024    0.86000001    2.01999998
   16.96916771  133.71299744    0.86000001    2.01999998
   16.97249985  143.20799255    0.86000001    2.01999998
   16.97583389  146.61399841    0.86000001    2.01999998
   16.97805595  134.07600403    0.86000001    2.01999998
   16.97944450  133.96600342    0.86000001    2.01999998
   16.98250008  135.29600525    0.86000001    2.01999998
   16.98861122  135.29600525    0.86000001    2.01999998
   16.99277878  124.93599701    0.86000001    2.01999998
   16.99583435  129.68699646    0.86000001    2.01999998
   16.99916649  133.79899597    0.86000001    2.01999998
   17.00250053  118.10600281    0.86000001    2.01999998
   17.00555611  122.47699738    0.86000001    2.01999998
   17.00888824  117.95300293    0.86000001    2.01999998
   17.01138878  126.62899780    0.86000001    2.01999998
   17.01250076  132.93600464    0.86000001    2.01999998
   17.01583290  130.84500122    0.86000001    2.01999998
   17.01888847  128.60899353    0.86000001    2.01999998
   17.02222252  125.85800171    0.86000001    2.01999998
   17.02527809  132.19000244    0.86000001    2.01999998
   17.03138924  132.19000244    0.86000001    2.01999998
   17.03555489  124.35900116    0.86000001    2.01999998
   17.03888893  122.27600098    0.86000001    2.01999998
   17.04194450  127.93099976    0.86000001    2.01999998
   17.04472160  136.46800232    0.86000001    2.01999998
   17.04583359  129.60600281    0.86000001    2.01999998
   17.04888916  127.71199799    0.86000001    2.01999998
   17.05222130  129.41400146    0.86000001    2.01999998
   17.05555534  121.76300049    0.86000001    2.01999998
   17.05861092  136.09599304    0.86000001    2.01999998
   17.06194305  136.27200317    0.86000001    2.01999998
   17.06527710  117.04599762    0.86000001    2.01999998
   17.06833458  118.77400208    0.86000001    2.01999998
   17.07416725  118.77400208    0.86000001    2.01999998
   17.07833481  126.25800323    0.86000001    2.01999998
   17.08166695  111.88999939    0.86000001    2.01999998
   17.08500099  128.86099243    0.86000001    2.01999998
   17.08805656  127.23400116    0.86000001    2.01999998
   17.09138870  119.03700256    0.86000001    2.01999998
   17.09444427  114.62899780    0.86000001    2.01999998
   17.09777832  118.96700287    0.86000001    2.01999998
   17.10111237  120.39600372    0.86000001    2.01999998
   17.10416794  124.49500275    0.86000001    2.01999998
   17.10750008  126.68199921    0.86000001    2.01999998
   17.11083412  126.71800232    0.86000001    2.01999998
   17.11138916  128.88699341    0.86000001    2.01999998
   17.11722183  128.88699341    0.86000001    2.01999998
   17.12111092  115.44000244    0.86000001    2.01999998
   17.12444496  121.17099762    0.86000001    2.01999998
   17.12777710  119.88300323    0.86000001    2.01999998
   17.13083267  124.85600281    0.86000001    2.01999998
   17.13416672  125.57099915    0.86000001    2.01999998
   17.13750076  122.04199982    0.86000001    2.01999998
   17.14055634  125.76300049    0.86000001    2.01999998
   17.14388847  122.18499756    0.86000001    2.01999998
   17.14472198  122.89800262    0.86000001    2.01999998
   17.14749908  124.87000275    0.86000001    2.01999998
   17.15083313  122.65899658    0.86000001    2.01999998
   17.15388870  121.94499969    0.86000001    2.01999998
   17.15999985  121.94499969    0.86000001    2.01999998
   17.16416550  116.45600128    0.86000001    2.01999998
   17.16722107  116.38600159    0.86000001    2.01999998
   17.17055511  118.53399658    0.86000001    2.01999998
   17.17388916  124.75399780    0.86000001    2.01999998
   17.17694473  123.88899994    0.86000001    2.01999998
   17.17805481  125.63899994    0.86000001    2.01999998
   17.18055534  127.28500366    0.86000001    2.01999998
   17.18388748  121.55999756    0.86000001    2.01999998
   17.18694305  124.57700348    0.86000001    2.01999998
   17.19027710  120.81099701    0.86000001    2.01999998
   17.19333267  124.86000061    0.86000001    2.01999998
   17.19666672  122.79199982    0.86000001    2.01999998
   17.20277786  122.79199982    0.86000001    2.01999998
   17.20694542  124.06199646    0.86000001    2.01999998
   17.21027946  115.51999664    0.86000001    2.01999998
   17.21138954  121.88600159    0.86000001    2.01999998
   17.21389008  123.13800049    0.86000001    2.01999998
   17.21722221  125.21600342    0.86000001    2.01999998
   17.22027779  117.66100311    0.86000001    2.01999998
   17.22361183  118.34100342    0.86000001    2.01999998
   17.22666740  119.81800079    0.86000001    2.01999998
   17.23000145  116.86599731    0.86000001    2.01999998
   17.23333359  123.21499634    0.86000001    2.01999998
   17.23638916  119.65899658    0.86000001    2.01999998
   17.23972321  117.24500275    0.86000001    2.01999998
   17.24555588  117.24500275    0.86000001    2.01999998
   17.24972153  118.05500031    0.86000001    2.01999998
   17.25305557  118.44699860    0.86000001    2.01999998
   17.25611115  119.18800354    0.86000001    2.01999998
   17.25944519  121.03299713    0.86000001    2.01999998
   17.26277733  117.66000366    0.86000001    2.01999998
   17.26583290  116.83399963    0.86000001    2.01999998
   17.26916695  117.89199829    0.86000001    2.01999998
   17.27249908  121.62899780    0.86000001    2.01999998
   17.27555466  116.18000031    0.86000001    2.01999998
   17.27805519  121.13500214    0.86000001    2.01999998
   17.27916718  114.02200317    0.86000001    2.01999998
   17.28249931  112.77400208    0.86000001    2.01999998
   17.28861046  112.77400208    0.86000001    2.01999998
   17.29249954  122.39800262    0.86000001    2.01999998
   17.29583359  115.43000031    0.86000001    2.01999998
   17.29916573  110.33999634    0.86000001    2.01999998
   17.30222130  110.16600037    0.86000001    2.01999998
   17.30555534  117.23999786    0.86000001    2.01999998
   17.30888748  122.33699799    0.86000001    2.01999998
   17.31138802  120.39700317    0.86000001    2.01999998
   17.31250000  122.93800354    0.86000001    2.01999998
   17.31583214  123.74800110    0.86000001    2.01999998
   17.31888962  120.06500244    0.86000001    2.01999998
   17.32222366  114.50000000    0.86000001    2.01999998
   17.32555580  118.03399658    0.86000001    2.01999998
   17.33139038  118.03399658    0.86000001    2.01999998
   17.33555603  120.32299805    0.86000001    2.01999998
   17.33861160  119.32599640    0.86000001    2.01999998
   17.34194565  122.57299805    0.86000001    2.01999998
   17.34472275  120.16699982    0.86000001    2.01999998
   17.34555626  114.84600067    0.86000001    2.01999998
   17.34889030  116.60700226    0.86000001    2.01999998
   17.35194397  116.92700195    0.86000001    2.01999998
   17.35527802  117.70400238    0.86000001    2.01999998
   17.35861206  122.37200165    0.86000001    2.01999998
   17.36166763  108.68900299    0.86000001    2.01999998
   17.36499977  112.82700348    0.86000001    2.01999998
   17.36833382  109.98200226    0.86000001    2.01999998
   17.37416649  109.98200226    0.86000001    2.01999998
   17.37833405  113.75900269    0.86000001    2.01999998
   17.38166618  121.04799652    0.86000001    2.01999998
   17.38472176  111.43499756    0.86000001    2.01999998
   17.38805580  116.20600128    0.86000001    2.01999998
   17.39111137  114.60800171    0.86000001    2.01999998
   17.39444351  119.14499664    0.86000001    2.01999998
   17.39777756  121.78199768    0.86000001    2.01999998
   17.40083313  116.41999817    0.86000001    2.01999998
   17.40416718  116.40299988    0.86000001    2.01999998
   17.40722275  117.40299988    0.86000001    2.01999998
   17.41055489  119.24299622    0.86000001    2.01999998
   17.41138840  117.68199921    0.86000001    2.01999998
   17.41694450  117.68199921    0.86000001    2.01999998
   17.42111015  119.23699951    0.86000001    2.01999998
   17.42444420  110.30200195    0.86000001    2.01999998
   17.42749977  118.16999817    0.86000001    2.01999998
   17.44527626  115.59500122    0.86000001    2.01999998
   17.44749832  116.72599792    0.86000001    2.01999998
   17.45083427  107.39299774    0.86000001    2.01999998
   17.45416832  114.52200317    0.86000001    2.01999998
   17.46000099  114.52200317    0.86000001    2.01999998
   17.46416664  114.72299957    0.86000001    2.01999998
   17.46750069  118.95400238    0.86000001    2.01999998
   17.47055626  112.02400208    0.86000001    2.01999998
   17.47389030  111.35700226    0.86000001    2.01999998
   17.47722244  116.12100220    0.86000001    2.01999998
   17.47833443  118.71199799    0.86000001    2.01999998
   17.48083305  119.22499847    0.86000001    2.01999998
   17.48416710  110.38300323    0.86000001    2.01999998
   17.48722267  113.13999939    0.86000001    2.01999998
   17.49055672  117.62100220    0.86000001    2.01999998
   17.49388885  117.78299713    0.86000001    2.01999998
   17.49694443  114.39700317    0.86000001    2.01999998
   17.50277710  114.39700317    0.86000001    2.01999998
   17.50694466  104.64600372    0.86000001    2.01999998
   17.51027870  114.54699707    0.86000001    2.01999998
   17.51166725  116.71800232    0.86000001    2.01999998
   17.51388931  116.03600311    0.86000001    2.01999998
   17.51722145  104.71600342    0.86000001    2.01999998
   17.52027702  109.94999695    0.86000001    2.01999998
   17.52361107  114.00099945    0.86000001    2.01999998
   17.52694511  110.36000061    0.86000001    2.01999998
   17.53000069  117.04399872    0.86000001    2.01999998
   17.53333282  103.43299866    0.86000001    2.01999998
   17.53666687  114.76899719    0.86000001    2.01999998
   17.53972244  110.61799622    0.86000001    2.01999998
   17.54583359  110.61799622    0.86000001    2.01999998
   17.54999924  107.57700348    0.86000001    2.01999998
   17.55305481  108.57599640    0.86000001    2.01999998
   17.55638885  104.73100281    0.86000001    2.01999998
   17.55944443  111.40299988    0.86000001    2.01999998
   17.56277657  111.14800262    0.86000001    2.01999998
   17.56611061  109.04199982    0.86000001    2.01999998
   17.56916809  110.84400177    0.86000001    2.01999998
   17.57250023  109.94499969    0.86000001    2.01999998
   17.57583427  109.34400177    0.86000001    2.01999998
   17.57833481  106.70400238    0.86000001    2.01999998
   17.57944489  109.08000183    0.86000001    2.01999998
   17.58277893  114.06999969    0.86000001    2.01999998
   17.58861160  114.06999969    0.86000001    2.01999998
   17.59277916  111.94300079    0.86000001    2.01999998
   17.59583473  107.85099792    0.86000001    2.01999998
   17.59916687  114.42099762    0.86000001    2.01999998
   17.60250092  110.62000275    0.86000001    2.01999998
   17.60555649  114.48799896    0.86000001    2.01999998
   17.60888863  108.90399933    0.86000001    2.01999998
   17.61166763  118.20099640    0.86000001    2.01999998
   17.61250114  111.42400360    0.86000001    2.01999998
   17.61583328  116.06400299    0.86000001    2.01999998
   17.61888885  108.55599976    0.86000001    2.01999998
   17.62222290  117.25000000    0.86000001    2.01999998
   17.62555504  111.50099945    0.86000001    2.01999998
   17.63138962  111.50099945    0.86000001    2.01999998
   17.63555527  106.37300110    0.86000001    2.01999998
   17.63888931  115.93599701    0.86000001    2.01999998
   17.64194489  110.42500305    0.86000001    2.01999998
   17.64527702  110.81999969    0.86000001    2.01999998
   17.64555550  112.11000061    0.86000001    2.01999998
   17.64888954  112.26399994    0.86000001    2.01999998
   17.65194321  101.48699951    0.86000001    2.01999998
   17.65527725  106.34999847    0.86000001    2.01999998
   17.65861130  106.02999878    0.86000001    2.01999998
   17.66166687  106.48600006    0.86000001    2.01999998
   17.66499901  114.53500366    0.86000001    2.01999998
   17.66833305  111.75399780    0.86000001    2.01999998
   17.67416573  111.75399780    0.86000001    2.01999998
   17.67860985  111.06999969    0.86000001    2.01999998
   17.67888832  103.43299866    0.86000001    2.01999998
   17.68222237  107.07299805    0.86000001    2.01999998
   17.68555450  116.34999847    0.86000001    2.01999998
   17.68861008  108.02300262    0.86000001    2.01999998
   17.69194412  106.74800110    0.86000001    2.01999998
   17.69499969  107.56500244    0.86000001    2.01999998
   17.69833183  109.19200134    0.86000001    2.01999998
   17.70166779  106.92500305    0.86000001    2.01999998
   17.70472336  105.93199921    0.86000001    2.01999998
   17.70805550  106.04699707    0.86000001    2.01999998
   17.71138954  113.55599976    0.86000001    2.01999998
   17.71194458  124.51000214    0.86000001    2.01999998
   17.71722221  124.51000214    0.86000001    2.01999998
   17.72138977  119.06400299    0.86000001    2.01999998
   17.72444534  118.27700043    0.86000001    2.01999998
   17.72777748  107.57700348    0.86000001    2.01999998
   17.73111153  119.38099670    0.86000001    2.01999998
   17.73416710  108.42900085    0.86000001    2.01999998
   17.73750114  102.73699951    0.86000001    2.01999998
   17.74055672  114.08000183    0.86000001    2.01999998
   17.74388885  113.80100250    0.86000001    2.01999998
   17.74527740  115.76899719    0.86000001    2.01999998
   17.74749947  103.50099945    0.86000001    2.01999998
   17.75083351  111.68499756    0.86000001    2.01999998
   17.75416756  120.31500244    0.86000001    2.01999998
   17.76000023  120.31500244    0.86000001    2.01999998
   17.76416588  116.91200256    0.86000001    2.01999998
   17.76722145  107.26300049    0.86000001    2.01999998
   17.77055550  118.45400238    0.86000001    2.01999998
   17.77388954  109.55899811    0.86000001    2.01999998
   17.77694511  110.95700073    0.86000001    2.01999998
   17.77861023  107.92700195    0.86000001    2.01999998
   17.78055573  106.52200317    0.86000001    2.01999998
   17.78388786  116.34300232    0.86000001    2.01999998
   17.78722191  107.85099792    0.86000001    2.01999998
   17.79027748  103.68499756    0.86000001    2.01999998
   17.79361153  102.69400024    0.86000001    2.01999998
   17.79694366  108.13800049    0.86000001    2.01999998
   17.80277634  108.13800049    0.86000001    2.01999998
   17.80694389  103.49900055    0.86000001    2.01999998
   17.81027794  111.22100067    0.86000001    2.01999998
   17.81194305  107.70400238    0.86000001    2.01999998
   17.81388855   99.03939819    0.86000001    2.01999998
   17.81722260  110.71900177    0.86000001    2.01999998
   17.82055664  111.14499664    0.86000001    2.01999998
   17.82361221  111.37599945    0.86000001    2.01999998
   17.82694626  121.61699677    0.86000001    2.01999998
   17.83027840  104.42900085    0.86000001    2.01999998
   17.83333397  118.47899628    0.86000001    2.01999998
   17.83666801  102.28500366    0.86000001    2.01999998
   17.83972359  102.05599976    0.86000001    2.01999998
   17.84555626  102.05599976    0.86000001    2.01999998
   17.84972191  109.11000061    0.86000001    2.01999998
   17.85305595  114.64600372    0.86000001    2.01999998
   17.85639000  112.95400238    0.86000001    2.01999998
   17.85944557  116.68900299    0.86000001    2.01999998
   17.86277771  118.15599823    0.86000001    2.01999998
   17.86583328  111.21099854    0.86000001    2.01999998
   17.86916733  112.35299683    0.86000001    2.01999998
   17.87249947  109.22299957    0.86000001    2.01999998
   17.87555504  104.31400299    0.86000001    2.01999998
   17.87861061  110.42199707    0.86000001    2.01999998
   17.87916756  110.97699738    0.86000001    2.01999998
   17.88249969  106.00700378    0.86000001    2.01999998
   17.88861084  106.00700378    0.86000001    2.01999998
   17.89249992  106.33999634    0.86000001    2.01999998
   17.89583397  116.74600220    0.86000001    2.01999998
   17.89916611  113.84500122    0.86000001    2.01999998
   17.90222168  101.38800049    0.86000001    2.01999998
   17.90555573  106.40699768    0.86000001    2.01999998
   17.90888786   97.14240265    0.86000001    2.01999998
   17.91194344  105.29399872    0.86000001    2.01999998
   17.91222191  106.06199646    0.86000001    2.01999998
   17.91555595  109.94000244    0.86000001    2.01999998
   17.91860962  108.86799622    0.86000001    2.01999998
   17.92194366  102.62400055    0.86000001    2.01999998
   17.92527771  104.05300140    0.86000001    2.01999998
   17.93138885  104.05300140    0.86000001    2.01999998
   17.93555450  106.63600159    0.86000001    2.01999998
   17.93861008  112.91799927    0.86000001    2.01999998
   17.94194412  111.79499817    0.86000001    2.01999998
   17.94527626  102.70700073    0.86000001    2.01999998
   17.94555473  102.83599854    0.86000001    2.01999998
   17.94888878  106.54399872    0.86000001    2.01999998
   17.95194435  104.60399628    0.86000001    2.01999998
   17.95527840  110.72200012    0.86000001    2.01999998
   17.95861244  111.54000092    0.86000001    2.01999998
   17.96166801  103.67500305    0.86000001    2.01999998
   17.96500015  102.91799927    0.86000001    2.01999998
   17.96833420  123.38700104    0.86000001    2.01999998
   17.97416687  123.38700104    0.86000001    2.01999998
   17.97833443  105.38200378    0.86000001    2.01999998
   17.97888947  118.97299957    0.86000001    2.01999998
   17.98222351  108.97899628    0.86000001    2.01999998
   17.98527718  107.34200287    0.86000001    2.01999998
   17.98861122  109.78099823    0.86000001    2.01999998
   17.99166679  110.79699707    0.86000001    2.01999998
   17.99500084  114.30699921    0.86000001    2.01999998
   17.99833298   97.79470062    0.86000001    2.01999998
   18.00138855  116.35199738    0.86000001    2.01999998
   18.00472260  118.17800140    0.86000001    2.01999998
   18.00805473  103.58799744    0.86000001    2.01999998
   18.01111031  104.67900085    0.86000001    2.01999998
   18.01222229   97.26119995    0.86000001    2.01999998
   18.01694489   97.26119995    0.86000001    2.01999998
   18.02111053  110.77700043    0.86000001    2.01999998
   18.02444458  105.19499969    0.86000001    2.01999998
   18.02750015  100.60299683    0.86000001    2.01999998
   18.03083229  100.54599762    0.86000001    2.01999998
   18.03416634  107.47499847    0.86000001    2.01999998
   18.03722191  102.15299988    0.86000001    2.01999998
   18.04055595  107.92099762    0.86000001    2.01999998
   18.04388809   99.87069702    0.86000001    2.01999998
   18.04555511  101.25800323    0.86000001    2.01999998
   18.04749870   97.88610077    0.86000001    2.01999998
   18.05055428  106.19200134    0.86000001    2.01999998
   18.05388832  113.97399902    0.86000001    2.01999998
   18.05999947  113.97399902    0.86000001    2.01999998
   18.06388855  106.25800323    0.86000001    2.01999998
   18.06722260  124.98500061    0.86000001    2.01999998
   18.07055664  116.32399750    0.86000001    2.01999998
   18.07361221  116.17099762    0.86000001    2.01999998
   18.07694626  114.42099762    0.86000001    2.01999998
   18.07888985  117.53399658    0.86000001    2.01999998
   18.08055687  119.28700256    0.86000001    2.01999998
   18.08361244  113.66799927    0.86000001    2.01999998
   18.08694458  112.12599945    0.86000001    2.01999998
   18.09027863  107.73400116    0.86000001    2.01999998
   18.09333420  109.76799774    0.86000001    2.01999998
   18.09666824  102.98100281    0.86000001    2.01999998
   18.10277748  102.98100281    0.86000001    2.01999998
   18.10694504  113.11699677    0.86000001    2.01999998
   18.11000061  114.77999878    0.86000001    2.01999998
   18.11222267  123.02899933    0.86000001    2.01999998
   18.11388969  109.30500031    0.86000001    2.01999998
   18.11694527  116.31400299    0.86000001    2.01999998
   18.12027740  114.16100311    0.86000001    2.01999998
   18.12361145  107.83499908    0.86000001    2.01999998
   18.12666702  121.16899872    0.86000001    2.01999998
   18.13000107  108.38300323    0.86000001    2.01999998
   18.13333321  116.56099701    0.86000001    2.01999998
   18.13638878  120.12799835    0.86000001    2.01999998
   18.13972282  112.05300140    0.86000001    2.01999998
   18.14555550  112.05300140    0.86000001    2.01999998
   18.14972115  113.13700104    0.86000001    2.01999998
   18.15277672  119.38899994    0.86000001    2.01999998
   18.15611076  112.89700317    0.86000001    2.01999998
   18.15944481  112.66100311    0.86000001    2.01999998
   18.16250038  108.23799896    0.86000001    2.01999998
   18.16583252  106.74500275    0.86000001    2.01999998
   18.16916656  126.16600037    0.86000001    2.01999998
   18.17222214  116.01799774    0.86000001    2.01999998
   18.17555428  112.14299774    0.86000001    2.01999998
   18.17888832  118.29399872    0.86000001    2.01999998
   18.17944336  110.52600098    0.86000001    2.01999998
   18.18249893  104.96800232    0.86000001    2.01999998
   18.18833160  104.96800232    0.86000001    2.01999998
   18.19249916  109.66899872    0.86000001    2.01999998
   18.19583321  115.67199707    0.86000001    2.01999998
   18.19888878  110.39199829    0.86000001    2.01999998
   18.20222282  112.40200043    0.86000001    2.01999998
   18.20555687  105.58999634    0.86000001    2.01999998
   18.20861244  109.85900116    0.86000001    2.01999998
   18.21194458  108.17199707    0.86000001    2.01999998
   18.21277809  105.98699951    0.86000001    2.01999998
   18.21555710  109.81199646    0.86000001    2.01999998
   18.21888924  107.80899811    0.86000001    2.01999998
   18.22222328   99.08039856    0.86000001    2.01999998
   18.22527885  110.27500153    0.86000001    2.01999998
   18.23139000  110.27500153    0.86000001    2.01999998
   18.23555565  109.92299652    0.86000001    2.01999998
   18.23861122   97.20269775    0.86000001    2.01999998
   18.24194527  109.64600372    0.86000001    2.01999998
   18.24500084  110.58999634    0.86000001    2.01999998
   18.24611092  104.88899994    0.86000001    2.01999998
   18.24861145  109.52999878    0.86000001    2.01999998
   18.25194359  100.61900330    0.86000001    2.01999998
   18.25499916   99.99530029    0.86000001    2.01999998
   18.25833321  105.87400055    0.86000001    2.01999998
   18.26166725  102.54799652    0.86000001    2.01999998
   18.26472282  105.22499847    0.86000001    2.01999998
   18.26805496  111.69699860    0.86000001    2.01999998
   18.27416611  111.69699860    0.86000001    2.01999998
   18.27833366  110.00900269    0.86000001    2.01999998
   18.27944374  111.00599670    0.86000001    2.01999998
   18.28166580  112.45300293    0.86000001    2.01999998
   18.28499985  109.37300110    0.86000001    2.01999998
   18.28805542  110.63200378    0.86000001    2.01999998
   18.29138756  108.01300049    0.86000001    2.01999998
   18.29472160  111.47100067    0.86000001    2.01999998
   18.29777718  108.87000275    0.86000001    2.01999998
   18.30111122  107.29199982    0.86000001    2.01999998
   18.30444336  111.03600311    0.86000001    2.01999998
   18.30749893  101.02300262    0.86000001    2.01999998
   18.31083298   98.87740326    0.86000001    2.01999998
   18.31277657  115.53700256    0.86000001    2.01999998
   18.31694603  115.53700256    0.86000001    2.01999998
   18.32111168  106.15000153    0.86000001    2.01999998
   18.32444572  108.81500244    0.86000001    2.01999998
   18.32750130   98.80960083    0.86000001    2.01999998
   18.33083344  110.72499847    0.86000001    2.01999998
   18.33388901  110.21700287    0.86000001    2.01999998
   18.33722305   99.29290009    0.86000001    2.01999998
   18.34055710  118.58999634    0.86000001    2.01999998
   18.34361267  105.68800354    0.86000001    2.01999998
   18.34611130  117.63899994    0.86000001    2.01999998
   18.34722328  107.86499786    0.86000001    2.01999998
   18.35055542  107.99500275    0.86000001    2.01999998
   18.35361099  112.64099884    0.86000001    2.01999998
   18.35972214  112.64099884    0.86000001    2.01999998
   18.36388969  109.62599945    0.86000001    2.01999998
   18.36722183  112.77899933    0.86000001    2.01999998
   18.37055588  103.05699921    0.86000001    2.01999998
   18.37361145  106.54499817    0.86000001    2.01999998
   18.37694550  104.31199646    0.86000001    2.01999998
   18.37944412  102.57099915    0.86000001    2.01999998
   18.38055611  100.90000153    0.86000001    2.01999998
   18.38388824  111.58300018    0.86000001    2.01999998
   18.38722229  103.82599640    0.86000001    2.01999998
   18.39027786  101.75299835    0.86000001    2.01999998
   18.39361191   98.23239899    0.86000001    2.01999998
   18.39666748   93.64469910    0.86000001    2.01999998
   18.40277672   93.64469910    0.86000001    2.01999998
   18.40666580   94.93779755    0.86000001    2.01999998
   18.40999985   96.49520111    0.86000001    2.01999998
   18.41277695  106.43900299    0.86000001    2.01999998
   18.41361046  105.87100220    0.86000001    2.01999998
   18.41694450  112.49900055    0.86000001    2.01999998
   18.42027664  109.32700348    0.86000001    2.01999998
   18.42333221   96.22100067    0.86000001    2.01999998
   18.42666626  101.03600311    0.86000001    2.01999998
   18.42972183  106.70400238    0.86000001    2.01999998
   18.43305397   97.29350281    0.86000001    2.01999998
   18.43638802   98.34130096    0.86000001    2.01999998
   18.43944359   95.46710205    0.86000001    2.01999998
   18.44555473   95.46710205    0.86000001    2.01999998
   18.46389008  109.38999939    0.86000001    2.01999998
   18.46722221   88.44339752    0.86000001    2.01999998
   18.47027779   99.47209930    0.86000001    2.01999998
   18.47361183  110.78700256    0.86000001    2.01999998
   18.47666740  103.23000336    0.86000001    2.01999998
   18.48000145  111.01100159    0.86000001    2.01999998
   18.48333359  111.49600220    0.86000001    2.01999998
   18.48861122  111.49600220    0.86000001    2.01999998
   18.49277878   98.84300232    0.86000001    2.01999998
   18.49583435   87.76200104    0.86000001    2.01999998
   18.49694443  114.78299713    0.86000001    2.01999998
   18.49972153  106.16799927    0.86000001    2.01999998
   18.50277710  101.78099823    0.86000001    2.01999998
   18.50611115  101.87200165    0.86000001    2.01999998
   18.50944519  103.71399689    0.86000001    2.01999998
   18.51250076  110.16200256    0.86000001    2.01999998
   18.51583290  118.39600372    0.86000001    2.01999998
   18.51888847  105.48699951    0.86000001    2.01999998
   18.52222252  114.16300201    0.86000001    2.01999998
   18.52555466  112.25700378    0.86000001    2.01999998
   18.53138924  112.25700378    0.86000001    2.01999998
   18.53555489  105.14099884    0.86000001    2.01999998
   18.53888893  110.75199890    0.86000001    2.01999998
   18.54194450   93.75409698    0.86000001    2.01999998
   18.54527664  110.39099884    0.86000001    2.01999998
   18.54861069   99.16600037    0.86000001    2.01999998
   18.55166626  116.65599823    0.86000001    2.01999998
   18.55499840  120.59799957    0.86000001    2.01999998
   18.55833244  109.99199677    0.86000001    2.01999998
   18.56138802  104.79100037    0.86000001    2.01999998
   18.56361008  103.99700165    0.86000001    2.01999998
   18.56527710  103.62000275    0.86000001    2.01999998
   18.56833458  107.14800262    0.86000001    2.01999998
   18.57416725  107.14800262    0.86000001    2.01999998
   18.57833481  108.49400330    0.86000001    2.01999998
   18.58166695  107.42600250    0.86000001    2.01999998
   18.58472252  124.13600159    0.86000001    2.01999998
   18.58805656  114.71399689    0.86000001    2.01999998
   18.59138870  116.97799683    0.86000001    2.01999998
   18.59444427  119.62999725    0.86000001    2.01999998
   18.59694481  111.83699799    0.86000001    2.01999998
   18.59833336  109.18900299    0.86000001    2.01999998
   18.60138893  101.26799774    0.86000001    2.01999998
   18.60472298  108.10399628    0.86000001    2.01999998
   18.60777855  103.55200195    0.86000001    2.01999998
   18.61111069  112.12400055    0.86000001    2.01999998
   18.61722183  112.12400055    0.86000001    2.01999998
   18.62111092  102.08999634    0.86000001    2.01999998
   18.62444496  101.42199707    0.86000001    2.01999998
   18.62777710  115.29499817    0.86000001    2.01999998
   18.63027763  106.29499817    0.86000001    2.01999998
   18.63138962  117.71199799    0.86000001    2.01999998
   18.63444519  118.20500183    0.86000001    2.01999998
   18.63777733  103.56400299    0.86000001    2.01999998
   18.64111137  118.99900055    0.86000001    2.01999998
   18.64416695  108.30799866    0.86000001    2.01999998
   18.64749908  115.11100006    0.86000001    2.01999998
   18.65055466  110.02700043    0.86000001    2.01999998
   18.65388870  104.92600250    0.86000001    2.01999998
   18.65999985  104.92600250    0.86000001    2.01999998
   18.66416550  111.09799957    0.86000001    2.01999998
   18.66722107  111.56999969    0.86000001    2.01999998
   18.67055511  103.27999878    0.86000001    2.01999998
   18.67388916  116.17299652    0.86000001    2.01999998
   18.67722130  104.70600128    0.86000001    2.01999998
   18.68027687  110.20500183    0.86000001    2.01999998
   18.68361092   98.10449982    0.86000001    2.01999998
   18.68694305  104.44799805    0.86000001    2.01999998
   18.68999863  113.58100128    0.86000001    2.01999998
   18.69333267   97.85790253    0.86000001    2.01999998
   18.69638824  114.23999786    0.86000001    2.01999998
   18.69694328  108.33100128    0.86000001    2.01999998
   18.70277786  108.33100128    0.86000001    2.01999998
   18.70694542   93.68879700    0.86000001    2.01999998
   18.71027946  116.68099976    0.86000001    2.01999998
   18.71333504  101.80899811    0.86000001    2.01999998
   18.71666718  110.17199707    0.86000001    2.01999998
   18.72000122  105.21299744    0.86000001    2.01999998
   18.72305679  107.18800354    0.86000001    2.01999998
   18.72638893  101.30500031    0.86000001    2.01999998
   18.72944450  100.37100220    0.86000001    2.01999998
   18.73027802  116.81300354    0.86000001    2.01999998
   18.73305511  109.48699951    0.86000001    2.01999998
   18.73638916  112.63500214    0.86000001    2.01999998
   18.73944473  102.61799622    0.86000001    2.01999998
   18.74555588  102.61799622    0.86000001    2.01999998
   18.74972153  112.03099823    0.86000001    2.01999998
   18.75305557  110.81400299    0.86000001    2.01999998
   18.75611115  111.25299835    0.86000001    2.01999998
   18.75944519  115.79599762    0.86000001    2.01999998
   18.76277733  121.82499695    0.86000001    2.01999998
   18.76361084  102.55400085    0.86000001    2.01999998
   18.76638794  111.62799835    0.86000001    2.01999998
   18.76972198  104.18399811    0.86000001    2.01999998
   18.77277756  116.36900330    0.86000001    2.01999998
   18.77611160  111.27100372    0.86000001    2.01999998
   18.77944374  118.12500000    0.86000001    2.01999998
   18.78249931  119.71800232    0.86000001    2.01999998
   18.78861046  119.71800232    0.86000001    2.01999998
   18.79249954  108.25499725    0.86000001    2.01999998
   18.79583359  106.33799744    0.86000001    2.01999998
   18.79694366  111.89600372    0.86000001    2.01999998
   18.79944420  111.26300049    0.86000001    2.01999998
   18.80277634  132.07400513    0.86000001    2.01999998
   18.80611038  119.11799622    0.86000001    2.01999998
   18.80916595  125.78700256    0.86000001    2.01999998
   18.81250000  118.85399628    0.86000001    2.01999998
   18.81555557  118.01799774    0.86000001    2.01999998
   18.81888962  104.59300232    0.86000001    2.01999998
   18.82222366  106.15799713    0.86000001    2.01999998
   18.82527924  100.03299713    0.86000001    2.01999998
   18.83139038  100.03299713    0.86000001    2.01999998
   18.83555603  110.64499664    0.86000001    2.01999998
   18.83861160  101.87500000    0.86000001    2.01999998
   18.84194565  110.71099854    0.86000001    2.01999998
   18.84527779  104.87200165    0.86000001    2.01999998
   18.84833336   95.25789642    0.86000001    2.01999998
   18.85166740  105.28700256    0.86000001    2.01999998
   18.85472298  117.79399872    0.86000001    2.01999998
   18.85805511  101.03600311    0.86000001    2.01999998
   18.86138916  111.65100098    0.86000001    2.01999998
   18.86388969  116.95400238    0.86000001    2.01999998
   18.86499977   98.50569916    0.86000001    2.01999998
   18.86833382  104.22399902    0.86000001    2.01999998
   18.87416649  104.22399902    0.86000001    2.01999998
   18.87833405  109.54100037    0.86000001    2.01999998
   18.88166618  102.43599701    0.86000001    2.01999998
   18.88472176  108.94899750    0.86000001    2.01999998
   18.88805580  110.08000183    0.86000001    2.01999998
   18.89111137  108.81300354    0.86000001    2.01999998
   18.89444351  112.24600220    0.86000001    2.01999998
   18.89694405  104.71099854    0.86000001    2.01999998
   18.89805603  103.90299988    0.86000001    2.01999998
   18.90138817  108.34899902    0.86000001    2.01999998
   18.90444374  109.29799652    0.86000001    2.01999998
   18.90777779  101.25099945    0.86000001    2.01999998
   18.91110992  104.48400116    0.86000001    2.01999998
   18.91694450  104.48400116    0.86000001    2.01999998
   18.92111015  103.69899750    0.86000001    2.01999998
   18.92444420  102.39800262    0.86000001    2.01999998
   18.92749977  102.10399628    0.86000001    2.01999998
   18.93055534  115.93599701    0.86000001    2.01999998
   18.93111038  108.13500214    0.86000001    2.01999998
   18.93444443   93.24220276    0.86000001    2.01999998
   18.93750000  107.14099884    0.86000001    2.01999998
   18.94083214  108.81600189    0.86000001    2.01999998
   18.94416618  109.86599731    0.86000001    2.01999998
   18.94722176   98.35739899    0.86000001    2.01999998
   18.95055580  102.40100098    0.86000001    2.01999998
   18.95388985  110.01499939    0.86000001    2.01999998
   18.96000099  110.01499939    0.86000001    2.01999998
   18.96389008  116.98100281    0.86000001    2.01999998
   18.96722221  110.84999847    0.86000001    2.01999998
   18.97055626  102.21600342    0.86000001    2.01999998
   18.97361183  112.11599731    0.86000001    2.01999998
   18.97694588  102.66799927    0.86000001    2.01999998
   18.98027802  100.52999878    0.86000001    2.01999998
   18.98333359  108.32900238    0.86000001    2.01999998
   18.98666763  104.40499878    0.86000001    2.01999998
   18.98999977   94.33959961    0.86000001    2.01999998
   18.99305534  101.44799805    0.86000001    2.01999998
   18.99638939   98.74659729    0.86000001    2.01999998
   18.99722290  105.36399841    0.86000001    2.01999998
   19.00277710  105.36399841    0.86000001    2.01999998
   19.00694466   94.32189941    0.86000001    2.01999998
   19.01000023   97.66269684    0.86000001    2.01999998
   19.01333427  102.59600067    0.86000001    2.01999998
   19.01666641   92.74819946    0.86000001    2.01999998
   19.01972198  101.09500122    0.86000001    2.01999998
   19.02305603  102.27899933    0.86000001    2.01999998
   19.02638817   97.74469757    0.86000001    2.01999998
   19.02944374  106.52799988    0.86000001    2.01999998
   19.03055573  104.32800293    0.86000001    2.01999998
   19.03305435   98.50509644    0.86000001    2.01999998
   19.03638840   92.34829712    0.86000001    2.01999998
   19.03972244   93.66719818    0.86000001    2.01999998
   19.04555511   93.66719818    0.86000001    2.01999998
   19.04972076  103.38899994    0.86000001    2.01999998
   19.05305481   95.96240234    0.86000001    2.01999998
   19.05611038   96.85040283    0.86000001    2.01999998
   19.05944443  105.65499878    0.86000001    2.01999998
   19.06250000  102.92700195    0.86000001    2.01999998
   19.06388855  111.72399902    0.86000001    2.01999998
   19.06611061  108.21800232    0.86000001    2.01999998
   19.06944466  103.38899994    0.86000001    2.01999998
   19.07250023  107.45899963    0.86000001    2.01999998
   19.07583427  100.08300018    0.86000001    2.01999998
   19.07916832  101.24500275    0.86000001    2.01999998
   19.08222389   97.30930328    0.86000001    2.01999998
   19.08833313   97.30930328    0.86000001    2.01999998
   19.09250069  124.58899689    0.86000001    2.01999998
   19.09583473  118.91799927    0.86000001    2.01999998
   19.09722328  124.29199982    0.86000001    2.01999998
   19.09944534  110.63099670    0.86000001    2.01999998
   19.10277748  118.92099762    0.86000001    2.01999998
   19.10611153  122.25900269    0.86000001    2.01999998
   19.10916710  102.74500275    0.86000001    2.01999998
   19.11250114  106.98999786    0.86000001    2.01999998
   19.11555672  105.00299835    0.86000001    2.01999998
   19.11888885  112.41000366    0.86000001    2.01999998
   19.12222290  113.33100128    0.86000001    2.01999998
   19.12527847   99.54100037    0.86000001    2.01999998
   19.13138962   99.54100037    0.86000001    2.01999998
   19.13527679  110.03800201    0.86000001    2.01999998
   19.13861084  104.91600037    0.86000001    2.01999998
   19.14194489  100.44300079    0.86000001    2.01999998
   19.14500046  103.48000336    0.86000001    2.01999998
   19.14833260  108.79100037    0.86000001    2.01999998
   19.15166664  106.91300201    0.86000001    2.01999998
   19.15472221  100.92099762    0.86000001    2.01999998
   19.15805435   90.54360199    0.86000001    2.01999998
   19.16110992   98.65170288    0.86000001    2.01999998
   19.16388893   97.42250061    0.86000001    2.01999998
   19.16472244   94.28610229    0.86000001    2.01999998
   19.16805458   90.11879730    0.86000001    2.01999998
   19.17416573   90.11879730    0.86000001    2.01999998
   19.17833328  100.50399780    0.86000001    2.01999998
   19.18138885  106.89900208    0.86000001    2.01999998
   19.18472099  101.15899658    0.86000001    2.01999998
   19.18805504   95.94149780    0.86000001    2.01999998
   19.19111061  100.68499756    0.86000001    2.01999998
   19.19444275  102.29000092    0.86000001    2.01999998
   19.19722176   98.14119720    0.86000001    2.01999998
   19.19805527  100.31199646    0.86000001    2.01999998
   19.20138931  101.27799988    0.86000001    2.01999998
   19.20472336  102.12999725    0.86000001    2.01999998
   19.20777893   97.87650299    0.86000001    2.01999998
   19.21111107  102.61199951    0.86000001    2.01999998
   19.21694565  102.61199951    0.86000001    2.01999998
   19.22111130  107.61699677    0.86000001    2.01999998
   19.22416687  100.71900177    0.86000001    2.01999998
   19.22750092   98.39900208    0.86000001    2.01999998
   19.23055649  103.98300171    0.86000001    2.01999998
   19.23111153   99.81259918    0.86000001    2.01999998
   19.23444557   96.40599823    0.86000001    2.01999998
   19.23777771  102.86199951    0.86000001    2.01999998
   19.24083328  101.90499878    0.86000001    2.01999998
   19.24416733   99.60099792    0.86000001    2.01999998
   19.24722290   96.31500244    0.86000001    2.01999998
   19.25055504  102.65299988    0.86000001    2.01999998
   19.25388908  101.57199860    0.86000001    2.01999998
   19.25972176  101.57199860    0.86000001    2.01999998
   19.26388931   94.87750244    0.86000001    2.01999998
   19.26722145  103.71600342    0.86000001    2.01999998
   19.27027702   99.35549927    0.86000001    2.01999998
   19.27361107  100.14299774    0.86000001    2.01999998
   19.27694511   98.12699890    0.86000001    2.01999998
   19.28000069  103.11000061    0.86000001    2.01999998
   19.28333282  104.73400116    0.86000001    2.01999998
   19.28638840   99.95420074    0.86000001    2.01999998
   19.28972244   94.63249969    0.86000001    2.01999998
   19.29305458  104.98600006    0.86000001    2.01999998
   19.29611015   97.31050110    0.86000001    2.01999998
   19.29722214  102.63800049    0.86000001    2.01999998
   19.30249977  102.63800049    0.86000001    2.01999998
   19.30666542  101.37200165    0.86000001    2.01999998
   19.30999947  100.60800171    0.86000001    2.01999998
   19.31333351   98.50589752    0.86000001    2.01999998
   19.31638718   86.91200256    0.86000001    2.01999998
   19.31972313  114.50900269    0.86000001    2.01999998
   19.32305717  102.44799805    0.86000001    2.01999998
   19.32611275   95.89939880    0.86000001    2.01999998
   19.32944489  105.13099670    0.86000001    2.01999998
