    HOUR (UT)   FLARE FACTOR    SKY TESTER    SUN TESTER
   11.79555607   -1.00000000   -1.00000000   -1.00000000
   11.83305550  534.41699219    2.30999994    1.75000000
   11.83638859  653.80700684    2.30999994    1.76999998
   11.83833313  612.14501953    2.32999992    1.76999998
   11.83972168  676.18499756    2.32999992    1.76999998
   11.84111118  753.13500977    2.32999992    1.76999998
   11.84249973  705.43902588    2.32999992    1.76999998
   11.84388828  693.64202881    2.32999992    1.76999998
   11.84527779  663.13098145    2.32999992    1.76999998
   11.84666634  523.58898926    2.34999990    1.78999996
   11.84805489  559.77600098    2.34999990    1.78999996
   11.84944439  672.59002686    2.34999990    1.76999998
   11.85083389  722.38098145    2.34999990    1.78999996
   11.85222244  561.00598145    2.34999990    1.78999996
   11.85361195  611.61999512    2.34999990    1.78999996
   11.85500050  566.89398193    2.34999990    1.78999996
   11.85638905  583.47399902    2.36999989    1.78999996
   11.85777855  651.28302002    2.36999989    1.78999996
   11.85916710  531.60797119    2.36999989    1.78999996
   11.86055565  641.05499268    2.36999989    1.78999996
   11.86194515  510.25500488    2.36999989    1.78999996
   11.86333370  572.48297119    2.36999989    1.78999996
   11.86472225  671.64898682    2.39000010    1.78999996
   11.86611176  771.10601807    2.39000010    1.78999996
   11.86750031  622.84301758    2.36999989    1.78999996
   11.86888885  631.58197021    2.39000010    1.78999996
   11.87027836  701.52502441    2.36999989    1.80999994
   11.87166691  621.27600098    2.36999989    1.78999996
   11.87305546  612.20001221    2.36999989    1.80999994
   11.87444496  609.99401855    2.36999989    1.80999994
   11.87583351  634.37799072    2.39000010    1.80999994
   11.87722206  698.64697266    2.39000010    1.80999994
   11.87861156  531.10601807    2.39000010    1.80999994
   11.88000011  674.97802734    2.39000010    1.83000004
   11.88138866  628.45898438    2.39000010    1.80999994
   11.88277817  668.56097412    2.39000010    1.80999994
   11.88416672  696.35900879    2.39000010    1.80999994
   11.88555527  681.57598877    2.40000010    1.83000004
   11.88694477  730.40399170    2.39000010    1.83000004
   11.88833332  597.09399414    2.39000010    1.83000004
   11.88972187  704.96197510    2.39000010    1.83000004
   11.89111137  564.42901611    2.40000010    1.83000004
   11.89249992  627.55999756    2.39000010    1.83000004
   11.89388847  660.83502197    2.39000010    1.83000004
   11.89527798  690.43103027    2.40000010    1.83000004
   11.89666653  614.62701416    2.39000010    1.83000004
   11.89805508  628.31402588    2.39000010    1.85000002
   11.89944458  562.82800293    2.39000010    1.83000004
   11.90083313  602.08300781    2.39000010    1.85000002
   11.90222168  638.04199219    2.39000010    1.85000002
   11.90361118  665.08398438    2.39000010    1.85000002
   11.90499973  607.01702881    2.39000010    1.85000002
   11.90638828  589.76702881    2.39000010    1.85000002
   11.90777779  636.31201172    2.39000010    1.85000002
   11.90916634  555.32598877    2.39000010    1.85000002
   11.91055489  543.26000977    2.39000010    1.85000002
   11.91194439  516.23101807    2.36999989    1.85000002
   11.91333294  446.79800415    2.36999989    1.85000002
   11.91472149  558.30798340    2.36999989    1.85000002
   11.91611099  568.82202148    2.39000010    1.85000002
   11.91750050  584.19201660    2.36999989    1.86000001
   11.91888905  599.44500732    2.39000010    1.86000001
   11.92027855  525.92401123    2.36999989    1.86000001
   11.92166710  503.17599487    2.36999989    1.86000001
   11.92305565  468.56201172    2.36999989    1.86000001
   11.92444515  456.66198730    2.36999989    1.86000001
   11.92583370  538.06402588    2.36999989    1.86000001
   11.92722225  444.56100464    2.36999989    1.86000001
   11.92861176  444.03201294    2.36999989    1.86000001
   11.93000031  468.99499512    2.36999989    1.86000001
   11.93138885  368.24700928    2.36999989    1.86000001
   11.93277836  481.37799072    2.36999989    1.86000001
   11.93416691  574.47698975    2.36999989    1.86000001
   11.93555546  596.55102539    2.34999990    1.86000001
   11.93694496  576.83898926    2.34999990    1.86000001
   11.93833351  531.13000488    2.34999990    1.86000001
   11.93972206  561.54400635    2.34999990    1.88000000
   11.94111156  571.63500977    2.34999990    1.86000001
   11.94250011  617.08801270    2.36999989    1.88000000
   11.94388866  567.41900635    2.36999989    1.88000000
   11.94527817  547.28100586    2.36999989    1.88000000
   11.94666672  603.34197998    2.36999989    1.88000000
   11.94805527  490.16400146    2.36999989    1.88000000
   11.94944477  497.81900024    2.34999990    1.88000000
   11.95083332  471.58099365    2.34999990    1.88000000
   11.95222187  506.59600830    2.34999990    1.88000000
   11.95361137  560.79901123    2.32999992    1.89999998
   11.95499992  532.67102051    2.32999992    1.88000000
   11.95638847  487.09799194    2.32999992    1.89999998
   11.95777798  472.27999878    2.30999994    1.88000000
   11.95916653  439.18399048    2.30999994    1.88000000
   11.96055508  528.25500488    2.30999994    1.89999998
   11.96194458  453.90200806    2.30999994    1.89999998
   11.96333313  473.01199341    2.30999994    1.89999998
   11.96472168  399.52099609    2.30999994    1.89999998
   11.96611118  445.77801514    2.30999994    1.89999998
   11.96749973  431.55398560    2.28999996    1.89999998
   11.96888828  470.99600220    2.28999996    1.89999998
   11.97027779  419.45599365    2.28999996    1.89999998
   11.97166634  458.37799072    2.28999996    1.89999998
   11.97305489  420.81298828    2.28999996    1.89999998
   11.97444439  408.97299194    2.28999996    1.89999998
   11.97583294  480.55499268    2.28999996    1.89999998
   11.97722149  407.47399902    2.28999996    1.89999998
   11.97861099  411.48199463    2.28999996    1.91999996
   11.97999954  424.24499512    2.26999998    1.89999998
   11.98138809  419.04699707    2.26999998    1.91999996
   11.98277760  390.73300171    2.28999996    1.91999996
   11.98416710  433.26300049    2.26999998    1.91999996
   11.98555565  383.08898926    2.26999998    1.91999996
   11.98694515  492.56600952    2.26999998    1.91999996
   11.98833370  465.38699341    2.26999998    1.91999996
   11.98972225  449.02499390    2.26999998    1.91999996
   11.99111176  423.57000732    2.26999998    1.91999996
   11.99250031  470.48800659    2.26999998    1.94000006
   11.99388885  484.35800171    2.26999998    1.91999996
   11.99527836  418.37399292    2.26999998    1.91999996
   11.99666691  430.10101318    2.26999998    1.91999996
   11.99805546  502.78500366    2.26999998    1.91999996
   11.99944496  466.12701416    2.25000000    1.94000006
   12.00083351  419.42898560    2.25000000    1.91999996
   12.00222206  322.11801147    2.25000000    1.94000006
   12.00361156  447.70800781    2.25000000    1.91999996
   12.00500011  450.98901367    2.25000000    1.94000006
   12.00638866  428.37500000    2.25000000    1.94000006
   12.00777817  355.42800903    2.25000000    1.94000006
   12.00916672  378.84100342    2.23000002    1.94000006
   12.01055527  410.48498535    2.25000000    1.94000006
   12.01194477  401.39599609    2.23000002    1.94000006
   12.01333332  369.45001221    2.23000002    1.94000006
   12.01472187  379.93200684    2.23000002    1.94000006
   12.01611137  418.13500977    2.23000002    1.94000006
   12.01749992  464.87701416    2.23000002    1.94000006
   12.01888847  467.10598755    2.21000004    1.94000006
   12.02027798  504.27700806    2.21000004    1.94000006
   12.02166653  489.97799683    2.21000004    1.94000006
   12.02305508  465.67001343    2.21000004    1.94000006
   12.02444458  435.34600830    2.21000004    1.96000004
   12.02583313  404.52099609    2.19000006    1.96000004
   12.02722168  401.63299561    2.21000004    1.96000004
   12.02861118  416.34298706    2.19000006    1.94000006
   12.02999973  453.01901245    2.19000006    1.96000004
   12.03138828  410.84100342    2.19000006    1.96000004
   12.03277779  410.72299194    2.19000006    1.96000004
   12.03416729  434.80398560    2.19000006    1.96000004
   12.03555584  439.61499023    2.19000006    1.96000004
   12.03694534  417.06201172    2.19000006    1.96000004
   12.03833389  444.28201294    2.19000006    1.96000004
   12.03972244  413.58898926    2.19000006    1.96000004
   12.04111195  394.30200195    2.19000006    1.96000004
   12.04250050  437.63800049    2.19000006    1.98000002
   12.04388905  417.79400635    2.17000008    1.96000004
   12.04527855  398.73300171    2.19000006    1.96000004
   12.04666710  361.20700073    2.19000006    1.98000002
   12.04805565  408.37298584    2.17000008    1.98000002
   12.04944515  343.45800781    2.17000008    1.98000002
   12.05083370  366.87899780    2.17000008    1.98000002
   12.05222225  383.62298584    2.17000008    1.98000002
   12.05361176  341.02899170    2.17000008    1.98000002
   12.05500031  406.65499878    2.17000008    1.98000002
   12.05638885  365.61700439    2.17000008    1.98000002
   12.05777836  382.63800049    2.17000008    1.98000002
   12.05916691  372.25698853    2.17000008    1.98000002
   12.06055546  395.49200439    2.17000008    1.98000002
   12.06194496  367.03298950    2.15000010    1.98000002
   12.06333351  376.93600464    2.17000008    1.98000002
   12.06472206  339.96099854    2.17000008    1.98000002
   12.06611156  351.52099609    2.15000010    2.00000000
   12.06750011  253.78599548    2.15000010    2.00000000
   12.06888866  312.92098999    2.15000010    2.00000000
   12.07027817  305.58801270    2.15000010    2.00000000
   12.07166672  337.96301270    2.15000010    2.00000000
   12.07305527  280.75100708    2.15000010    2.00000000
   12.07444477  330.46499634    2.15000010    2.00000000
   12.07583332  339.74600220    2.15000010    2.00000000
   12.07722187  349.41198730    2.15000010    2.00000000
   12.07861137  360.52600098    2.15000010    2.00000000
   12.07999992  373.64999390    2.13000011    2.00000000
   12.08138847  347.56100464    2.15000010    2.00000000
   12.08277798  356.14999390    2.13000011    2.00000000
   12.08416653  349.48800659    2.15000010    2.00000000
   12.08555508  369.65600586    2.13000011    2.01999998
   12.08694458  355.74700928    2.13000011    2.00000000
   12.08833313  319.56799316    2.13000011    2.01999998
   12.08972168  270.75698853    2.13000011    2.01999998
   12.09111118  303.98400879    2.13000011    2.01999998
   12.09249973  316.26000977    2.11999989    2.01999998
   12.09388828  339.29098511    2.11999989    2.01999998
   12.09527779  309.80499268    2.11999989    2.01999998
   12.09666634  308.99398804    2.11999989    2.01999998
   12.09805489  230.03300476    2.09999990    2.01999998
   12.09805489  653.80700684    2.30999994    1.76999998
   12.09861088  286.25100708    2.09999990    2.01999998
   12.10194492  286.07699585    2.09999990    2.01999998
   12.10500050  238.37600708    2.09999990    2.01999998
   12.10833359  247.73899841    2.07999992    2.01999998
   12.11166668  267.01699829    2.07999992    2.03999996
   12.11472225  229.36099243    2.07999992    2.03999996
   12.11888885  229.36099243    2.07999992    2.03999996
   12.12305546  238.59399414    2.07999992    2.05999994
   12.12638855  203.07899475    2.07999992    2.05999994
   12.12944412  192.31100464    2.07999992    2.03999996
   12.13194466  219.93600464    2.07999992    2.03999996
   12.13305569  218.00999451    2.07999992    2.03999996
   12.13638878  206.32800293    2.07999992    2.03999996
   12.13972187  221.47799683    2.05999994    2.05999994
   12.14277744  234.54200745    2.05999994    2.05999994
   12.14611053  247.78999329    2.05999994    2.05999994
   12.14916611  193.48899841    2.03999996    2.05999994
   12.15249920  185.43800354    2.03999996    2.07999992
   12.15583324  175.85800171    2.01999998    2.07999992
   12.16166592  175.85800171    1.98000002    2.07999992
   12.16583252  194.33200073    1.88000000    2.07999992
   12.16916656  179.16000366    1.88000000    2.07999992
   12.17222214  149.34700012    1.88000000    2.07999992
   12.17555618  173.56700134    1.88000000    2.07999992
   12.17888927  195.22799683    1.89999998    2.07999992
   12.18194485  173.99899292    1.91999996    2.07999992
   12.18527794  171.46400452    1.91999996    2.07999992
   12.18861103  154.21299744    1.94000006    2.07999992
   12.19166660  159.93800354    1.96000004    2.07999992
   12.19499969  140.45399475    1.96000004    2.07999992
   12.19833374  146.68499756    1.96000004    2.09999990
   12.19888878  178.80400085    1.96000004    2.07999992
   12.20472240  178.80400085    1.96000004    2.07999992
   12.20861053  139.61399841    1.96000004    2.07999992
   12.21194458  120.36599731    1.98000002    2.09999990
   12.21527767  121.02400208    1.98000002    2.09999990
   12.21833324  118.86699677    1.98000002    2.09999990
   12.22166634  115.07900238    1.98000002    2.09999990
   12.22499943  116.08599854    1.96000004    2.09999990
   12.22805500  137.54400635    1.96000004    2.09999990
   12.23138809  117.02799988    1.94000006    2.11999989
   12.23222160  128.79400635    1.94000006    2.11999989
   12.23500061  131.59300232    1.94000006    2.09999990
   12.23833370  121.14700317    1.94000006    2.09999990
   12.24138927  113.80000305    1.89999998    2.11999989
   12.24750042  113.80000305    1.91999996    2.11999989
   12.25166702  112.44799805    1.91999996    2.11999989
   12.25472260  108.73799896    1.89999998    2.11999989
   12.25805569  112.27400208    1.91999996    2.11999989
   12.26138878  109.08999634    1.88000000    2.13000011
   12.26444435  112.86799622    1.88000000    2.13000011
   12.26555538  120.26699829    1.88000000    2.13000011
   12.26805496  114.76000214    1.88000000    2.13000011
   12.27138901  105.07700348    1.86000001    2.13000011
   12.27472210  110.49099731    1.86000001    2.13000011
   12.27777767  103.46900177    1.86000001    2.13000011
   12.28111076  109.60900116    1.86000001    2.15000010
   12.28416729  107.10900116    1.85000002    2.13000011
   12.29027843  107.10900116    1.86000001    2.13000011
   12.29444504  109.39199829    1.85000002    2.13000011
   12.29777813  107.04000092    1.85000002    2.13000011
   12.29888916  105.36199951    1.85000002    2.13000011
   12.30111122  103.29499817    1.85000002    2.13000011
   12.30444431  106.82900238    1.85000002    2.15000010
   12.30777836  102.62100220    1.85000002    2.17000008
   12.31083393  106.49700165    1.83000004    2.15000010
   12.31416702  103.81800079    1.83000004    2.15000010
   12.31722260  114.20500183    1.85000002    2.15000010
   12.32055569  103.85700226    1.85000002    2.15000010
   12.32388878  112.29799652    1.78999996    2.15000010
   12.32694435  109.39099884    1.78999996    2.15000010
   12.33305550  109.39099884    1.78999996    2.17000008
   12.33722210  108.63200378    1.78999996    2.17000008
   12.34055519  114.29399872    1.80999994    2.17000008
   12.34388828  115.60700226    1.80999994    2.17000008
   12.34694386  104.03900146    1.78999996    2.17000008
   12.35027790  112.31099701    1.78999996    2.17000008
   12.35361195  112.12899780    1.76999998    2.19000006
   12.35666752  107.58300018    1.76999998    2.17000008
   12.36000061  107.28500366    1.76999998    2.19000006
   12.36333370  101.35199738    1.76999998    2.19000006
   12.36555576  104.11199951    1.75000000    2.17000008
   12.36666679  106.28299713    1.75000000    2.17000008
   12.36999989  117.38800049    1.75000000    2.19000006
   12.37611103  117.38800049    1.76999998    2.19000006
   12.38027763  104.70700073    1.78999996    2.19000006
   12.38333321  115.62200165    1.78999996    2.19000006
   12.38666630  114.26000214    1.78999996    2.19000006
   12.38972187  107.71700287    1.76999998    2.19000006
   12.39305496  110.06800079    1.80999994    2.19000006
   12.39638901  112.99500275    1.80999994    2.19000006
   12.39888859  106.25900269    1.80999994    2.19000006
   12.39999962  114.28900146    1.83000004    2.19000006
   12.40333271  109.40399933    1.83000004    2.19000006
   12.40638828  110.02100372    1.86000001    2.19000006
   12.40972137  114.13200378    1.86000001    2.21000004
   12.41305542  112.23600006    1.86000001    2.21000004
   12.41888905  112.23600006    1.83000004    2.21000004
   12.42305565  109.91000366    1.80999994    2.21000004
   12.42611122  113.89900208    1.80999994    2.21000004
   12.42944431  112.94499969    1.80999994    2.21000004
   12.43222237  105.07299805    1.78999996    2.21000004
   12.43305588  122.26599884    1.78999996    2.21000004
   12.43638897  112.78399658    1.78999996    2.21000004
   12.43972206  116.49099731    1.78999996    2.21000004
   12.44277763  118.72599792    1.78999996    2.21000004
   12.44611073  129.16200256    1.76999998    2.23000002
   12.44916630  120.65100098    1.76999998    2.23000002
   12.45249939  114.72200012    1.75000000    2.23000002
   12.45583344  114.54299927    1.80999994    2.21000004
   12.46166611  114.54299927    2.19000006    2.21000004
   12.46583271  107.83999634    2.23000002    2.21000004
   12.46916580  115.60900116    2.25000000    2.21000004
   12.47222137  110.48999786    2.26999998    2.23000002
   12.47555542  115.08599854    2.21000004    2.23000002
   12.47861099  114.63800049    2.09999990    2.23000002
   12.48194408  109.57199860    2.03999996    2.23000002
   12.48527813  108.57800293    2.05999994    2.23000002
   12.48833370  115.30000305    2.05999994    2.25000000
   12.49166679  106.84700012    2.01999998    2.23000002
   12.49499989  113.67800140    2.11999989    2.23000002
   12.49805546  108.03500366    2.28999996    2.23000002
   12.49888897  117.98000336    2.32999992    2.23000002
   12.50444412  117.98000336    2.61999989    2.25000000
   12.50861073  108.50299835    2.73000002    2.25000000
   12.51194477  109.04900360    2.71000004    2.25000000
   12.51500034  115.45099640    2.69000006    2.23000002
   12.51833344  106.67099762    2.67000008    2.23000002
   12.52166653  117.39800262    2.59999990    2.25000000
   12.52472210  105.25900269    2.40000010    2.25000000
   12.52805519  105.95300293    2.25000000    2.25000000
   12.53138828  116.23600006    2.11999989    2.26999998
   12.53222179  105.14099884    2.07999992    2.25000000
   12.53472233  106.20099640    1.94000006    2.26999998
   12.53805637  110.90000153    1.78999996    2.26999998
   12.54138947  111.58999634    1.78999996    2.25000000
   12.54750061  111.58999634    1.71000004    2.26999998
   12.55138874  115.69799805    1.63000000    2.26999998
   12.55472279  107.22299957    1.58000004    2.26999998
   12.55805588  102.51000214    1.53999996    2.28999996
   12.56111145   99.27619934    1.53999996    2.28999996
   12.56444454  111.41400146    1.55999994    2.28999996
   12.56555557  103.40599823    1.60000002    2.28999996
   12.56805515  105.68900299    1.61000001    2.28999996
   12.57138920  117.43199921    1.66999996    2.28999996
   12.57472229  109.51100159    1.66999996    2.26999998
   12.57777786  115.79000092    1.66999996    2.28999996
   12.58111095  108.01200104    1.66999996    2.28999996
   12.58416653  107.36299896    1.64999998    2.28999996
   12.59027767  107.36299896    1.58000004    2.28999996
   12.59444427   99.54550171    1.61000001    2.28999996
   12.59749985  106.45500183    1.63000000    2.30999994
   12.59888840   97.30809784    1.63000000    2.30999994
   12.60111141   93.78279877    1.63000000    2.28999996
   12.60444450  103.32700348    1.63000000    2.28999996
   12.60777855  104.78199768    1.78999996    2.28999996
   12.61083412  108.34300232    1.78999996    2.28999996
   12.61416721  104.75099945    1.76999998    2.30999994
   12.61722279  103.30400085    1.78999996    2.30999994
   12.62055588  102.20700073    1.78999996    2.30999994
   12.62388897  108.22799683    1.85000002    2.30999994
   12.62694454  106.34899902    1.85000002    2.30999994
   12.63305569  106.34899902    1.88000000    2.30999994
   12.63722229  104.69300079    1.86000001    2.30999994
   12.64055538  118.17800140    1.88000000    2.30999994
   12.64361095  101.38800049    2.05999994    2.30999994
   12.64694405  111.23100281    2.09999990    2.30999994
   12.64999962   95.32959747    2.25000000    2.30999994
   12.65333271  108.61100006    2.32999992    2.28999996
   12.65666676  111.35199738    2.36999989    2.26999998
   12.65972137  108.38899994    2.51999998    2.26999998
   12.66305542  117.06999969    2.50000000    2.28999996
   12.66555500  107.73999786    2.36999989    2.28999996
   12.66666698  106.77400208    2.32999992    2.30999994
   12.67000008  112.28600311    2.17000008    2.32999992
   12.67583370  112.28600311    1.83000004    2.32999992
   12.68000031   98.66719818    1.76999998    2.32999992
   12.68333340  107.11499786    1.75000000    2.32999992
   12.68638897  108.03199768    1.66999996    2.32999992
   12.68972206  102.53199768    1.63000000    2.32999992
   12.69305515  103.58000183    1.58000004    2.32999992
   12.69611073  103.94599915    1.53999996    2.32999992
   12.69888878  104.43199921    1.53999996    2.32999992
   12.69972229  108.20800018    1.53999996    2.32999992
   12.70305538  102.66899872    1.58000004    2.34999990
   12.70638847  106.49199677    1.58000004    2.34999990
   12.70944405  103.74400330    1.60000002    2.34999990
   12.71277714  100.38800049    1.58000004    2.34999990
   12.71861076  100.38800049    1.55999994    2.32999992
   12.72277737  106.68699646    1.55999994    2.34999990
   12.72611046  106.02100372    1.50000000    2.34999990
   12.72944355  108.98500061    1.46000004    2.34999990
   12.73222160  100.97200012    1.41999996    2.34999990
   12.73277760  103.54599762    1.41999996    2.34999990
   12.73611164  108.64399719    1.44000006    2.34999990
   12.73944473  114.28900146    1.44000006    2.34999990
   12.74250031  103.93099976    1.46000004    2.36999989
   12.74583340  107.11900330    1.46000004    2.34999990
   12.74888897  105.71900177    1.46000004    2.34999990
   12.75222206  105.00099945    1.48000002    2.34999990
   12.75555515  107.13099670    1.46000004    2.36999989
   12.76166630  107.13099670    1.46000004    2.34999990
   12.76583290  105.38800049    1.44000006    2.36999989
   12.76888847   98.90689850    1.44000006    2.36999989
   12.77222157  111.97200012    1.41999996    2.36999989
   12.77527714  103.45400238    1.41999996    2.36999989
   12.77861118  101.06400299    1.41999996    2.36999989
   12.78194427  110.40299988    1.41999996    2.36999989
   12.78500080  110.94799805    1.41999996    2.36999989
   12.78833389  101.68699646    1.41999996    2.36999989
   12.79166698  112.65799713    1.41999996    2.36999989
   12.79472256  108.81099701    1.41999996    2.36999989
   12.79805565  111.78900146    1.41999996    2.36999989
   12.79888916  102.31700134    1.41999996    2.36999989
   12.80444431  102.31700134    1.44000006    2.36999989
   12.80861092  105.61100006    1.44000006    2.36999989
   12.81166649  107.70999908    1.44000006    2.36999989
   12.81500053  107.62200165    1.41999996    2.39000010
   12.81833363  104.33200073    1.41999996    2.39000010
   12.82138920  104.45999908    1.39999998    2.39000010
   12.82472229  101.22200012    1.39999998    2.39000010
   12.82805538  106.19999695    1.39999998    2.39000010
   12.83111095  102.42700195    1.39999998    2.39000010
   12.83222198   98.36380005    1.39999998    2.39000010
   12.85361195   98.36380005    1.34000003    2.39000010
   12.85805607  102.85900116    1.34000003    2.39000010
   12.86111164   99.64849854    1.34000003    2.39000010
   12.86444473   99.78839874    1.36000001    2.40000010
   12.86555576  102.49900055    1.38000000    2.39000010
   12.86805534  103.54199982    1.39999998    2.39000010
   12.87138939  105.72899628    1.39999998    2.39000010
   12.87444496  110.43000031    1.39999998    2.39000010
   12.87777805  108.09999847    1.39999998    2.39000010
   12.88111115  109.72200012    1.30999994    2.40000010
   12.88416672  104.19100189    1.34000003    2.40000010
   12.88749981  105.65899658    1.41999996    2.40000010
   12.89055538  108.43000031    1.50000000    2.40000010
   12.89638901  108.43000031    1.53999996    2.40000010
   12.90055561  100.64900208    1.53999996    2.39000010
   12.90388870  100.77200317    1.53999996    2.39000010
   12.90694427  104.53500366    1.58000004    2.40000010
   12.91027737  102.28299713    1.63000000    2.40000010
   12.91361046   98.42810059    1.63000000    2.40000010
   12.91666698   97.37999725    1.63000000    2.40000010
   12.92000008  105.31099701    1.63000000    2.40000010
   12.92305565  103.47499847    1.64999998    2.40000010
   12.92638874  100.78199768    1.48000002    2.40000010
   12.92972279  108.26499939    1.48000002    2.40000010
   12.93249989  105.36299896    1.44000006    2.40000010
   12.93333340   97.69090271    1.44000006    2.40000010
   12.93916702   97.69090271    1.41999996    2.40000010
   12.94333363   97.18139648    1.39999998    2.40000010
   12.94666672  105.66000366    1.39999998    2.40000010
   12.94999981  102.47799683    1.41999996    2.40000010
   12.95305538  101.97399902    1.41999996    2.42000008
   12.95638847  109.05300140    1.41999996    2.40000010
   12.95944405  105.30799866    1.41999996    2.40000010
   12.96277714  100.59500122    1.39999998    2.40000010
   12.96583271  104.26200104    1.51999998    2.42000008
   12.96638870  100.88500214    1.51999998    2.42000008
   12.96972179  101.20800018    1.55999994    2.42000008
   12.97277737   99.50969696    1.61000001    2.42000008
   12.97611046  105.07099915    1.66999996    2.42000008
   12.98222160  105.07099915    1.71000004    2.42000008
   12.98638916  113.18399811    1.80999994    2.42000008
   12.98944473  104.33499908    1.83000004    2.40000010
   12.99277782   99.21009827    1.91999996    2.40000010
   12.99583340   96.44879913    1.94000006    2.40000010
   12.99916649  106.91699982    1.94000006    2.40000010
   12.99944496  105.18699646    1.94000006    2.40000010
   13.00277805  108.44100189    1.98000002    2.40000010
   13.00583363   99.66549683    1.88000000    2.42000008
   13.00916672  102.34999847    2.28999996    2.44000006
   13.01249981  104.16300201    2.44000006    2.44000006
   13.01555538  103.88200378    2.98000002    2.42000008
   13.01888847   98.07910156    3.45000005    2.44000006
   13.02499962   98.07910156    3.14000010    2.40000010
   13.02916622  103.15799713    2.80999994    2.44000006
   13.03249931  101.92800140    2.48000002    2.40000010
   13.03277779  105.74299622    2.40000010    2.42000008
   13.03611183  104.20300293    2.53999996    2.46000004
   13.03916740   97.86969757    2.96000004    2.44000006
   13.04250050  104.12300110    3.28999996    2.42000008
   13.04583359  103.68499756    3.68000007    2.42000008
   13.04888916  104.01499939    4.38999987    2.42000008
   13.05222225  107.82299805    4.80000019    2.42000008
   13.05555534  110.11799622    4.90999985    2.40000010
   13.05861092  110.60399628    4.69999981    2.36999989
   13.06194496  103.50599670    4.90999985    2.36999989
   13.06777763  103.50599670    4.90999985    2.39000010
   13.07194424  109.71700287    4.65999985    2.39000010
   13.07527733  106.25800323    4.55999994    2.36999989
   13.07833290   99.93029785    4.90999985    2.42000008
   13.08166695   96.93759918    4.82999992    2.44000006
   13.08500004   96.47450256    4.51000023    2.44000006
   13.08805561  101.64399719    4.34999990    2.42000008
   13.09138870  100.69200134    3.48000002    2.42000008
   13.09444427  102.91500092    2.94000006    2.46000004
   13.09777737  100.63200378    2.75000000    2.44000006
   13.09916592  104.64800262    2.71000004    2.44000006
   13.10138893  105.11000061    2.28999996    2.44000006
   13.10472298  100.32900238    1.86000001    2.46000004
   13.11055565  100.32900238    1.64999998    2.46000004
   13.11472225  102.32099915    2.05999994    2.46000004
   13.11805534  103.96800232    2.15000010    2.46000004
   13.12138939  101.78299713    2.28999996    2.44000006
   13.12444496  101.76899719    2.55999994    2.46000004
   13.12777805  108.80599976    2.48000002    2.44000006
   13.13083363  101.83999634    2.05999994    2.46000004
   13.13249969  102.10800171    1.71000004    2.46000004
   13.13444424  105.85800171    1.46000004    2.46000004
   13.13777733  104.03399658    1.44000006    2.46000004
   13.14111137  100.16300201    1.60000002    2.46000004
   13.14416695   98.07299805    1.64999998    2.46000004
   13.14750004  103.67900085    1.75000000    2.46000004
   13.15361118  103.67900085    1.58000004    2.46000004
   13.15777779  100.44499969    1.44000006    2.46000004
   13.16083336   98.56359863    1.41999996    2.46000004
   13.16416645   95.51360321    1.53999996    2.46000004
   13.16583252  106.46199799    1.60000002    2.46000004
   13.16777802  100.82199860    1.71000004    2.46000004
   13.17111111   99.24949646    1.86000001    2.46000004
   13.17416668   98.02649689    1.88000000    2.48000002
   13.17750072  108.29900360    2.03999996    2.46000004
   13.18055630  100.40899658    2.01999998    2.46000004
   13.18388939   99.39620209    1.58000004    2.46000004
   13.18722248   97.51480103    1.48000002    2.48000002
   13.19055557  104.45800018    1.55999994    2.46000004
   13.19638920  104.45800018    1.58000004    2.46000004
   13.20055580   97.76059723    1.58000004    2.48000002
   13.20361137  105.85399628    1.50000000    2.48000002
   13.20694447  103.56600189    1.48000002    2.46000004
   13.21027756  102.42600250    1.46000004    2.48000002
   13.21333313  102.57299805    1.33000004    2.48000002
   13.21666622  105.30500031    1.21000004    2.48000002
   13.21999931  100.34200287    1.21000004    2.48000002
   13.22305489   97.22219849    1.19000006    2.46000004
   13.22638798   96.65699768    1.23000002    2.48000002
   13.22944355  103.39199829    1.19000006    2.48000002
   13.23249912  102.16500092    1.19000006    2.48000002
   13.23333359   98.88809967    1.19000006    2.48000002
   13.23916721   98.88809967    1.19000006    2.48000002
   13.24333382  100.98999786    1.19000006    2.48000002
   13.24666691  102.72299957    1.19000006    2.48000002
   13.24972248  102.25599670    1.19000006    2.48000002
   13.25305557  102.58799744    1.23000002    2.48000002
   13.25638866  100.14099884    1.21000004    2.48000002
   13.25944424  105.83599854    1.23000002    2.48000002
   13.26277733  100.04100037    1.21000004    2.48000002
   13.26583290  104.68199921    1.23000002    2.48000002
   13.26666641  104.68099976    1.23000002    2.48000002
   13.26972198   99.06060028    1.25000000    2.48000002
   13.27305508   99.92279816    1.23000002    2.48000002
   13.27611065   99.99210358    1.23000002    2.48000002
   13.28194427   99.99210358    1.19000006    2.48000002
   13.28611183  101.25000000    1.16999996    2.50000000
   13.28944492  101.02600098    1.14999998    2.50000000
   13.29250050  101.48400116    1.14999998    2.50000000
   13.29583359   99.39969635    1.16999996    2.50000000
   13.29916668  104.64299774    1.16999996    2.50000000
   13.29972267  104.85299683    1.19000006    2.50000000
   13.30277824  105.42099762    1.19000006    2.50000000
   13.30611134  100.50700378    1.19000006    2.50000000
   13.30944443   99.99019623    1.19000006    2.50000000
   13.31250000  103.53900146    1.41999996    2.50000000
   13.31583309   99.54060364    1.41999996    2.50000000
   13.31888866  106.87899780    1.44000006    2.50000000
   13.32499981  106.87899780    1.30999994    2.50000000
   13.32916641  100.80999756    1.28999996    2.50000000
   13.33222198  107.41500092    1.33000004    2.50000000
   13.33305550  107.97000122    1.36000001    2.50000000
   13.33583260   97.96769714    1.39999998    2.50000000
   13.33916664  100.43099976    1.44000006    2.50000000
   13.34249973   98.22059631    1.53999996    2.50000000
   13.34555531  112.06999969    1.55999994    2.50000000
   13.34888840  103.23899841    1.28999996    2.50000000
   13.35194492   99.77429962    1.28999996    2.50000000
   13.35527802  101.16200256    1.28999996    2.50000000
   13.35861111  109.18199921    1.33000004    2.50000000
   13.36166668  106.38200378    1.25000000    2.50000000
   13.36777782  106.38200378    1.25000000    2.50000000
   13.37194443  103.04599762    1.19000006    2.50000000
   13.37500000  111.26200104    1.14999998    2.51999998
   13.37833309  105.77300262    1.14999998    2.51999998
   13.38166714  103.46800232    1.14999998    2.51999998
   13.38472176  103.01999664    1.14999998    2.51999998
   13.38805580  100.97699738    1.13000000    2.51999998
   13.39111137  107.24500275    1.13000000    2.51999998
   13.39444447  106.42700195    1.13000000    2.50000000
   13.39777756  103.29199982    1.13000000    2.51999998
   13.39972210  104.91799927    1.13000000    2.51999998
   13.40111065  108.68599701    1.11000001    2.51999998
   13.40444374  104.16200256    1.13000000    2.51999998
   13.41055489  104.16200256    1.14999998    2.51999998
   13.41472149   99.94779968    1.14999998    2.51999998
   13.41833401  106.58200073    1.14999998    2.51999998
   13.42138958  103.29199982    1.19000006    2.51999998
   13.42472267  113.87400055    1.21000004    2.51999998
   13.42805576  112.38400269    1.21000004    2.51999998
   13.43111134  107.93000031    1.39999998    2.51999998
   13.43305588  103.86399841    1.26999998    2.51999998
   13.43472195  107.64800262    1.26999998    2.51999998
   13.43805599  103.03700256    1.19000006    2.51999998
   13.44138908  106.05200195    1.13000000    2.53999996
   13.44444466  108.94100189    1.13000000    2.53999996
   13.44777775  107.80999756    1.34000003    2.53999996
   13.45333290  107.80999756    1.34000003    2.51999998
   13.45749950  108.14900208    1.36000001    2.51999998
   13.46083355  104.57099915    1.60000002    2.53999996
   13.46388912  105.55500031    1.36000001    2.53999996
   13.46638870  107.48999786    1.50000000    2.51999998
   13.46749973  103.89499664    1.60000002    2.51999998
   13.47083282  110.70500183    1.48000002    2.51999998
   13.47416592  112.30599976    1.38000000    2.51999998
   13.47722149  102.21800232    1.26999998    2.53999996
   13.48055553  111.65899658    1.19000006    2.53999996
   13.48361111  104.49199677    1.38000000    2.53999996
   13.48694515  106.77999878    1.41999996    2.53999996
   13.49027824  110.00700378    1.44000006    2.53999996
   13.49638939  110.00700378    1.39999998    2.53999996
   13.50055599  108.97799683    1.28999996    2.53999996
   13.50361156  111.50900269    1.34000003    2.53999996
   13.50694466  109.92700195    1.55999994    2.53999996
   13.51000023  109.24299622    1.55999994    2.53999996
   13.51333332  108.54499817    1.53999996    2.53999996
   13.51666641  106.38800049    2.21000004    2.53999996
   13.51972198  104.28299713    1.75000000    2.53999996
   13.52305508  103.59100342    1.73000002    2.51999998
   13.52638817  108.18800354    2.01999998    2.53999996
   13.52944374  105.35500336    2.17000008    2.51999998
   13.53277779  108.52999878    2.25000000    2.53999996
   13.53333378  113.17700195    2.25000000    2.53999996
   13.53916740  113.17700195    2.46000004    2.53999996
   13.54333401   96.46479797    2.42000008    2.51999998
   13.54638958  107.20999908    2.57999992    2.55999994
   13.54972267  110.24600220    2.34999990    2.48000002
   13.55305576  103.37899780    2.15000010    2.51999998
   13.55611134  102.39600372    2.19000006    2.53999996
   13.55944443  105.15299988    1.16999996    2.55999994
   13.56250000  105.21299744    1.16999996    2.55999994
   13.56583309  105.38200378    1.30999994    2.55999994
   13.56666660   97.30670166    1.38000000    2.53999996
   13.56944466  115.32700348    1.66999996    2.53999996
   13.57277775  100.04900360    1.88000000    2.55999994
   13.57611084  100.94400024    1.50000000    2.55999994
   13.58194447  100.94400024    1.53999996    2.55999994
   13.58611107  107.23100281    1.53999996    2.55999994
   13.58944416  101.55699921    1.53999996    2.55999994
   13.59249973  109.35500336    1.53999996    2.55999994
   13.59583282  108.78199768    1.64999998    2.53999996
   13.59888840  101.92299652    1.55999994    2.53999996
   13.60000038  103.44699860    1.55999994    2.53999996
   13.60249996  103.80400085    1.66999996    2.55999994
   13.60583401  101.61000061    1.88000000    2.53999996
   13.60916710  100.84999847    1.89999998    2.53999996
   13.61222267  109.64900208    1.53999996    2.55999994
   13.61555576  104.55000305    1.38000000    2.55999994
   13.61888885  106.03099823    1.34000003    2.55999994
   13.62472248  106.03099823    1.26999998    2.55999994
   13.62888908  103.74099731    1.58000004    2.55999994
   13.63222218   99.00260162    1.60000002    2.55999994
   13.63333321  103.89299774    1.69000006    2.55999994
   13.63555527   99.69300079    1.66999996    2.55999994
   13.63888836  100.18000031    1.58000004    2.55999994
   13.64222240  105.94899750    1.51999998    2.55999994
   13.64527798  100.16899872    1.48000002    2.55999994
   13.64861107  105.32299805    1.48000002    2.55999994
   13.65194416  106.95600128    1.39999998    2.55999994
   13.65499973   97.06179810    1.33000004    2.55999994
   13.65833282   98.58519745    1.07000005    2.55999994
   13.66166592  108.06600189    0.98000002    2.55999994
   13.66777802  108.06600189    1.01999998    2.57999992
   13.67194462  103.86399841    1.01999998    2.55999994
   13.67500019  101.55300140    1.03999996    2.55999994
   13.67833328  108.43499756    1.03999996    2.55999994
   13.68138885  101.34799957    1.07000005    2.57999992
   13.68472195  113.19699860    1.09000003    2.57999992
   13.68805599  103.74500275    1.07000005    2.57999992
   13.69111156   96.29100037    1.01999998    2.57999992
   13.69444466  106.23799896    1.00000000    2.57999992
   13.69777775  100.38600159    1.00000000    2.57999992
   13.69999981   97.16809845    0.98000002    2.57999992
   13.70111084  100.64499664    0.98000002    2.57999992
   13.70444393  104.89399719    1.00000000    2.57999992
   13.71055508  104.89399719    1.00000000    2.57999992
   13.71472168  101.94899750    0.98000002    2.57999992
   13.71777725  103.73100281    0.98000002    2.57999992
   13.72111034   99.64489746    1.00000000    2.57999992
   13.72444439  100.81900024    1.01999998    2.57999992
   13.72749996   97.34839630    1.01999998    2.57999992
   13.73083305  112.46499634    1.09000003    2.57999992
   13.73333359  102.91400146    1.38000000    2.57999992
   13.73416710  100.52600098    1.63000000    2.55999994
   13.73750019  103.32399750    2.13000011    2.55999994
   13.74083328  104.71499634    2.19000006    2.55999994
   13.74388885  111.50199890    2.32999992    2.55999994
   13.74722290  104.96499634    2.55999994    2.55999994
   13.75333309  104.96499634    3.25000000    2.55999994
   13.75749969  104.86499786    2.75000000    2.53999996
   13.76083374  109.11900330    2.75000000    2.57999992
   13.76388931  108.19799805    2.64000010    2.55999994
   13.76666641   99.82029724    2.91000009    2.55999994
   13.76749992  103.51899719    2.93000007    2.55999994
   13.77083302  108.27400208    2.89000010    2.57999992
   13.77416611  106.74800110    2.34999990    2.55999994
   13.77722168  103.35299683    2.15000010    2.57999992
   13.78055573   99.77950287    1.75000000    2.57999992
   13.78388977   99.07469940    1.41999996    2.57999992
   13.78694534  102.34200287    1.34000003    2.57999992
   13.79027843  107.61000061    1.30999994    2.57999992
   13.79611111  107.61000061    1.61000001    2.57999992
   13.80027771  105.80999756    1.60000002    2.57999992
   13.80361176  106.58999634    1.48000002    2.57999992
   13.80666733  100.93699646    1.30999994    2.57999992
   13.81000042  106.31400299    1.25000000    2.57999992
   13.81333351  112.29100037    1.13000000    2.57999992
   13.81638908  102.94300079    1.11000001    2.57999992
   13.81972218  104.57299805    1.11000001    2.59999990
   13.82305527  107.15899658    1.03999996    2.59999990
   13.82611084  105.96299744    1.00000000    2.59999990
   13.82944393  108.02400208    0.95999998    2.59999990
   13.83249950  103.65699768    0.94000000    2.59999990
   13.83333302  110.41100311    0.94000000    2.59999990
   13.83916664  110.41100311    0.94000000    2.59999990
   13.84305477   99.30840302    0.98000002    2.57999992
   13.84638882  102.55100250    1.01999998    2.59999990
   13.84972191  107.55200195    1.01999998    2.57999992
   13.86722279  100.78800201    1.01999998    2.57999992
   13.86972237  102.24700165    1.05999994    2.59999990
   13.87277794  100.98699951    1.03999996    2.59999990
   13.87611103  101.34300232    1.05999994    2.59999990
   13.88222218  101.34300232    1.05999994    2.59999990
   13.88611126  109.48300171    1.05999994    2.59999990
   13.88944435  108.18900299    1.05999994    2.59999990
   13.89277744  110.55999756    1.03999996    2.59999990
   13.89583302  109.06300354    1.01999998    2.59999990
   13.89916611  103.15899658    1.05999994    2.59999990
   13.90055561  106.16500092    1.07000005    2.59999990
   13.90277767  104.18599701    1.09000003    2.59999990
   13.90611076  102.63200378    1.11000001    2.59999990
   13.90944386  103.40200043    1.09000003    2.59999990
   13.91249943  103.79000092    1.11000001    2.59999990
   13.91583252  101.74099731    1.13000000    2.59999990
   13.91916656  106.50700378    1.13000000    2.59999990
   13.92500019  106.50700378    1.48000002    2.59999990
   13.92916679  102.72699738    1.19000006    2.59999990
   13.93222237  108.05100250    1.21000004    2.61999989
   13.93388939  108.02200317    1.21000004    2.61999989
   13.93583298  107.19400024    1.33000004    2.59999990
   13.93916702  104.86299896    1.73000002    2.59999990
   13.94250011  105.93499756    1.85000002    2.59999990
   13.94555569  106.15499878    1.86000001    2.59999990
   13.94888878  103.81099701    1.86000001    2.57999992
   13.95222187  105.69300079    1.86000001    2.57999992
   13.95527744  102.38300323    1.38000000    2.59999990
   13.95861053  107.07900238    1.34000003    2.59999990
   13.96194458   97.98570251    1.34000003    2.59999990
   13.96777725   97.98570251    1.41999996    2.59999990
   13.97194386  101.67400360    1.41999996    2.59999990
   13.97527695  102.41699982    1.21000004    2.59999990
   13.97833252  108.48699951    1.16999996    2.59999990
   13.98166656  102.58100128    1.13000000    2.59999990
   13.98472214  107.28900146    1.11000001    2.61999989
   13.98805618  102.15200043    1.01999998    2.61999989
   13.99138927  106.67400360    0.94000000    2.61999989
   13.99444485  104.31300354    0.94000000    2.61999989
   13.99777794  106.30599976    0.94000000    2.61999989
   14.00055599  103.61399841    0.94000000    2.61999989
   14.00138855  102.73699951    0.95999998    2.61999989
   14.00472260  100.84999847    0.95999998    2.61999989
   14.01055527  100.84999847    0.95999998    2.61999989
   14.01472187  108.81800079    0.95999998    2.61999989
   14.01805496  103.25800323    0.95999998    2.59999990
   14.02111053   97.44989777    0.95999998    2.59999990
   14.02444458  102.90799713    0.95999998    2.61999989
   14.02777767  105.57299805    0.98000002    2.61999989
   14.03083324  101.79799652    0.95999998    2.61999989
   14.03388977  102.76699829    0.95999998    2.61999989
   14.03472233  100.06400299    0.95999998    2.61999989
   14.03777790  107.27300262    0.95999998    2.61999989
   14.04111195  106.51999664    0.94000000    2.61999989
   14.04444504  100.54399872    0.94000000    2.61999989
   14.04750061   98.72499847    0.94000000    2.61999989
   14.05333328   98.72499847    0.95999998    2.61999989
   14.05749989   99.84510040    1.00000000    2.61999989
   14.06083393  105.40699768    0.95999998    2.61999989
   14.06416702  100.75900269    0.95999998    2.61999989
   14.06722260  106.49600220    0.98000002    2.61999989
   14.06777763   97.59359741    0.98000002    2.61999989
   14.07083321  100.19499969    0.98000002    2.61999989
   14.07416630  104.21600342    0.98000002    2.61999989
   14.07750034  101.87000275    0.98000002    2.61999989
   14.08055592  109.39099884    0.98000002    2.61999989
   14.08388901  102.17400360    1.00000000    2.61999989
   14.08694458  107.45800018    1.00000000    2.61999989
   14.09027767   99.45919800    0.98000002    2.61999989
   14.09638882   99.45919800    1.16999996    2.61999989
   14.10055637  100.63600159    1.21000004    2.61999989
   14.10083389  103.55500031    1.26999998    2.61999989
   14.10416698  102.21800232    1.46000004    2.61999989
   14.10750008  100.19799805    1.36000001    2.61999989
   14.11055565   96.89140320    1.36000001    2.61999989
   14.11388969  100.54900360    1.14999998    2.61999989
   14.11722279  104.91600037    1.01999998    2.61999989
   14.12027836  105.82299805    1.01999998    2.61999989
   14.12361145  105.87599945    1.01999998    2.61999989
   14.12694454  100.48200226    1.01999998    2.61999989
   14.13000011  101.45999908    1.30999994    2.61999989
   14.13333321  104.56600189    1.41999996    2.64000010
   14.13388920  107.19499969    1.41999996    2.61999989
   14.13916683  107.19499969    1.09000003    2.64000010
   14.14333344  104.17600250    1.09000003    2.61999989
   14.14638901  101.24800110    1.09000003    2.64000010
   14.14972210   99.98269653    1.07000005    2.64000010
   14.15305519  100.55699921    1.03999996    2.61999989
   14.15611076   95.69789886    1.03999996    2.61999989
   14.15944386  108.20300293    1.19000006    2.64000010
   14.16277695   99.25050354    1.03999996    2.64000010
   14.16583252   99.23729706    1.03999996    2.64000010
   14.16722298   96.08630371    1.03999996    2.64000010
   14.16972256   99.13760376    1.05999994    2.64000010
   14.17277813  100.76499939    1.07000005    2.61999989
   14.17611122  103.34600067    1.11000001    2.64000010
   14.18194485  103.34600067    1.23000002    2.64000010
   14.18611145  101.04399872    1.13000000    2.61999989
   14.18944454   99.62169647    1.11000001    2.61999989
   14.19250011  100.48200226    1.14999998    2.64000010
   14.19583321  100.27799988    1.73000002    2.61999989
   14.19916630   97.79429626    1.76999998    2.64000010
   14.20055580  103.25299835    1.78999996    2.64000010
   14.20277786  104.57599640    1.76999998    2.64000010
   14.20583344   97.48239899    1.76999998    2.64000010
   14.20916653  102.84600067    1.76999998    2.64000010
   14.21222210  106.25000000    2.05999994    2.61999989
   14.21555519  104.21800232    2.11999989    2.61999989
   14.21888828  102.37100220    2.21000004    2.61999989
   14.22472191  102.37100220    1.88000000    2.61999989
   14.22888851  105.74099731    1.60000002    2.61999989
   14.23222160  104.46399689    1.41999996    2.61999989
   14.23388958  104.12899780    1.36000001    2.64000010
   14.23583317   99.71839905    1.34000003    2.64000010
   14.23888874  107.60399628    1.25000000    2.64000010
   14.24222279  103.29100037    1.19000006    2.64000010
   14.24527836  109.10099792    1.25000000    2.64000010
   14.24861145   99.77120209    1.28999996    2.64000010
   14.25194454  101.80100250    1.28999996    2.64000010
   14.25500011  104.22899628    1.30999994    2.61999989
   14.25833321  100.94699860    1.33000004    2.64000010
   14.26166630  101.25900269    1.33000004    2.64000010
   14.26777744  101.25900269    1.28999996    2.64000010
   14.27194405  101.93699646    1.28999996    2.64000010
   14.27499962  102.33799744    1.26999998    2.64000010
   14.27833271  103.12300110    1.28999996    2.64000010
   14.28166676  103.64800262    1.28999996    2.64000010
   14.28472233  107.77600098    1.41999996    2.64000010
   14.28805637  101.65399933    1.46000004    2.64000010
   14.29138947  104.91500092    1.46000004    2.64000010
   14.29444504  110.41699982    1.44000006    2.64000010
   14.29777813  104.56400299    1.46000004    2.64000010
   14.30055618  102.97299957    1.55999994    2.64000010
   14.30138874   97.53299713    1.55999994    2.64000010
   14.30444431  105.22100067    1.58000004    2.64000010
   14.31055546  105.22100067    1.94000006    2.64000010
   14.31472206  100.39700317    1.96000004    2.61999989
   14.31777763  105.15200043    1.96000004    2.64000010
   14.32111073  108.76399994    1.86000001    2.61999989
   14.32444477  103.22299957    1.38000000    2.64000010
   14.32750034  102.06999969    1.53999996    2.64000010
   14.33083344  102.56199646    1.60000002    2.64000010
   14.33388901  104.58200073    1.44000006    2.64000010
   14.33444405  100.59400177    1.39999998    2.64000010
   14.33749962  100.99199677    1.34000003    2.64000010
   14.34083271  104.76599884    1.34000003    2.64000010
   14.34388828  102.90100098    1.36000001    2.64000010
   14.34722233  104.86000061    1.36000001    2.66000009
   14.35333347  104.86000061    1.55999994    2.64000010
   14.35750008   97.19550323    1.78999996    2.64000010
   14.36083412  104.81999969    1.64999998    2.64000010
   14.36388969  102.08100128    1.55999994    2.64000010
   14.36722279  100.99900055    1.55999994    2.64000010
   14.36777782  100.98600006    1.55999994    2.64000010
   14.37083340  102.40200043    1.58000004    2.64000010
   14.37416649   99.59989929    1.58000004    2.64000010
   14.37750053   98.78959656    1.50000000    2.64000010
   14.38055611  102.98200226    1.46000004    2.64000010
   14.38388920  100.68299866    1.46000004    2.64000010
   14.38694477  106.57900238    1.44000006    2.64000010
   14.39027786  110.23000336    1.48000002    2.64000010
   14.39638901  110.23000336    1.58000004    2.64000010
   14.40055561  100.66400146    1.60000002    2.64000010
   14.40388870   97.84870148    1.60000002    2.64000010
   14.40694427  100.91100311    1.98000002    2.64000010
   14.41027737   99.50229645    1.86000001    2.64000010
   14.41361046   98.03659821    1.85000002    2.64000010
   14.41666698   99.75540161    1.50000000    2.64000010
   14.42000008   98.15190125    1.41999996    2.64000010
   14.42305565  101.56199646    1.46000004    2.66000009
   14.42638874  101.03800201    1.51999998    2.64000010
   14.42972279  104.80400085    1.50000000    2.64000010
   14.43277836  104.69799805    1.51999998    2.66000009
   14.43388939  106.18599701    1.51999998    2.66000009
   14.43916702  106.18599701    1.50000000    2.66000009
   14.44333363   98.56089783    1.50000000    2.64000010
   14.44638920   97.90280151    1.51999998    2.66000009
   14.44972229   99.71269989    1.63000000    2.64000010
   14.45277786  103.49199677    2.09999990    2.64000010
   14.45611095  103.51999664    2.21000004    2.64000010
   14.45944405  108.44300079    2.34999990    2.64000010
   14.46277714   98.20390320    2.64000010    2.64000010
   14.46583271  102.42099762    2.55999994    2.64000010
   14.46722221   98.88259888    2.55999994    2.64000010
   14.46972179  100.23000336    2.36999989    2.64000010
   14.47277737  104.65699768    2.26999998    2.64000010
   14.47611046   95.33670044    1.94000006    2.66000009
   14.48194408   95.33670044    2.03999996    2.64000010
   14.48611164   99.38990021    2.09999990    2.66000009
   14.48916721   97.09880066    2.13000011    2.64000010
   14.49250031  101.52100372    2.28999996    2.64000010
   14.49583340  107.56199646    2.23000002    2.64000010
   14.49888897  104.23899841    2.28999996    2.64000010
   14.50055599  105.41799927    2.26999998    2.64000010
   14.50277805  101.48999786    2.26999998    2.64000010
   14.50583363  105.88300323    2.26999998    2.64000010
   14.50916672  104.80500031    2.26999998    2.64000010
   14.51249981  101.23600006    3.07999992    2.64000010
   14.51555538  101.88500214    3.09999990    2.61999989
   14.51888847  108.87699890    3.05999994    2.64000010
   14.52472210  108.87699890    2.86999989    2.66000009
   14.52888870  103.33399963    2.76999998    2.66000009
   14.53222179  104.50700378    2.67000008    2.66000009
   14.53388977  100.09100342    2.55999994    2.66000009
   14.53583336  105.27999878    2.40000010    2.66000009
   14.53916740  106.33200073    2.19000006    2.66000009
   14.54222298  100.87699890    2.19000006    2.66000009
   14.54555607   98.86609650    2.25000000    2.66000009
   14.54861164  105.39800262    2.19000006    2.66000009
   14.55194473  100.91300201    2.05999994    2.66000009
   14.55527782  103.95400238    1.96000004    2.66000009
   14.55833340   99.30190277    1.83000004    2.66000009
   14.56166649  102.99600220    1.78999996    2.66000009
   14.56750011  102.99600220    1.76999998    2.66000009
   14.57166672  104.54599762    1.71000004    2.66000009
   14.57499981  101.42099762    1.83000004    2.67000008
   14.57833290  101.01699829    1.85000002    2.66000009
   14.58138847   98.23560333    1.83000004    2.66000009
   14.58472157  100.43499756    1.83000004    2.67000008
   14.58777714  103.67099762    1.83000004    2.67000008
   14.59111118  105.51599884    1.88000000    2.66000009
   14.59444427  105.52500153    1.94000006    2.66000009
   14.59749985   97.41780090    1.94000006    2.66000009
   14.60055637  101.70400238    1.83000004    2.66000009
   14.60138893  101.66799927    2.11999989    2.66000009
   14.60444450  104.75700378    2.00000000    2.66000009
   14.61055565  104.75700378    2.23000002    2.67000008
   14.61472225   99.30570221    2.64000010    2.66000009
   14.61777782  100.80599976    2.71000004    2.64000010
   14.62111092   99.96659851    2.51999998    2.67000008
   14.62416649   98.61589813    2.21000004    2.66000009
   14.62750053   99.49019623    2.13000011    2.66000009
   14.63083363  103.77200317    2.13000011    2.66000009
   14.63388920  101.41799927    1.88000000    2.66000009
   14.63444424  101.54399872    1.88000000    2.66000009
   14.63749981   99.11370087    2.82999992    2.66000009
   14.64083290   98.86409760    3.89000010    2.64000010
   14.64416695  105.01000214    4.57999992    2.64000010
   14.64722252  105.12699890    4.90999985    2.59999990
   14.65333271  105.12699890    4.90999985    2.61999989
   14.65749931  101.99299622    4.90999985    2.64000010
   14.66055489  104.73999786    4.90999985    2.59999990
   14.66388893  110.94200134    4.90999985    2.59999990
   14.66722298  108.49900055    4.90999985    2.51999998
   14.66777802  111.38899994    4.90999985    2.51999998
   14.67083359  103.46800232    4.90999985    2.57999992
   14.67416668  111.00299835    4.90999985    2.61999989
   14.67750072  103.46199799    4.90999985    2.64000010
   14.68055630   99.71589661    4.90999985    2.64000010
   14.68388939  106.07800293    4.90999985    2.64000010
   14.68694496   98.16269684    4.90999985    2.64000010
   14.69027805  102.29000092    4.90999985    2.64000010
   14.69611073  102.29000092    4.90999985    2.61999989
   14.70027733  103.39499664    4.90999985    2.61999989
   14.70111084  103.95200348    4.90999985    2.61999989
   14.70388889  100.47599792    4.90999985    2.61999989
   14.70722198  103.05000305    4.90999985    2.59999990
   14.71055508  104.15399933    4.90999985    2.55999994
   14.71361065   99.40730286    4.90999985    2.59999990
   14.71694374  104.07599640    4.90999985    2.57999992
   14.72027779  105.98200226    4.90999985    2.55999994
   14.72333336  104.19000244    4.90999985    2.50000000
   14.72666645   99.19020081    4.90999985    2.53999996
   14.72972202  107.48500061    4.90999985    2.59999990
   14.73305511   98.73370361    4.67999983    2.66000009
   14.73444462  106.13500214    4.53000021    2.66000009
   14.73888874  106.13500214    4.90999985    2.64000010
   14.74305534  102.74800110    4.90999985    2.66000009
   14.74638939   97.73359680    4.51000023    2.66000009
   14.74972248   99.57879639    4.71999979    2.66000009
   14.75277805  100.68599701    4.90999985    2.64000010
   14.75611115  102.12200165    4.90999985    2.64000010
   14.75916672   98.82740021    4.90999985    2.64000010
   14.76249981  104.29199982    4.90999985    2.61999989
   14.76583290  106.95999908    4.90999985    2.53999996
   14.76777744  111.32599640    4.90999985    2.57999992
   14.76944447  103.26599884    4.90999985    2.57999992
   14.77277756  110.34899902    4.90999985    2.57999992
   14.77611065  109.52400208    4.90999985    2.59999990
   14.78194427  109.52400208    4.90999985    2.61999989
   14.78611183  102.65699768    4.90999985    2.61999989
   14.78916740  110.71900177    4.90999985    2.61999989
   14.79250050  102.16899872    4.90999985    2.61999989
   14.79583359   98.44100189    4.90999985    2.57999992
   14.79888916  100.50499725    4.90999985    2.57999992
   14.80111122   97.16290283    4.90999985    2.59999990
   14.80249977   98.70279694    4.90999985    2.59999990
   14.80583382  108.13500214    4.90999985    2.59999990
   14.80916691  104.22100067    4.90999985    2.59999990
   14.81222248  101.81600189    4.90999985    2.61999989
   14.81555557  101.55799866    4.90999985    2.61999989
   14.81861115  102.45800018    4.90999985    2.59999990
   14.82472229  102.45800018    4.90999985    2.57999992
   14.82888889  102.80300140    4.90999985    2.57999992
   14.83194447  109.09300232    4.90999985    2.61999989
   14.83444405  101.83899689    4.90999985    2.55999994
   14.83555508  114.27300262    4.90999985    2.55999994
   14.83888817  108.07599640    4.90999985    2.46000004
   14.84222221  106.92700195    4.90999985    2.53999996
   14.84527779  113.31800079    4.90999985    2.50000000
   14.84861088  103.87599945    4.90999985    2.53999996
   14.85194492  105.06700134    4.90999985    2.57999992
   14.85500050  110.85800171    4.90999985    2.61999989
   14.85833359  119.86599731    4.90999985    2.59999990
   14.86138916  105.54599762    4.90999985    2.59999990
   14.86750031  105.54599762    4.90999985    2.59999990
   14.88583279  103.86699677    4.90999985    2.55999994
   14.88916683  107.58100128    4.90999985    2.64000010
   14.89249992  112.02600098    4.90999985    2.61999989
   14.89555550  102.32199860    4.90999985    2.59999990
   14.89888859  105.06199646    4.90999985    2.59999990
   14.90222168  106.51699829    4.90999985    2.59999990
   14.90249920  107.26200104    4.90999985    2.59999990
   14.90555477   97.57800293    4.90999985    2.61999989
   14.91055489   97.57800293    4.90999985    2.64000010
   14.91472149  100.37699890    4.90999985    2.64000010
   14.91805553  107.48899841    4.90999985    2.64000010
   14.92111111  103.02300262    4.90999985    2.59999990
   14.92444515  104.61900330    4.90999985    2.61999989
   14.92777824  102.03700256    4.90999985    2.61999989
   14.93083382  105.18199921    4.90999985    2.59999990
   14.93416691   97.71520233    4.90999985    2.61999989
   14.93583298  108.17199707    4.90999985    2.61999989
   14.93777752  103.52700043    4.90999985    2.66000009
   14.94111156  101.14099884    4.90999985    2.61999989
   14.94416714  100.00299835    4.90999985    2.61999989
   14.94750023  104.06999969    4.90999985    2.64000010
   14.95361137  104.06999969    4.90999985    2.67000008
   14.95749950   97.40820313    4.90999985    2.66000009
   14.96083355   98.18759918    4.90999985    2.64000010
   14.96416664  105.69400024    4.90999985    2.66000009
   14.96722221   81.54940033    4.90999985    2.66000009
   14.96944427   98.86409760    4.53000021    2.66000009
   14.97111034   99.87609863    4.44999981    2.61999989
   14.97416592  104.36199951    4.90999985    2.66000009
   14.97749996  104.37300110    4.90999985    2.66000009
   14.98083305  106.19999695    4.90999985    2.66000009
   14.98388958  116.52700043    4.90999985    2.64000010
   14.98722267  108.84700012    4.90999985    2.57999992
   14.99027824  100.29299927    4.90999985    2.64000010
   14.99638939  100.29299927    4.90999985    2.59999990
   15.00055599  101.45200348    4.90999985    2.57999992
   15.00277805  103.67600250    4.90999985    2.59999990
   15.00416660  101.88800049    4.90999985    2.59999990
   15.00722218  107.46099854    4.90999985    2.57999992
   15.01055527  102.76799774    4.90999985    2.55999994
   15.01388931  111.93800354    4.90999985    2.53999996
   15.01694393  109.63500214    4.90999985    2.51999998
   15.02027798  102.80300140    4.90999985    2.48000002
   15.02333355  101.43599701    4.90999985    2.51999998
   15.02666664  105.49199677    4.90999985    2.55999994
   15.02999973  105.78900146    4.90999985    2.55999994
   15.03305531   99.15550232    4.90999985    2.59999990
   15.03916740   99.15550232    4.90999985    2.53999996
   15.04333401  113.64700317    4.90999985    2.50000000
   15.04666710  101.17099762    4.90999985    2.59999990
   15.04972267  108.65000153    4.90999985    2.51999998
   15.05305576  103.16500092    4.90999985    2.55999994
   15.05638885   94.69629669    4.90999985    2.55999994
   15.05944443  110.32499695    4.90999985    2.57999992
   15.06277752  123.12899780    4.90999985    2.44000006
   15.06611156  111.55400085    4.90999985    2.40000010
   15.06916618  114.12200165    4.90999985    2.46000004
   15.06999969  128.75900269    4.90999985    2.50000000
   15.07277775  122.64099884    4.90999985    2.53999996
   15.07611084  115.69599915    4.90999985    2.44000006
   15.08194447  115.69599915    4.90999985    2.42000008
   15.08611107  109.14399719    4.90999985    2.46000004
   15.08944416  119.04299927    4.90999985    2.48000002
   15.09249973  112.29599762    4.90999985    2.36999989
   15.09583282  129.80700684    4.90999985    2.28999996
   15.09916592  153.50700378    4.90999985    2.23000002
   15.10222244  125.38500214    4.90999985    2.28999996
   15.10333347  131.72599792    4.90999985    2.32999992
   15.10583401  153.87100220    4.90999985    2.19000006
   15.10916710  207.89900208    4.90999985    2.15000010
   15.11222267  140.23300171    4.90999985    2.07999992
   15.11555576  136.42300415    4.90999985    2.23000002
   15.11861134  145.98399353    4.90999985    2.26999998
   15.12500000  145.98399353    4.90999985    2.28999996
   15.12916660  121.39900208    4.90999985    2.36999989
   15.13222218  120.34200287    4.90999985    2.40000010
   15.13555527  109.73600006    4.90999985    2.44000006
   15.13694477  105.91899872    4.90999985    2.46000004
   15.13916683  110.90599823    4.90999985    2.44000006
   15.14249992  125.79199982    4.90999985    2.40000010
   15.14555550  106.26000214    4.90999985    2.50000000
   15.14888859  105.30699921    4.90999985    2.48000002
   15.15222168  115.49900055    4.90999985    2.50000000
   15.15527725   96.09829712    4.90999985    2.50000000
   15.15861034   98.38449860    4.90999985    2.51999998
   15.16166592  109.17600250    4.90999985    2.61999989
   15.16777802  109.17600250    4.90999985    2.66000009
   15.17194462   99.34410095    4.82999992    2.67000008
   15.17500019   99.00910187    4.57999992    2.67000008
   15.17833328  102.19799805    4.84999990    2.67000008
   15.18166733   96.55509949    4.80000019    2.67000008
   15.18472195  100.08499908    4.13999987    2.67000008
   15.18805599  109.11699677    4.55999994    2.67000008
   15.19111156  107.12100220    4.80000019    2.67000008
   15.19444466  101.96399689    4.90999985    2.67000008
   15.19777775   95.46250153    4.90999985    2.67000008
   15.20083332   99.91919708    4.90999985    2.67000008
   15.20361137  100.86499786    4.90999985    2.66000009
   15.20472240   95.33270264    4.90999985    2.66000009
   15.21055508   95.33270264    4.53000021    2.66000009
   15.21472168   93.20189667    4.30999994    2.66000009
   15.21805477   97.40180206    4.03999996    2.67000008
   15.22111034   94.19909668    4.11999989    2.67000008
   15.22444439   98.11029816    4.42999983    2.67000008
   15.22749996  109.04000092    4.53999996    2.67000008
   15.23083305   99.65609741    4.84999990    2.67000008
   15.23416710  110.84600067    4.90999985    2.66000009
   15.23694515   99.61849976    4.90999985    2.66000009
   15.23777771   96.40149689    4.90999985    2.66000009
   15.24083328   96.05229950    4.32999992    2.67000008
   15.24416733  101.34600067    4.30999994    2.67000008
   15.35222244   -1.00000000   -1.00000000   -1.00000000
   15.45444393   -1.00000000   -1.00000000   -1.00000000
   15.64527798   -1.00000000   -1.00000000   -1.00000000
   15.81027794   68.06390381    2.57999992    2.69000006
   15.81333351  104.39299774    2.55999994    2.69000006
   15.81666660   96.45069885    2.75000000    2.71000004
   15.81972218   92.86769867    2.44000006    2.71000004
   15.82305527   92.24349976    2.40000010    2.71000004
   15.82638836  103.87100220    2.39000010    2.69000006
   15.83055592  103.87100220    2.21000004    2.69000006
   15.83444405   92.95200348    2.48000002    2.69000006
   15.83777714   91.40879822    2.44000006    2.71000004
   15.84111118   88.69280243    2.48000002    2.69000006
   15.84361076  101.95200348    2.40000010    2.71000004
   15.84472179  101.04399872    2.44000006    2.71000004
   15.84805489   91.93419647    2.69000006    2.69000006
   15.85111141   98.51730347    2.86999989    2.71000004
   15.85444450   76.90129852    2.86999989    2.71000004
   15.85777855   83.60189819    2.21000004    2.71000004
   15.86083412   95.18479919    2.93000007    2.71000004
   15.86416721   97.64389801    3.66000009    2.69000006
   15.86750031   88.25630188    3.07999992    2.71000004
   15.87333393   88.25630188    4.30999994    2.69000006
   15.87750053  100.29399872    4.90999985    2.69000006
   15.88055611   99.90550232    4.86999989    2.69000006
   15.88388920  106.25800323    4.82999992    2.69000006
   15.88722229  104.22399902    4.73999977    2.69000006
   15.89027786   95.80999756    4.90999985    2.69000006
   15.89361095  100.14199829    4.90999985    2.67000008
   15.89666653  101.68599701    4.90999985    2.67000008
   15.89999962  110.29699707    4.90999985    2.67000008
   15.90333271  109.88700104    4.90999985    2.69000006
   15.90638828  104.69200134    4.44999981    2.69000006
   15.90972137  105.88700104    4.07999992    2.69000006
   15.91027737  104.15100098    3.89000010    2.69000006
   15.91611099  104.15100098    4.01999998    2.69000006
   15.92027855   97.92420197    4.07999992    2.69000006
   15.92361164  109.24800110    4.00000000    2.71000004
   15.92666721   94.34500122    4.17999983    2.69000006
   15.93000031  101.22899628    3.95000005    2.71000004
   15.93305588  101.43399811    3.68000007    2.71000004
   15.93638897   95.98729706    3.64000010    2.69000006
   15.93972206  105.77300262    3.50000000    2.67000008
   15.94277763   98.18550110    4.80000019    2.59999990
   15.94361115  100.92700195    4.90999985    2.64000010
   15.94666672   96.77290344    4.90999985    2.67000008
   15.94972229  104.51200104    4.90999985    2.53999996
   15.95305538  102.44999695    4.65999985    2.67000008
   15.95888901  102.44999695    2.48000002    2.71000004
   15.96305561   93.68479919    1.88000000    2.71000004
   15.96638870   98.14469910    1.69000006    2.71000004
   15.96944427   93.74759674    1.60000002    2.73000002
   15.97277737   96.85310364    1.69000006    2.71000004
   15.97611046   93.48100281    1.76999998    2.71000004
   15.97694397   92.32230377    1.76999998    2.71000004
   15.97972202   86.29190063    1.61000001    2.71000004
   15.98277760   94.94989777    1.75000000    2.71000004
   15.98611164   95.79489899    1.75000000    2.71000004
   15.98916721   95.25090027    1.75000000    2.71000004
   15.99250031   95.65789795    2.03999996    2.71000004
   15.99583340   96.77069855    2.17000008    2.71000004
   16.00194359   96.77069855    1.94000006    2.71000004
   16.00583267   94.88459778    1.88000000    2.71000004
   16.00916672   98.91790009    1.76999998    2.71000004
   16.01027870   93.61000061    1.55999994    2.71000004
   16.01305580   96.14309692    1.55999994    2.71000004
   16.01611137   95.28479767    1.69000006    2.71000004
   16.01944351   91.12830353    1.66999996    2.71000004
   16.02249908   95.37429810    1.33000004    2.73000002
   16.02583313   95.38310242    1.25000000    2.73000002
   16.02916718   94.05500031    1.25000000    2.73000002
   16.03222275   81.70220184    1.21000004    2.73000002
   16.03555489   94.94760132    1.00000000    2.71000004
   16.03888893   93.18650055    1.11000001    2.73000002
   16.04472160   93.18650055    1.41999996    2.71000004
   16.04888916   93.00740051    1.50000000    2.73000002
   16.05194283   93.89739990    1.85000002    2.71000004
   16.05527687   95.68000031    1.64999998    2.71000004
   16.05861092   93.58959961    1.71000004    2.71000004
   16.06166649   96.31199646    1.63000000    2.73000002
   16.06499863   95.47840118    1.73000002    2.71000004
   16.06805611   96.25140381    1.39999998    2.73000002
   16.07139015   97.74739838    1.39999998    2.73000002
   16.07472229  100.54900360    1.36000001    2.71000004
   16.07694626   98.46389771    1.46000004    2.73000002
   16.07833481   84.97499847    1.46000004    2.73000002
   16.08139038   97.77210236    1.63000000    2.73000002
   16.08750153   97.77210236    1.83000004    2.71000004
   16.09166718   93.71520233    1.91999996    2.71000004
   16.09500122   98.06680298    1.66999996    2.73000002
   16.09805679   93.25309753    1.73000002    2.73000002
   16.10138893   95.12500000    1.86000001    2.73000002
   16.10444450   96.71610260    2.09999990    2.73000002
   16.10777855   92.65370178    2.05999994    2.73000002
   16.11027908   95.02500153    1.94000006    2.71000004
   16.11166763   90.36260223    1.76999998    2.71000004
   16.11472321   94.42910004    1.76999998    2.71000004
   16.11805534   94.90149689    1.96000004    2.71000004
   16.12111092   97.59839630    2.17000008    2.71000004
   16.12444496   99.78410339    2.19000006    2.71000004
   16.13027763   99.78410339    1.86000001    2.71000004
   16.13444519   97.43710327    1.80999994    2.73000002
   16.13777733   94.04440308    1.78999996    2.71000004
   16.14111137   96.73799896    1.78999996    2.71000004
   16.14361191  105.29399872    1.75000000    2.71000004
   16.14472198  102.30100250    1.75000000    2.71000004
   16.14777756  103.18800354    1.75000000    2.71000004
   16.15111160   93.14739990    1.33000004    2.73000002
   16.15444374   99.81600189    1.33000004    2.73000002
   16.15749931  103.63800049    1.34000003    2.73000002
   16.16083336  101.95500183    1.41999996    2.73000002
   16.16388893  106.93800354    1.34000003    2.73000002
   16.16722107  102.02200317    1.33000004    2.73000002
   16.17333221  102.02200317    1.38000000    2.73000002
   16.17749977   96.10880280    2.03999996    2.71000004
   16.18055534   99.13990021    2.05999994    2.71000004
   16.18388748  102.45600128    1.98000002    2.71000004
   16.18694305   95.30319977    1.88000000    2.71000004
   16.19027710   96.57170105    1.78999996    2.71000004
   16.19361115   91.56089783    2.13000011    2.71000004
   16.19666672   93.47689819    2.19000006    2.71000004
   16.20000076   94.45570374    2.19000006    2.71000004
   16.20333481   96.47370148    2.23000002    2.73000002
   16.20639038   94.47820282    2.23000002    2.71000004
   16.20972252   91.29000092    2.36999989    2.71000004
   16.21027946   96.98410034    2.36999989    2.71000004
   16.21611214   96.98410034    2.09999990    2.73000002
   16.22027779  100.37100220    2.03999996    2.71000004
   16.22333336   96.42520142    1.98000002    2.71000004
   16.22666740   98.95860291    2.15000010    2.71000004
   16.23000145   86.47799683    2.50000000    2.71000004
   16.23305511   90.08110046    2.39000010    2.71000004
   16.23638916   95.39299774    2.59999990    2.71000004
   16.23972321   89.77590179    1.85000002    2.73000002
   16.24277878   94.41429901    2.01999998    2.73000002
   16.24361229   99.60209656    2.19000006    2.71000004
   16.24666786  101.25000000    2.50000000    2.71000004
   16.24972153   87.98300171    2.75000000    2.71000004
   16.25305557   92.75119781    2.86999989    2.71000004
   16.25888824   92.75119781    2.82999992    2.71000004
   16.26305580  100.62100220    2.53999996    2.71000004
   16.26638794   83.48860168    2.73000002    2.71000004
   16.26944351   81.36969757    2.66000009    2.71000004
   16.27277756   96.16010284    2.86999989    2.71000004
   16.27611160  103.79699707    2.73000002    2.71000004
   16.27694511  100.50099945    2.78999996    2.71000004
   16.27972221  103.55500031    2.84999990    2.71000004
   16.28277779  102.75000000    2.96000004    2.71000004
   16.28610992   92.18890381    2.76999998    2.71000004
   16.28944397   90.27449799    2.51999998    2.71000004
   16.29249954  102.43499756    3.00000000    2.71000004
   16.29583359   93.99479675    2.53999996    2.71000004
   16.30166626   93.99479675    2.46000004    2.71000004
   16.30583191  105.93099976    2.30999994    2.73000002
   16.30916595  107.71299744    2.80999994    2.71000004
   16.31027794  108.68399811    3.21000004    2.71000004
   16.31277657  105.91300201    3.55999994    2.73000002
   16.31583214   99.25029755    2.94000006    2.71000004
   16.31916809   96.24009705    2.64000010    2.71000004
   16.32250023  118.77400208    3.41000009    2.71000004
   16.32555580  101.33000183    4.57999992    2.69000006
   16.32888985  110.25599670    4.90999985    2.69000006
   16.33194542  112.11499786    4.90999985    2.69000006
   16.33527756  106.75000000    4.86999989    2.69000006
   16.33861160  114.79399872    4.90999985    2.66000009
   16.34472275  114.79399872    4.53000021    2.71000004
   16.34861183  115.03199768    4.90999985    2.69000006
   16.35194397  119.35500336    4.67999983    2.69000006
   16.35527802  104.26499939    4.28999996    2.71000004
   16.35833359   95.43569946    4.26999998    2.69000006
   16.36166763  114.39199829    3.99000001    2.69000006
   16.36499977  112.38600159    3.68000007    2.71000004
   16.36833382  114.92800140    3.66000009    2.71000004
   16.37138939  111.60500336    3.70000005    2.71000004
   16.37472153  115.59200287    3.01999998    2.71000004
   16.37694550  115.82099915    2.93000007    2.71000004
   16.37833405  115.42500305    2.53999996    2.71000004
   16.38138962  112.76799774    2.13000011    2.71000004
   16.38750076  112.76799774    3.07999992    2.73000002
   16.39166641  106.35199738    3.46000004    2.69000006
   16.39472198   89.73960114    2.59999990    2.71000004
   16.39805603  121.92800140    2.11999989    2.71000004
   16.40138817  111.86299896    2.64000010    2.67000008
   16.40444374  123.70200348    2.15000010    2.71000004
   16.40777779  116.76399994    2.01999998    2.73000002
   16.41027832  106.81199646    3.00000000    2.71000004
   16.41138840  113.97299957    3.55999994    2.71000004
   16.41444397  137.57400513    4.01999998    2.71000004
   16.41777802  143.78300476    3.28999996    2.71000004
   16.42111015  123.03900146    3.53999996    2.67000008
   16.42416573  114.52500153    3.25000000    2.71000004
   16.43027687  114.52500153    3.72000003    2.73000002
   16.43444443  137.04499817    1.94000006    2.71000004
   16.43750000  137.08900452    1.71000004    2.75000000
   16.44083214  142.60499573    1.73000002    2.73000002
   16.44361115  104.48300171    1.89999998    2.73000002
   16.44444275  149.21200562    2.23000002    2.73000002
   16.44749832  159.71800232    1.66999996    2.73000002
   16.45083427  131.92300415    1.75000000    2.73000002
   16.45416832  161.60699463    3.09999990    2.69000006
   16.45722389  152.11300659    3.55999994    2.73000002
   16.46055603  179.64999390    2.80999994    2.69000006
   16.46361160  170.85099792    3.36999989    2.69000006
   16.46694565  171.48599243    3.91000009    2.67000008
   16.47305679  171.48599243    3.21000004    2.73000002
   16.47722244  195.11599731    2.34999990    2.71000004
   16.48055649  145.15100098    1.34000003    2.73000002
   16.48361206  157.31799316    1.51999998    2.73000002
   16.48694420  126.42900085    1.66999996    2.71000004
   16.49027824  187.59599304    2.30999994    2.71000004
   16.49361229  136.47399902    2.64000010    2.69000006
   16.49666786  188.41700745    2.69000006    2.71000004
   16.50000000  190.66600037    2.03999996    2.69000006
   16.50305557  198.10000610    2.80999994    2.71000004
   16.50638962  195.66600037    4.23999977    2.66000009
   16.50972176  192.56900024    4.90999985    2.64000010
   16.51027870  176.18899536    4.90999985    2.64000010
   16.51611137  176.18899536    4.90999985    2.66000009
   16.52000046  204.46299744    4.69999981    2.61999989
   16.52333260  129.71200562    3.68000007    2.69000006
   16.52666664  121.19899750    3.57999992    2.71000004
   16.52972221  205.90199280    2.86999989    2.71000004
   16.53305435  229.67799377    3.16000009    2.67000008
   16.53610992  200.17799377    4.90999985    2.34999990
   16.53944397  196.77499390    4.90999985    2.55999994
   16.54277802  219.83599854    4.90999985    2.51999998
   16.54361153  217.09100342    4.90999985    2.57999992
   16.54638863  180.28999329    4.80999994    2.73000002
   16.54944420  183.19999695    4.90999985    2.69000006
   16.55277634  179.41000366    4.90999985    2.66000009
   16.55888748  179.41000366    3.53999996    2.69000006
   16.56305504  208.50000000    4.53999996    2.69000006
   16.56611061  215.95599365    4.90999985    2.66000009
   16.56944466  155.38900757    4.90999985    2.66000009
   16.57250023  205.02000427    4.90999985    2.67000008
   16.57583427  211.85099792    4.90999985    2.53999996
   16.57694626  211.76600647    4.90999985    2.66000009
   16.57944489  222.97999573    4.86999989    2.69000006
   16.58250046  225.33299255    4.90999985    2.59999990
   16.58583450  225.58299255    4.90999985    2.21000004
   16.58916664  212.22700500    4.90999985    2.59999990
   16.59222221  222.91799927    4.90999985    2.55999994
   16.59555626  208.07699585    4.90999985    2.57999992
   16.60166740  208.07699585    4.90999985    2.26999998
   16.60583305   -1.00000000    4.90999985    1.91999996
   16.60916710  512.85198975    4.90999985    1.71000004
   16.61111069  206.91700745    4.90999985    1.86000001
   16.61111069  225.33299255    4.90999985    2.59999990
   16.61138916  225.58299255    4.90999985    2.21000004
   16.61138916  212.22700500    4.90999985    2.59999990
   16.61138916  222.91799927    4.90999985    2.55999994
   16.61166763  208.07699585    4.90999985    2.57999992
   16.61166763   -1.00000000    4.90999985    1.91999996
   16.61166763  512.85198975    4.90999985    1.71000004
   16.61194420  211.85099792    4.90999985    2.53999996
   16.61194420  222.97999573    4.86999989    2.69000006
   16.61388969  205.76699829    4.90999985    2.53999996
   16.61722183  180.99499512    4.90999985    2.69000006
   16.62027740  246.83200073    4.90999985    2.69000006
   16.62361145  219.71699524    4.90999985    2.48000002
   16.62666702  210.00199890    4.90999985    2.55999994
   16.63194466  210.00199890    4.90999985    2.30999994
   16.63611031  311.55300903    4.90999985    1.88000000
   16.63805580  236.19599915    4.90999985    2.26999998
   16.63805580  205.76699829    4.90999985    2.53999996
   16.63833237  180.99499512    4.90999985    2.69000006
   16.63833237  246.83200073    4.90999985    2.69000006
   16.63833237  219.71699524    4.90999985    2.48000002
   16.63861084  210.00199890    4.90999985    2.55999994
   16.63861084  311.55300903    4.90999985    1.88000000
   16.64027786  244.48199463    4.90999985    2.26999998
   16.64361191  229.46200562    4.90999985    2.59999990
   16.64666748  234.57499695    4.90999985    2.48000002
   16.64999962  325.54901123    4.90999985    2.44000006
   16.65194321  225.72900391    4.90999985    2.19000006
   16.65222168  244.48199463    4.90999985    2.26999998
   16.65222168  229.46200562    4.90999985    2.59999990
   16.65222168  234.57499695    4.90999985    2.48000002
   16.65250015  325.54901123    4.90999985    2.44000006
   16.65444374  217.64700317    4.90999985    2.23000002
   16.65749931  366.48599243    4.90999985    2.23000002
   16.65972137  271.10998535    4.90999985    2.00000000
   16.66083336  237.16700745    4.90999985    2.07999992
   16.66110992  217.64700317    4.90999985    2.23000002
   16.66110992  366.48599243    4.90999985    2.23000002
   16.66222191  189.75700378    4.90999985    2.17000008
   16.66555595  256.67999268    4.90999985    2.55999994
   16.66860962  241.62500000    4.90999985    2.34999990
   16.67194366  195.71400452    4.90999985    2.28999996
   16.67527771  208.18400574    4.90999985    2.53999996
   16.68166542  208.18400574    4.90999985    2.66000009
   16.68583298  408.76800537    4.90999985    2.51999998
   16.68805504  309.34201050    4.90999985    2.03999996
   16.68916512   68.33350372    4.90999985    2.17000008
   16.68944359  189.75700378    4.90999985    2.17000008
   16.68944359  256.67999268    4.90999985    2.55999994
   16.68944359  241.62500000    4.90999985    2.34999990
   16.68972206  195.71400452    4.90999985    2.28999996
   16.68972206  208.18400574    4.90999985    2.53999996
   16.68972206  408.76800537    4.90999985    2.51999998
   16.69055557  400.00100708    4.90999985    2.25000000
   16.69416618  195.27999878    4.90999985    2.17000008
   16.69749832   84.38950348    4.90999985    2.28999996
   16.70083427  210.19400024    4.90999985    2.00000000
   16.70388985  192.63099670    4.90999985    2.23000002
   16.70722389  183.11799622    4.90999985    2.34999990
   16.71333504  183.11799622    4.90999985    2.46000004
   16.71750069  234.27499390    4.90999985    2.50000000
   16.72083473  302.32901001    4.90999985    2.46000004
   16.72277832  186.93899536    4.90999985    2.13000011
   16.72277832  195.27999878    4.90999985    2.17000008
   16.72305679   84.38950348    4.90999985    2.28999996
   16.72305679  210.19400024    4.90999985    2.00000000
   16.72305679  192.63099670    4.90999985    2.23000002
   16.72333336  183.11799622    4.90999985    2.34999990
   16.72333336  234.27499390    4.90999985    2.50000000
   16.72333336  302.32901001    4.90999985    2.46000004
   16.72527885  176.46099854    4.90999985    2.66000009
   16.72861099  495.07101440    4.90999985    2.26999998
   16.73055649  197.91799927    4.90999985    1.91999996
   16.73083305  176.46099854    4.90999985    2.66000009
   16.73083305  495.07101440    4.90999985    2.26999998
   16.73277855  210.45399475    4.90999985    2.39000010
   16.73611069  162.33900452    4.90999985    2.19000006
   16.73916626   -1.00000000    4.90999985    2.39000010
   16.74250031  158.45599365    4.90999985    1.86000001
   16.74583435  200.85600281    4.90999985    1.96000004
   16.75138855  200.85600281    4.90999985    2.40000010
   16.75555611  221.80499268    4.90999985    1.91999996
   16.75888824  484.83300781    4.90999985    2.03999996
   16.76083374  178.95899963    4.90999985    1.96000004
   16.76083374  210.45399475    4.90999985    2.39000010
   16.76111031  162.33900452    4.90999985    2.19000006
   16.76111031   -1.00000000    4.90999985    2.39000010
   16.76111031  158.45599365    4.90999985    1.86000001
   16.76138878  200.85600281    4.90999985    1.96000004
   16.76138878  221.80499268    4.90999985    1.91999996
   16.76138878  484.83300781    4.90999985    2.03999996
   16.76333427  174.39900208    4.90999985    2.67000008
   16.76666641  137.81900024    4.90999985    2.57999992
   16.77000046  145.03199768    4.90999985    2.46000004
   16.77305603  143.75500488    4.90999985    2.69000006
   16.77638817  139.27499390    4.90999985    2.66000009
   16.78166580  139.27499390    4.90999985    2.66000009
   16.78583336  175.44700623    4.90999985    2.67000008
   16.78888893  177.28700256    4.90999985    2.50000000
   16.79222107  172.50199890    4.90999985    2.67000008
   16.79472160  177.19000244    4.90999985    2.51999998
   16.79611015  156.03799438    4.90999985    2.53999996
   16.79916573  227.60299683    4.90999985    2.61999989
   16.80249977  153.17199707    4.90999985    2.30999994
   16.80583191  192.09500122    4.90999985    2.39000010
   16.80888748  161.96000671    4.90999985    2.67000008
   16.83166695  161.96000671    4.90999985    2.50000000
   16.83583450  343.01000977    4.90999985    2.42000008
   16.83777809  172.59899902    4.90999985    2.13000011
   16.83777809  227.60299683    4.90999985    2.61999989
   16.83805656  153.17199707    4.90999985    2.30999994
   16.83805656  192.09500122    4.90999985    2.39000010
   16.83805656  161.96000671    4.90999985    2.67000008
   16.83833313  343.01000977    4.90999985    2.42000008
   16.83833313  175.44700623    4.90999985    2.67000008
   16.83833313  177.28700256    4.90999985    2.50000000
   16.83861160  172.50199890    4.90999985    2.67000008
   16.83861160  156.03799438    4.90999985    2.53999996
   16.84055710  180.86999512    4.90999985    2.69000006
   16.84388924  259.18301392    4.90999985    2.50000000
   16.84694481  312.57699585    4.90999985    2.11999989
   16.84916687  226.05799866    4.90999985    2.17000008
   16.84916687  180.86999512    4.90999985    2.69000006
   16.84916687  259.18301392    4.90999985    2.50000000
   16.84944534  312.57699585    4.90999985    2.11999989
   16.85138893  480.06900024    4.90999985    1.83000004
   16.85333443  208.18899536    4.90999985    1.94000006
   16.85527802  376.45199585    4.90999985    2.32999992
   16.85750008  256.36999512    4.90999985    1.98000002
   16.85861206  179.12899780    4.90999985    1.78999996
   16.85888863  376.45199585    4.90999985    2.32999992
   16.86000061  128.59500122    4.90999985    1.98000002
   16.86305618  211.00700378    4.90999985    2.64000010
   16.86638832  144.30900574    4.90999985    2.64000010
   16.86944389  124.75700378    4.90999985    2.69000006
   16.87277794  174.06599426    4.90999985    2.19000006
   16.87944412  174.06599426    4.90999985    2.61999989
   16.88361168  170.47399902    4.90999985    2.42000008
   16.88694382  112.39600372    4.90999985    2.25000000
   16.88999939   94.36730194    4.76000023    2.75000000
   16.89249992  171.77799988    4.53000021    2.71000004
   16.89388847  155.39500427    4.90999985    2.67000008
   16.89694405  156.02699280    4.63999987    2.67000008
   16.90027809  141.54699707    4.90999985    2.66000009
   16.90361023  183.71600342    4.90999985    2.61999989
   16.90666580  180.91799927    4.90999985    2.48000002
   16.90999985  156.34800720    4.90999985    2.55999994
   16.91333389  154.90199280    4.90999985    2.64000010
   16.91638756  144.23800659    4.90999985    2.75000000
   16.92222214  144.23800659    4.90999985    2.71000004
   16.92638779  163.22099304    4.90999985    2.64000010
   16.92972183  211.72999573    4.90999985    2.39000010
   16.93305397  146.94400024    4.90999985    2.19000006
   16.93610954  149.86700439    4.90999985    2.75000000
   16.93944359  233.44200134    4.90999985    2.21000004
   16.94249916  155.98100281    4.90999985    2.61999989
   16.94583321  170.99400330    4.90999985    2.64000010
   16.94916534  165.57200623    4.90999985    2.25000000
   16.95222282  170.04899597    4.90999985    2.55999994
   16.95555687  183.09899902    4.90999985    2.40000010
   16.95888901  189.97300720    4.90999985    2.44000006
   16.95944595  176.06300354    4.90999985    2.44000006
   16.96527863  176.06300354    4.90999985    2.28999996
   16.96944427  173.21000671    4.90999985    2.05999994
   16.97249985  163.81199646    4.90999985    2.51999998
   16.97583389  177.81199646    4.90999985    2.46000004
   16.97888947  321.02899170    4.90999985    1.94000006
   16.98111153  172.82899475    4.90999985    2.09999990
   16.98111153  173.21000671    4.90999985    2.05999994
   16.98111153  163.81199646    4.90999985    2.51999998
   16.98139000  177.81199646    4.90999985    2.46000004
   16.98139000  321.02899170    4.90999985    1.94000006
   16.98139000  170.99400330    4.90999985    2.64000010
   16.98166656  165.57200623    4.90999985    2.25000000
   16.98166656  170.04899597    4.90999985    2.55999994
   16.98166656  183.09899902    4.90999985    2.40000010
   16.98194504  189.97300720    4.90999985    2.44000006
   16.98388863  145.09700012    4.90999985    2.28999996
   16.98694420  163.18499756    4.90999985    2.66000009
   16.99027824  150.78599548    4.90999985    2.64000010
   16.99361229  145.03799438    4.90999985    2.67000008
   16.99666786  148.75399780    4.90999985    2.59999990
   17.00194359  148.75399780    4.90999985    2.13000011
   17.00611115  187.12199402    4.90999985    2.50000000
   17.00916672  143.80099487    4.90999985    2.59999990
   17.01250076  124.36000061    4.90999985    2.50000000
   17.01499939  137.78599548    4.90999985    2.48000002
   17.01611137  135.83299255    4.90999985    2.48000002
   17.01944351   -1.00000000    4.90999985    2.46000004
   17.02277756  154.77699280    4.90999985    1.73000002
   17.02583313  296.50100708    4.90999985    2.55999994
   17.02916718  141.54800415    4.90999985    2.01999998
   17.03222275  138.87800598    4.90999985    2.61999989
   17.03555489  141.72099304    4.90999985    1.88000000
   17.03888893   97.23999786    4.90999985    1.85000002
   17.04472160   97.23999786    4.90999985    2.21000004
   17.04888916  131.15199280    4.90999985    2.53999996
   17.05194283  138.62100220    4.90999985    2.66000009
   17.05527687  154.24899292    4.90999985    2.66000009
   17.05861092  132.74800110    4.90999985    2.66000009
   17.06194305  131.95899963    4.90999985    2.66000009
   17.06499863  136.23800659    4.90999985    2.69000006
   17.06833458  133.50999451    4.90999985    2.69000006
   17.07139015  248.99699402    4.90999985    2.67000008
   17.07472229  205.75500488    4.90999985    2.19000006
   17.07805634  161.16299438    4.90999985    2.32999992
   17.08111191  137.43600464    4.90999985    2.46000004
   17.08166695  126.62699890    4.90999985    2.59999990
   17.08750153  126.62699890    4.59999990    2.71000004
   17.09166718  139.30400085    4.90999985    2.61999989
   17.09500122  137.63900757    4.90999985    2.40000010
   17.09805679  368.48999023    4.90999985    2.39000010
   17.10027885  203.05900574    4.90999985    2.26999998
   17.10027885  139.30400085    4.90999985    2.61999989
   17.10027885  137.63900757    4.90999985    2.40000010
   17.10055542  368.48999023    4.90999985    2.39000010
   17.10055542  136.23800659    4.90999985    2.69000006
   17.10055542  133.50999451    4.90999985    2.69000006
   17.10083389  248.99699402    4.90999985    2.67000008
   17.10083389  205.75500488    4.90999985    2.19000006
   17.10083389  161.16299438    4.90999985    2.32999992
   17.10111237  137.43600464    4.90999985    2.46000004
   17.10305595  150.74800110    4.90999985    2.17000008
   17.10611153  130.29200745    0.89999998    0.28000000
   17.10944557  112.52899933    0.46000001    0.07000000
   17.11277771  134.34800720    0.46000001    0.07000000
   17.11583328  127.00900269    0.46000001    0.07000000
   17.12111092  127.00900269    0.46000001    0.07000000
   17.12500000  122.86399841    0.46000001    0.07000000
   17.12833405  127.83300018    0.46000001    0.07000000
   17.13166618  184.81799316    0.46000001    0.07000000
   17.13416672  168.48300171    0.46000001    0.07000000
   17.13527679  130.83099365    0.46000001    0.07000000
   17.13861084  123.22299957    0.46000001    0.07000000
   17.14166641  134.49800110    0.46000001    0.07000000
   17.14500046  144.82099915    0.46000001    0.07000000
   17.14833260  150.63299561    0.46000001    0.07000000
   17.15138817  161.31700134    0.46000001    0.07000000
   17.15472221  132.10400391    0.46000001    0.07000000
   17.15805435  130.74200439    0.46000001    0.07000000
   17.16388893  130.74200439    0.46000001    0.07000000
   17.16805458  130.69099426    0.46000001    0.07000000
   17.17111015  134.66999817    0.46000001    0.07000000
   17.17444420   91.48159790    0.46000001    0.07000000
   17.17777634  114.58999634    0.46000001    0.07000000
   17.18083191  130.22200012    0.46000001    0.07000000
   17.18416595  129.73599243    0.46000001    0.07000000
   17.18750000  128.95599365    0.46000001    0.07000000
   17.19055557  110.32599640    0.46000001    0.07000000
   17.19388771  116.34700012    0.46000001    0.07000000
   17.19722176  114.65200043    0.46000001    0.07000000
   17.20027924  112.57499695    0.46000001    0.07000000
   17.20083427  122.83000183    0.46000001    0.07000000
   17.20666695  122.83000183    0.46000001    0.07000000
   17.21083450  126.38300323    0.46000001    0.07000000
   17.21416664  128.00900269    0.46000001    0.07000000
   17.21722221  124.55500031    0.46000001    0.07000000
   17.22055626  103.44899750    0.46000001    0.07000000
   17.22361183  119.62200165    0.46000001    0.07000000
   17.22694588  106.23100281    0.46000001    0.07000000
   17.23027802   86.62670135    0.46000001    0.07000000
   17.23333359  113.72899628    0.46000001    0.07000000
   17.23416710  122.34100342    0.46000001    0.07000000
   17.23722267  119.99900055    0.46000001    0.07000000
   17.24027824  118.54000092    0.46000001    0.07000000
   17.24361229  173.92700195    0.46000001    0.07000000
   17.24944496  173.92700195    0.46000001    0.07000000
   17.25361061  116.31099701    0.46000001    0.07000000
   17.25694466  121.00000000    0.46000001    0.07000000
   17.26000023   91.40859985    0.46000001    0.07000000
   17.26333427  125.40200043    0.46000001    0.07000000
   17.26666641   96.62210083    0.46000001    0.07000000
   17.26749992  110.84700012    0.46000001    0.07000000
   17.27027702  109.46600342    0.46000001    0.07000000
   17.27333260   97.46070099    0.46000001    0.07000000
   17.27666664  125.97100067    0.46000001    0.07000000
   17.28000069  100.86699677    0.46000001    0.07000000
   17.28305435   -1.00000000    0.46000001    0.07000000
   17.28638840   -1.00000000    0.46000001    0.07000000
   17.29638863   -1.00000000    0.46000001    0.07000000
   17.29972076   -1.00000000    0.46000001    0.07000000
   17.30305481   -1.00000000    0.46000001    0.07000000
   17.30638885   -1.00000000    0.46000001    0.07000000
   17.30972099   -1.00000000    0.46000001    0.07000000
   17.31277657   -1.00000000    0.46000001    0.07000000
   17.31611061   -1.00000000    0.46000001    0.07000000
   17.31944466   -1.00000000    0.46000001    0.07000000
   17.32250023   -1.00000000    0.46000001    0.07000000
   17.32583427   -1.00000000    0.46000001    0.07000000
   17.32888985   -1.00000000    0.46000001    0.07000000
   17.33944511   -1.00000000    0.46000001    0.07000000
   17.34277916   -1.00000000    0.46000001    0.07000000
   17.34583473   -1.00000000    0.46000001    0.07000000
   17.34916687   -1.00000000    0.46000001    0.07000000
   17.35222244   -1.00000000    0.46000001    0.07000000
   17.35555649   -1.00000000    0.46000001    0.07000000
   17.35888863   -1.00000000    0.46000001    0.07000000
   17.36194420   -1.00000000    0.46000001    0.07000000
   17.36527824   -1.00000000    0.46000001    0.07000000
   17.36861038   -1.00000000    0.46000001    0.07000000
   17.37194443   -1.00000000    0.46000001    0.07000000
   17.38222313   -1.00000000    0.46000001    0.07000000
   17.38527679   -1.00000000    0.46000001    0.07000000
   17.38861084   -1.00000000    0.46000001    0.07000000
   17.39166641   -1.00000000    0.46000001    0.07000000
   17.39500046   -1.00000000    0.46000001    0.07000000
   17.39833260   -1.00000000    0.46000001    0.07000000
   17.40166664   -1.00000000    0.46000001    0.07000000
   17.40499878   -1.00000000    0.46000001    0.07000000
   17.40833282   -1.00000000    0.46000001    0.07000000
   17.41138840   -1.00000000    0.46000001    0.07000000
   17.41472244   -1.00000000    0.46000001    0.07000000
   17.42499924   -1.00000000    0.46000001    0.07000000
   17.42805481   -1.00000000    0.46000001    0.07000000
   17.43138885   -1.00000000    0.46000001    0.07000000
   17.43472099   -1.00000000    0.46000001    0.07000000
   17.43805504   -1.00000000    0.46000001    0.07000000
   17.44138718   -1.00000000    0.46000001    0.07000000
   17.44444275   -1.00000000    0.46000001    0.07000000
   17.44777679   -1.00000000    0.46000001    0.07000000
   17.45111275   -1.00000000    0.46000001    0.07000000
   17.45416832   -1.00000000    0.46000001    0.07000000
   17.45750046   -1.00000000    0.46000001    0.07000000
