    HOUR (UT)   FLARE FACTOR    SKY TESTER    SUN TESTER
   11.56166649   -1.00000000   -1.00000000   -1.00000000
   11.58777714  146.55499268    3.64000010    1.78999996
   11.59083271  135.21600342    3.61999989    1.78999996
   11.59416676  143.50599670    3.61999989    1.78999996
   11.59749985  144.61599731    3.61999989    1.80999994
   11.60055637  143.96200562    3.59999990    1.80999994
   11.60388947  111.40599823    3.57999992    1.83000004
   11.60805607  111.40599823    3.53999996    1.80999994
   11.61222267  130.41799927    3.51999998    1.80999994
   11.61527824  141.88299561    3.50000000    1.80999994
   11.61861134  120.38300323    3.48000002    1.83000004
   11.62111092  130.79899597    3.48000002    1.85000002
   11.62222195  129.54299927    3.48000002    1.83000004
   11.62555599  125.21399689    3.46000004    1.85000002
   11.62888908  119.51300049    3.45000005    1.85000002
   11.63194466  117.72799683    3.41000009    1.85000002
   11.63527775  150.20599365    3.39000010    1.85000002
   11.63833332  118.12300110    3.39000010    1.86000001
   11.64166641  134.22399902    3.36999989    1.86000001
   11.64499950  126.88999939    3.36999989    1.86000001
   11.65083313  126.88999939    3.34999990    1.86000001
   11.65499973  124.87100220    3.32999992    1.88000000
   11.65833282  117.45600128    3.32999992    1.88000000
   11.66138840  114.98899841    3.32999992    1.88000000
   11.66472149  116.51699829    3.32999992    1.88000000
   11.66777802  136.64900208    3.32999992    1.88000000
   11.67111111  124.49400330    3.30999994    1.89999998
   11.67444515  121.23400116    3.30999994    1.89999998
   11.67750072  113.83000183    3.28999996    1.89999998
   11.68083382  111.47200012    3.28999996    1.89999998
   11.68416691  114.43800354    3.28999996    1.89999998
   11.68722248  109.54799652    3.26999998    1.89999998
   11.68777752  121.61199951    3.26999998    1.89999998
   11.69361115  121.61199951    3.25000000    1.91999996
   11.69777775  115.89600372    3.23000002    1.91999996
   11.70111084  108.34899902    3.21000004    1.91999996
   11.70416641  109.16200256    3.21000004    1.91999996
   11.70749950  113.95200348    3.20000005    1.94000006
   11.71083355  112.66000366    3.18000007    1.94000006
   11.71388912  112.20899963    3.18000007    1.94000006
   11.71722221  117.23300171    3.18000007    1.94000006
   11.72055531  122.09300232    3.16000009    1.94000006
   11.72111034  112.89099884    3.14000010    1.94000006
   11.72416592   98.74539948    3.14000010    1.94000006
   11.72722149  115.77200317    3.14000010    1.96000004
   11.73055553   98.21910095    3.09999990    1.94000006
   11.73666668   98.21910095    3.07999992    1.96000004
   11.74055576  111.75000000    3.07999992    1.96000004
   11.74388885  112.72899628    3.05999994    1.98000002
   11.74722290  112.56999969    3.03999996    1.98000002
   11.75027752  110.39800262    3.03999996    1.98000002
   11.75361156  104.11100006    3.03999996    1.98000002
   11.75444412  109.71199799    3.03999996    1.98000002
   11.75722218  108.19100189    3.01999998    1.98000002
   11.76027775  113.34400177    3.01999998    2.00000000
   11.76361084  113.11799622    3.00000000    2.00000000
   11.76694393  110.00800323    2.98000002    1.98000002
   11.76999950  116.08799744    2.96000004    2.00000000
   11.77333355  113.16799927    2.96000004    2.00000000
   11.77944374  113.16799927    2.94000006    2.01999998
   11.78361130  108.44100189    2.93000007    2.01999998
   11.78666687  103.33999634    2.91000009    2.01999998
   11.78777790  101.13400269    2.93000007    2.01999998
   11.79055595  102.77100372    2.91000009    2.01999998
   11.79361153   98.99299622    2.89000010    2.01999998
   11.79694462  102.03600311    2.89000010    2.01999998
   11.80027771   94.52490234    2.86999989    2.01999998
   11.80333328   99.74179840    2.84999990    2.03999996
   11.80666733   98.38580322    2.84999990    2.03999996
   11.81000042  105.53700256    2.82999992    2.03999996
   11.81305599  102.69400024    2.82999992    2.03999996
   11.81638908   98.94470215    2.80999994    2.05999994
   11.82222176   98.94470215    2.78999996    2.05999994
   11.82638836   99.54399872    2.78999996    2.03999996
   11.82972240  107.78700256    2.76999998    2.03999996
   11.83277798  105.45400238    2.75000000    2.05999994
   11.83611107   96.17590332    2.75000000    2.05999994
   11.83916664   99.30829620    2.75000000    2.05999994
   11.84249973   98.82379913    2.73000002    2.05999994
   11.84583282  102.52200317    2.73000002    2.05999994
   11.84888840  109.29399872    2.71000004    2.05999994
   11.85222244  102.76000214    2.71000004    2.07999992
   11.85444450   98.77149963    2.71000004    2.07999992
   11.85583401  104.95200348    2.69000006    2.07999992
   11.85888958   95.57720184    2.69000006    2.07999992
   11.86500072   95.57720184    2.69000006    2.07999992
   11.86916637  104.93900299    2.66000009    2.07999992
   11.87250042   98.09320068    2.66000009    2.07999992
   11.87555599   98.57830048    2.66000009    2.09999990
   11.87888908   99.89230347    2.64000010    2.09999990
   11.88222218  100.71700287    2.64000010    2.09999990
   11.88527775   98.05970001    2.64000010    2.09999990
   11.88777733   91.70899963    2.61999989    2.09999990
   11.88916683   98.54419708    2.61999989    2.09999990
   11.89222240   91.27120209    2.59999990    2.09999990
   11.89555550   89.40149689    2.59999990    2.09999990
   11.89888859   96.42440033    2.57999992    2.11999989
   11.90194416   92.78009796    2.57999992    2.09999990
   11.90805531   92.78009796    2.55999994    2.11999989
   11.91194439  113.16000366    2.55999994    2.11999989
   11.91527748  102.48899841    2.53999996    2.11999989
   11.91861153   92.37149811    2.51999998    2.13000011
   11.92111111   93.16100311    2.51999998    2.13000011
   11.92222214   92.74980164    2.50000000    2.13000011
   11.92527771   93.28109741    2.50000000    2.13000011
   11.92861176   92.45110321    2.50000000    2.13000011
   11.93194485   92.09510040    2.50000000    2.13000011
   11.93500042   97.75509644    2.48000002    2.13000011
   11.93833351   96.90830231    2.50000000    2.13000011
   11.94166660   93.81880188    2.48000002    2.13000011
   11.94472218   94.68699646    2.48000002    2.13000011
   11.95083332   94.68699646    2.46000004    2.15000010
   11.95499992   93.29450226    2.46000004    2.15000010
   11.95805550   90.25740051    2.46000004    2.17000008
   11.96138859   92.23139954    2.46000004    2.17000008
   11.96472168  100.21199799    2.44000006    2.15000010
   11.96777725   99.65000153    2.44000006    2.15000010
   11.97111034   91.85839844    2.44000006    2.17000008
   11.97416592   90.28350067    2.42000008    2.15000010
   11.97749996   89.98200226    2.42000008    2.17000008
   11.98083305   91.41500092    2.42000008    2.17000008
   11.98388958   90.81179810    2.42000008    2.17000008
   11.98722267  102.48400116    2.40000010    2.17000008
   11.98777771   98.88510132    2.40000010    2.17000008
   11.99361134   98.88510132    2.39000010    2.17000008
   11.99777794   88.88459778    2.40000010    2.17000008
   12.00111103  100.34100342    2.39000010    2.17000008
   12.00416660   86.38459778    2.39000010    2.19000006
   12.00749969   90.71279907    2.39000010    2.19000006
   12.01055527   98.08090210    2.39000010    2.19000006
   12.01388931   86.60279846    2.39000010    2.19000006
   12.01694393   88.39910126    2.36999989    2.19000006
   12.02027798  100.19100189    2.34999990    2.21000004
   12.02111053   97.86660004    2.34999990    2.19000006
   12.02388859  102.02899933    2.34999990    2.21000004
   12.02694416   92.52259827    2.34999990    2.21000004
   12.03055573   95.74849701    2.34999990    2.21000004
   12.03666687   95.74849701    2.32999992    2.21000004
   12.04083347   93.16470337    2.32999992    2.21000004
   12.04416752   99.29170227    2.30999994    2.21000004
   12.04722309   91.14119720    2.30999994    2.21000004
   12.05083370  119.16699982    2.30999994    2.21000004
   12.05388927  100.62100220    2.30999994    2.21000004
   12.05444431   91.17150116    2.28999996    2.21000004
   12.05749989  107.10600281    2.28999996    2.21000004
   12.06055546  109.87500000    2.28999996    2.23000002
   12.06388950  122.39700317    2.26999998    2.21000004
   12.06694412  111.38999939    2.25000000    2.23000002
   12.07027817  125.47599792    2.25000000    2.23000002
   12.07361126   96.27950287    2.25000000    2.23000002
   12.07944393   96.27950287    2.25000000    2.23000002
   12.08361053   93.37819672    2.23000002    2.23000002
   12.08666611  110.51200104    2.23000002    2.23000002
   12.08777714  109.06300354    2.21000004    2.23000002
   12.09027767  113.27600098    2.23000002    2.25000000
   12.09333324   98.20629883    2.21000004    2.25000000
   12.09666634  107.48500061    2.21000004    2.25000000
   12.09972191  100.32399750    2.21000004    2.25000000
   12.10305595  105.99500275    2.19000006    2.25000000
   12.10638905  115.51300049    2.19000006    2.25000000
   12.10944462  122.07299805    2.17000008    2.25000000
   12.11277771  104.22000122    2.17000008    2.25000000
   12.11583328  101.52400208    2.17000008    2.25000000
   12.12222195  101.52400208    2.15000010    2.25000000
   12.12638855  119.36699677    2.15000010    2.26999998
   12.12944412   92.74870300    2.15000010    2.25000000
   12.13277817  109.28299713    2.15000010    2.26999998
   12.13611126   98.67510223    2.13000011    2.26999998
   12.13916683  113.79900360    2.15000010    2.26999998
   12.14249992   97.70829773    2.13000011    2.28999996
   12.14555550  115.54199982    2.13000011    2.26999998
   12.14888859  108.73000336    2.13000011    2.26999998
   12.15222168  127.86199951    2.11999989    2.26999998
   12.15527725  116.87799835    2.11999989    2.26999998
   12.15666676  115.46700287    2.11999989    2.26999998
   12.15972137  102.51200104    2.09999990    2.26999998
   12.16499996  102.51200104    2.09999990    2.28999996
   12.16916656  100.50900269    2.09999990    2.28999996
   12.17250061  110.95999908    2.07999992    2.28999996
   12.17555618  105.94400024    2.09999990    2.28999996
   12.17888927  102.20600128    2.09999990    2.28999996
   12.18194485   97.47789764    2.07999992    2.28999996
   12.18527794  100.17199707    2.07999992    2.28999996
   12.18777752   98.41719818    2.07999992    2.28999996
   12.18888855   86.51329803    2.07999992    2.28999996
   12.19194412   93.65019989    2.05999994    2.28999996
   12.19527817   86.00779724    2.05999994    2.30999994
   12.19861126   97.82559967    2.05999994    2.30999994
   12.20166683   91.70169830    2.05999994    2.30999994
   12.20805550   91.70169830    2.05999994    2.30999994
   12.21194458   90.45529938    2.05999994    2.30999994
   12.21527767   97.09639740    2.07999992    2.30999994
   12.21861076   90.14379883    2.05999994    2.30999994
   12.22111034  106.34500122    2.05999994    2.30999994
   12.22222137  101.00000000    2.05999994    2.30999994
   12.22555542   98.71160126    2.03999996    2.30999994
   12.22861099  105.56600189    2.05999994    2.32999992
   12.23194408   94.08850098    2.03999996    2.32999992
   12.23527813  102.27300262    2.03999996    2.32999992
   12.23833370   96.19529724    2.01999998    2.32999992
   12.24166679   85.31610107    2.01999998    2.32999992
   12.24472237   91.15239716    2.01999998    2.30999994
   12.25083351   91.15239716    2.00000000    2.32999992
   12.25500011   99.90390015    2.01999998    2.32999992
   12.25805569   90.45719910    2.00000000    2.32999992
   12.26138878  103.65399933    2.00000000    2.32999992
   12.26472187   90.89009857    1.98000002    2.32999992
   12.26805496   91.37210083    1.98000002    2.32999992
   12.27111053   96.22689819    2.00000000    2.32999992
   12.27444458   90.57080078    2.00000000    2.34999990
   12.27750015  102.94400024    2.01999998    2.32999992
   12.28083324   91.07479858    2.01999998    2.34999990
   12.28416729   91.29470062    2.01999998    2.34999990
   12.28722286   89.50070190    2.00000000    2.34999990
   12.28777790   93.87570190    2.00000000    2.34999990
   12.29361153   93.87570190    2.00000000    2.34999990
   12.29777813   91.90409851    2.00000000    2.34999990
   12.30111122  100.37100220    2.00000000    2.34999990
   12.30416679   96.94039917    1.98000002    2.36999989
   12.30749989   93.30989838    1.96000004    2.34999990
   12.31055546   92.84570313    1.96000004    2.36999989
   12.31388950   94.67870331    1.94000006    2.34999990
   12.31722260   90.42620087    1.94000006    2.34999990
   12.32055569  103.31900024    1.91999996    2.34999990
   12.32111073   96.54969788    1.94000006    2.34999990
   12.32416630   88.84889984    1.91999996    2.36999989
   12.32750034   88.35469818    1.89999998    2.36999989
   12.33055592   91.23239899    1.91999996    2.34999990
   12.33638859   91.23239899    1.91999996    2.36999989
   12.34055519   85.93959808    1.89999998    2.36999989
   12.34388828   84.76460266    1.89999998    2.36999989
   12.34694386   85.60980225    1.89999998    2.36999989
   12.35027790   88.44869995    1.88000000    2.36999989
   12.35361195   86.18840027    1.88000000    2.36999989
   12.35472298   89.52469635    1.88000000    2.36999989
   12.35750008   85.75810242    1.88000000    2.36999989
   12.36083412   91.68099976    1.88000000    2.36999989
   12.36388969   87.66880035    1.88000000    2.36999989
   12.36722279   89.76149750    1.86000001    2.39000010
   12.37055588   87.06320190    1.86000001    2.39000010
   12.37361145   87.07740021    1.86000001    2.39000010
   12.37944412   87.07740021    1.86000001    2.39000010
   12.38361073   89.17579651    1.85000002    2.40000010
   12.38666630   89.31539917    1.85000002    2.39000010
   12.38777733   89.56369781    1.85000002    2.39000010
   12.39027786   92.57779694    1.85000002    2.39000010
   12.39361095   88.70349884    1.83000004    2.39000010
   12.39666653   90.92610168    1.83000004    2.39000010
   12.39999962   90.34020233    1.83000004    2.40000010
   12.40305519   82.28189850    1.83000004    2.39000010
   12.40638828   88.19830322    1.83000004    2.39000010
   12.40944386   85.79100037    1.80999994    2.40000010
   12.41277695   89.02040100    1.80999994    2.40000010
   12.41611099   84.71029663    1.78999996    2.40000010
   12.42222214   84.71029663    1.76999998    2.39000010
   12.42638874   87.13140106    1.75000000    2.40000010
   12.42944431   86.12750244    1.75000000    2.40000010
   12.43277836   88.13539886    1.75000000    2.40000010
   12.43611145   83.35890198    1.75000000    2.40000010
   12.43916702   90.19439697    1.73000002    2.40000010
   12.44250011   87.54450226    1.73000002    2.40000010
   12.44583321   83.42900085    1.71000004    2.42000008
   12.44888878   85.28869629    1.71000004    2.40000010
   12.45222187   89.53279877    1.71000004    2.40000010
   12.45444393   87.28269958    1.71000004    2.40000010
   12.45583344   84.75610352    1.71000004    2.40000010
   12.45916653   84.08910370    1.71000004    2.40000010
   12.46500015   84.08910370    1.71000004    2.40000010
   12.46916580   87.41200256    1.71000004    2.42000008
   12.47249985   93.43039703    1.71000004    2.42000008
   12.47555542   91.39869690    1.71000004    2.42000008
   12.47888851   99.22540283    1.69000006    2.42000008
   12.48194408   87.38829803    1.69000006    2.42000008
   12.48527813   88.06379700    1.66999996    2.44000006
   12.48777771   95.50009918    1.69000006    2.42000008
   12.48888874   90.75450134    1.69000006    2.44000006
   12.49222279   84.14589691    1.66999996    2.42000008
   12.49527836   83.07409668    1.64999998    2.44000006
   12.49861145   83.49259949    1.64999998    2.44000006
   12.50194454   89.19989777    1.66999996    2.42000008
   12.50833321   89.19989777    1.64999998    2.42000008
   12.51249981   81.78009796    1.64999998    2.44000006
   12.51555538   85.18049622    1.64999998    2.44000006
   12.51888847   85.52110291    1.64999998    2.44000006
   12.52138901   82.89479828    1.63000000    2.44000006
   12.52250004   83.76429749    1.63000000    2.44000006
   12.52583313   85.51850128    1.63000000    2.44000006
   12.52888870   84.89469910    1.61000001    2.44000006
   12.53222179   81.25489807    1.61000001    2.44000006
   12.53527832   86.42610168    1.61000001    2.44000006
   12.53861141   87.02249908    1.63000000    2.44000006
   12.54194450   89.05650330    1.61000001    2.44000006
   12.54500008   92.64450073    1.61000001    2.46000004
   12.55083370   92.64450073    1.61000001    2.46000004
   12.55472279   92.97840118    1.63000000    2.44000006
   12.55805588   83.88379669    1.63000000    2.46000004
   12.56111145   88.12599945    1.61000001    2.46000004
   12.56444454   84.62059784    1.61000001    2.44000006
   12.56777763   87.02369690    1.60000002    2.44000006
   12.57083321   85.19879913    1.60000002    2.46000004
   12.57416630   84.38140106    1.58000004    2.46000004
   12.57722187   81.38839722    1.58000004    2.46000004
   12.58055592   87.95390320    1.58000004    2.46000004
   12.58361053   84.14779663    1.55999994    2.46000004
   12.58694458   80.96690369    1.55999994    2.46000004
   12.58777714   82.16259766    1.53999996    2.46000004
   12.60861111   82.16259766    1.51999998    2.48000002
   12.61277771   83.46299744    1.51999998    2.46000004
   12.61583328   78.85250092    1.51999998    2.46000004
   12.61916637   83.90440369    1.50000000    2.46000004
   12.62111092   84.13230133    1.50000000    2.46000004
   12.62277794   80.73069763    1.50000000    2.46000004
   12.62611103   81.50090027    1.50000000    2.46000004
   12.62916660   81.57150269    1.50000000    2.46000004
   12.63249969   81.83699799    1.50000000    2.48000002
   12.63555527   81.82610321    1.50000000    2.46000004
   12.63888836   78.39499664    1.50000000    2.48000002
   12.64222240   85.01999664    1.50000000    2.48000002
   12.64527798   86.33149719    1.50000000    2.48000002
   12.65138817   86.33149719    1.51999998    2.48000002
   12.65555477   79.32240295    1.50000000    2.48000002
   12.65861034   84.36139679    1.51999998    2.48000002
   12.66194439   82.21089935    1.51999998    2.48000002
   12.66527748   82.40619659    1.51999998    2.48000002
   12.66833401   85.18070221    1.53999996    2.48000002
   12.67166710   82.40670013    1.51999998    2.48000002
   12.67472267   78.69860077    1.51999998    2.48000002
   12.67805576   89.40419769    1.51999998    2.50000000
   12.68138885   80.82800293    1.51999998    2.48000002
   12.68444443   89.06120300    1.51999998    2.48000002
   12.68777752   84.05789948    1.51999998    2.48000002
   12.68833351   80.81179810    1.51999998    2.48000002
   12.69416714   80.81179810    1.51999998    2.48000002
   12.69833374   78.74759674    1.50000000    2.50000000
   12.70166683   81.68890381    1.50000000    2.50000000
   12.70472240   85.72660065    1.48000002    2.50000000
   12.70805550   82.27709961    1.48000002    2.50000000
   12.71111107   85.24990082    1.46000004    2.50000000
   12.71444416   83.83149719    1.46000004    2.50000000
   12.71777725   79.51219940    1.44000006    2.50000000
   12.72083282   88.46160126    1.44000006    2.50000000
   12.72166634   80.98590088    1.44000006    2.50000000
   12.72472191   79.79689789    1.44000006    2.51999998
   12.72777748   90.30359650    1.44000006    2.50000000
   12.73111057   80.78720093    1.44000006    2.50000000
   12.73694515   80.78720093    1.44000006    2.50000000
   12.74111176   83.98229980    1.44000006    2.50000000
   12.74444485   75.78579712    1.44000006    2.50000000
   12.74750042   89.01219940    1.44000006    2.51999998
   12.75083351   84.13880157    1.44000006    2.50000000
   12.75416660   85.89849854    1.44000006    2.50000000
   12.75500011   83.86900330    1.44000006    2.50000000
   12.75777817   82.32109833    1.44000006    2.51999998
   12.76083374   83.12380219    1.44000006    2.51999998
   12.76416683   84.36350250    1.44000006    2.51999998
   12.76722240   81.45099640    1.44000006    2.51999998
   12.77055550   87.28520203    1.44000006    2.50000000
   12.77388859   79.57330322    1.44000006    2.51999998
   12.77999973   79.57330322    1.44000006    2.51999998
   12.78388977   78.71890259    1.41999996    2.50000000
   12.78722286   82.38629913    1.41999996    2.51999998
   12.78833389   80.58580017    1.39999998    2.50000000
   12.79111195   81.74900055    1.39999998    2.51999998
   12.79416752   85.05220032    1.39999998    2.51999998
   12.79750061   79.61630249    1.39999998    2.51999998
   12.80055618   84.49269867    1.38000000    2.51999998
   12.80388927   82.50650024    1.38000000    2.53999996
   12.80722237   89.70290375    1.38000000    2.51999998
   12.81027794   81.99089813    1.36000001    2.53999996
   12.81361103   85.39669800    1.38000000    2.53999996
   12.81694412   85.38749695    1.36000001    2.53999996
   12.82277775   85.38749695    1.36000001    2.51999998
   12.82694435   82.23339844    1.38000000    2.51999998
   12.82999992   85.55960083    1.38000000    2.51999998
   12.83333302   85.26519775    1.36000001    2.53999996
   12.83666611   83.74759674    1.36000001    2.53999996
   12.83972168   89.04389954    1.38000000    2.53999996
   12.84305477   81.13009644    1.38000000    2.53999996
   12.84611034   88.41390228    1.38000000    2.53999996
   12.84944439   83.96569824    1.34000003    2.53999996
   12.85277843   82.48799896    1.34000003    2.53999996
   12.85500050   79.40319824    1.34000003    2.53999996
   12.85638905   79.22540283    1.34000003    2.53999996
   12.85944462   82.65260315    1.34000003    2.53999996
   12.86555576   82.65260315    1.33000004    2.53999996
   12.86972237   84.79170227    1.34000003    2.53999996
   12.87277794   83.34500122    1.34000003    2.53999996
   12.87611103   86.52120209    1.34000003    2.53999996
   12.87944412   86.51809692    1.33000004    2.53999996
   12.88249969   81.52050018    1.33000004    2.53999996
   12.88583279   80.61360168    1.33000004    2.53999996
   12.88833332   83.11759949    1.33000004    2.53999996
   12.88944435   84.44470215    1.33000004    2.53999996
   12.89249992   77.81900024    1.33000004    2.55999994
   12.89583302   79.87870026    1.33000004    2.53999996
   12.89888859   77.17810059    1.30999994    2.53999996
   12.90222168   80.54070282    1.30999994    2.55999994
   12.90833282   80.54070282    1.33000004    2.53999996
   12.91249943   84.75039673    1.33000004    2.53999996
   12.91583252   81.05989838    1.30999994    2.55999994
   12.91916656   82.86309814    1.30999994    2.55999994
   12.92166710   83.24359894    1.30999994    2.53999996
   12.92277813   80.05740356    1.30999994    2.55999994
   12.92583370   80.35440063    1.30999994    2.55999994
   12.92916679   82.77870178    1.30999994    2.55999994
   12.93222237   78.77390289    1.30999994    2.55999994
   12.93555546   79.58309937    1.30999994    2.55999994
   12.93888855   79.09179688    1.28999996    2.55999994
   12.94222260   81.48079681    1.30999994    2.55999994
   12.94527817   77.50189972    1.28999996    2.55999994
   12.95138836   77.50189972    1.28999996    2.55999994
   12.95527744   80.54740143    1.28999996    2.55999994
   12.95861053   78.56420135    1.28999996    2.55999994
   12.96194458   81.56700134    1.28999996    2.55999994
   12.96500015   83.79090118    1.28999996    2.55999994
   12.96833324   82.11869812    1.28999996    2.55999994
   12.97166634   79.71109772    1.28999996    2.55999994
   12.97472191   81.45300293    1.28999996    2.55999994
   12.97805500   77.43370056    1.28999996    2.57999992
   12.98111057   80.26270294    1.26999998    2.55999994
   12.98444462   78.44419861    1.28999996    2.57999992
   12.98777771   78.81289673    1.26999998    2.55999994
   12.98833370   80.69339752    1.26999998    2.55999994
   12.99416733   80.69339752    1.26999998    2.57999992
   12.99833393   79.23500061    1.26999998    2.55999994
   13.00138855   79.74629974    1.26999998    2.57999992
   13.00472260   79.26270294    1.25000000    2.57999992
   13.00805569   83.38729858    1.25000000    2.57999992
   13.01111126   81.06980133    1.25000000    2.57999992
   13.01444435   81.31980133    1.25000000    2.57999992
   13.01749992   79.35430145    1.25000000    2.57999992
   13.02083302   75.96070099    1.26999998    2.57999992
   13.02166653   80.02799988    1.26999998    2.57999992
   13.02444458   79.26380157    1.25000000    2.57999992
   13.02750015   82.92489624    1.25000000    2.57999992
   13.03083324   79.68450165    1.25000000    2.57999992
   13.03694534   79.68450165    1.25000000    2.57999992
   13.04111195   76.39689636    1.25000000    2.57999992
   13.04416752   77.71350098    1.26999998    2.57999992
   13.04750061   88.58239746    1.26999998    2.57999992
   13.05083370   79.44799805    1.25000000    2.57999992
   13.05388927   80.17849731    1.26999998    2.55999994
   13.05500031   79.92410278    1.25000000    2.57999992
   13.05777836   77.78970337    1.25000000    2.57999992
   13.06083393   80.11090088    1.25000000    2.57999992
   13.06416702   80.63259888    1.25000000    2.57999992
   13.06750011   82.26190186    1.23000002    2.57999992
   13.07055569   78.45420074    1.23000002    2.59999990
   13.07388878   76.72070313    1.23000002    2.59999990
   13.07972240   76.72070313    1.23000002    2.57999992
   13.08388901   78.41809845    1.21000004    2.57999992
   13.08722210   79.85489655    1.21000004    2.59999990
   13.08833313   77.88899994    1.21000004    2.59999990
   13.09083271   84.28759766    1.21000004    2.57999992
   13.09388828   85.78910065    1.21000004    2.59999990
   13.09722233   78.54000092    1.23000002    2.59999990
   13.10055637   77.67610168    1.23000002    2.59999990
   13.10361195   81.37640381    1.21000004    2.59999990
   13.10694504   81.62079620    1.21000004    2.59999990
   13.11027813   79.10540009    1.21000004    2.59999990
   13.11333370   81.51039886    1.23000002    2.59999990
   13.11666679   76.91179657    1.23000002    2.59999990
   13.12250042   76.91179657    1.23000002    2.59999990
   13.12666702   84.88880157    1.23000002    2.59999990
   13.13000011   86.06620026    1.23000002    2.59999990
   13.13333321   78.43869781    1.21000004    2.59999990
   13.13638878   82.36270142    1.21000004    2.59999990
   13.13972187   82.88349915    1.19000006    2.59999990
   13.14305496   81.55590057    1.21000004    2.59999990
   13.14611053   79.37830353    1.19000006    2.61999989
   13.14944458   78.83730316    1.19000006    2.61999989
   13.15249920   79.51339722    1.19000006    2.59999990
   13.15499973   80.45539856    1.19000006    2.59999990
   13.15638828   77.61329651    1.19000006    2.59999990
   13.15944386   81.60310364    1.16999996    2.59999990
   13.16555500   81.60310364    1.16999996    2.59999990
   13.16972256   77.10919952    1.16999996    2.59999990
   13.17277813   82.23719788    1.16999996    2.59999990
   13.17611122   77.36830139    1.16999996    2.59999990
   13.17944431   76.02300262    1.16999996    2.61999989
   13.18249989   80.06310272    1.16999996    2.59999990
   13.18583298   80.85040283    1.16999996    2.61999989
   13.18833351   76.88220215    1.19000006    2.59999990
   13.18944454   85.35250092    1.19000006    2.59999990
   13.19277763   75.86669922    1.19000006    2.59999990
   13.19583321   75.58689880    1.19000006    2.59999990
   13.19916630   79.71150208    1.21000004    2.61999989
   13.20222187   78.74549866    1.21000004    2.59999990
   13.20833302   78.74549866    1.23000002    2.59999990
   13.21249962   77.70040131    1.25000000    2.61999989
   13.21555519   78.05680084    1.25000000    2.61999989
   13.21888828   83.16410065    1.25000000    2.59999990
   13.22166634   78.85900116    1.25000000    2.61999989
   13.22249985   75.80590057    1.25000000    2.61999989
   13.22555542   77.35060120    1.23000002    2.61999989
   13.22888851   78.72059631    1.25000000    2.59999990
   13.23222160   76.58219910    1.25000000    2.61999989
   13.23527813   79.36759949    1.25000000    2.61999989
   13.23861122   78.81610107    1.25000000    2.61999989
   13.24194431   77.41120148    1.25000000    2.61999989
   13.24499989   77.33640289    1.25000000    2.64000010
   13.25111103   77.33640289    1.21000004    2.64000010
   13.25527763   81.50820160    1.21000004    2.61999989
   13.25861073   79.98239899    1.23000002    2.61999989
   13.26166630   84.62100220    1.21000004    2.59999990
   13.26500034   80.99490356    1.19000006    2.61999989
   13.26833344   80.80770111    1.19000006    2.61999989
   13.27138901   75.52089691    1.16999996    2.61999989
   13.27472210   74.82050323    1.16999996    2.61999989
   13.27777767   78.22329712    1.16999996    2.61999989
   13.28111076   77.50270081    1.16999996    2.61999989
   13.28444481   77.51799774    1.14999998    2.64000010
   13.28750038   79.59539795    1.14999998    2.61999989
   13.28833389   78.69879913    1.14999998    2.61999989
   13.29388905   78.69879913    1.16999996    2.61999989
   13.29805565   78.33229828    1.13000000    2.61999989
   13.30138874   77.09799957    1.13000000    2.61999989
   13.30472279   75.14910126    1.11000001    2.66000009
   13.30777836   76.90480042    1.11000001    2.64000010
   13.31111145   81.17479706    1.09000003    2.64000010
   13.31444454   76.77230072    1.11000001    2.64000010
   13.31777763   76.63790131    1.11000001    2.64000010
   13.32111073   78.48899841    1.11000001    2.61999989
   13.32166672   75.82649994    1.11000001    2.61999989
   13.32472229   78.49079895    1.11000001    2.64000010
   13.32777786   73.93090057    1.11000001    2.64000010
   13.33111095   87.13069916    1.11000001    2.64000010
   13.33694458   87.13069916    1.09000003    2.64000010
   13.34111118   77.18119812    1.11000001    2.61999989
   13.34416676   80.39019775    1.11000001    2.61999989
   13.34749985   75.55259705    1.11000001    2.64000010
   13.35055637   82.48760223    1.11000001    2.64000010
   13.35388947   80.17310333    1.13000000    2.64000010
   13.35500050   88.85919952    1.13000000    2.64000010
   13.35750008   77.09670258    1.13000000    2.64000010
   13.36083412   77.33529663    1.13000000    2.64000010
   13.36388969   76.01699829    1.13000000    2.64000010
   13.36722279   75.36769867    1.13000000    2.64000010
   13.37055588   79.68260193    1.13000000    2.64000010
   13.37361145   78.97630310    1.11000001    2.64000010
   13.37972260   78.97630310    1.11000001    2.64000010
   13.38388920   77.19899750    1.11000001    2.64000010
   13.38694477   74.85859680    1.11000001    2.66000009
   13.38833332   80.02320099    1.11000001    2.64000010
   13.39083290   79.54260254    1.11000001    2.64000010
   13.39388847   75.26609802    1.13000000    2.64000010
   13.39722252   78.40589905    1.11000001    2.64000010
   13.40055561   74.24120331    1.11000001    2.64000010
   13.40361118   74.55870056    1.11000001    2.66000009
   13.40694427   76.52899933    1.09000003    2.66000009
   13.41027737   78.47299957    1.09000003    2.64000010
   13.41333294   76.79190063    1.09000003    2.64000010
   13.41666698   75.48930359    1.09000003    2.64000010
   13.42250061   75.48930359    1.07000005    2.66000009
   13.42666721   82.02369690    1.09000003    2.64000010
   13.43000031   79.28040314    1.07000005    2.66000009
   13.43305588   79.47339630    1.07000005    2.66000009
   13.43638897   76.27200317    1.07000005    2.66000009
   13.43972206   82.37010193    1.07000005    2.66000009
   13.44305515   81.07189941    1.05999994    2.66000009
   13.44611073   76.81860352    1.05999994    2.64000010
   13.44944477   76.38150024    1.05999994    2.66000009
   13.45277786   75.73020172    1.05999994    2.64000010
   13.45499992   77.40969849    1.05999994    2.64000010
   13.45638847   77.00430298    1.05999994    2.64000010
   13.45944405   74.73400116    1.05999994    2.66000009
   13.46527767   74.73400116    1.05999994    2.66000009
   13.46944427   79.20939636    1.03999996    2.64000010
   13.47277737   74.30149841    1.03999996    2.64000010
   13.47611046   76.76370239    1.03999996    2.66000009
   13.47916603   78.52079773    1.05999994    2.66000009
   13.48249912   77.68009949    1.05999994    2.66000009
   13.48555565   79.64649963    1.05999994    2.66000009
   13.48833370   74.73639679    1.05999994    2.66000009
   13.48944473   79.46630096    1.05999994    2.66000009
   13.49277782   76.21240234    1.05999994    2.66000009
   13.49583340   79.30729675    1.03999996    2.66000009
   13.49916649   74.53330231    1.03999996    2.67000008
   13.50222206   78.47969818    1.05999994    2.66000009
   13.50833321   78.47969818    1.03999996    2.66000009
   13.51249981   73.46600342    1.03999996    2.66000009
   13.51555538   80.97879791    1.03999996    2.66000009
   13.51888847   79.81199646    1.03999996    2.66000009
   13.52166653   79.21720123    1.05999994    2.67000008
   13.52250004   79.94180298    1.05999994    2.67000008
   13.52583313   74.91709900    1.05999994    2.67000008
   13.52888870   77.89540100    1.05999994    2.67000008
   13.53222179   79.09940338    1.07000005    2.66000009
   13.53527832   81.31649780    1.07000005    2.66000009
   13.53861141   81.51339722    1.09000003    2.66000009
   13.54194450   79.28990173    1.07000005    2.66000009
   13.54500008   80.06800079    1.09000003    2.66000009
   13.55111122   80.06800079    1.07000005    2.67000008
   13.55527782   79.11509705    1.07000005    2.66000009
   13.55833340   82.03589630    1.07000005    2.67000008
   13.56166649   78.45110321    1.07000005    2.66000009
   13.56500053   81.13099670    1.07000005    2.67000008
   13.56805515   78.91149902    1.09000003    2.66000009
   13.57138920   77.74330139    1.07000005    2.66000009
   13.57444477   84.73439789    1.07000005    2.66000009
   13.57777786   81.77590179    1.07000005    2.66000009
   13.58111095   81.02989960    1.07000005    2.66000009
   13.58416653   76.25789642    1.07000005    2.67000008
   13.58749962   81.12740326    1.07000005    2.66000009
   13.58833313   77.65750122    1.07000005    2.66000009
   13.59388828   77.65750122    1.07000005    2.67000008
   13.59805489   83.01419830    1.07000005    2.67000008
   13.60138893   77.37830353    1.07000005    2.67000008
   13.60444450   77.05020142    1.07000005    2.66000009
   13.62222195   75.27020264    1.07000005    2.67000008
   13.62444496   77.17919922    1.07000005    2.67000008
   13.62777805   76.04190063    1.07000005    2.69000006
   13.63111115   79.21890259    1.07000005    2.67000008
   13.63694477   79.21890259    1.07000005    2.67000008
   13.64111137   80.81430054    1.09000003    2.66000009
   13.64444447   80.63150024    1.09000003    2.67000008
   13.64750004   76.16950226    1.09000003    2.67000008
   13.65083313   80.45829773    1.09000003    2.66000009
   13.65388870   85.59269714    1.09000003    2.66000009
   13.65527725   77.64350128    1.09000003    2.66000009
   13.65777779   76.01760101    1.09000003    2.67000008
   13.66111088   77.80290222    1.09000003    2.67000008
   13.66416645   78.44149780    1.09000003    2.67000008
   13.66750050   79.10829926    1.09000003    2.67000008
   13.67055607   80.27690125    1.09000003    2.67000008
   13.67388916   77.77339935    1.09000003    2.67000008
   13.67972279   77.77339935    1.07000005    2.67000008
   13.68388939   79.83020020    1.07000005    2.67000008
   13.68722248   79.06439972    1.07000005    2.67000008
   13.68861103   76.76820374    1.07000005    2.67000008
   13.69083309   77.27649689    1.05999994    2.69000006
   13.69416714   94.19339752    1.07000005    2.67000008
   13.69722271   89.89209747    1.05999994    2.67000008
   13.70055580   91.89589691    1.05999994    2.67000008
   13.70388889   97.16929626    1.05999994    2.67000008
   13.70694447   88.14969635    1.05999994    2.67000008
   13.71027756   89.18350220    1.05999994    2.67000008
   13.71333313  103.13500214    1.05999994    2.67000008
   13.71666622   90.94629669    1.05999994    2.67000008
   13.72277737   90.94629669    1.05999994    2.67000008
   13.72666645   90.33339691    1.05999994    2.67000008
   13.72999954   87.54689789    1.05999994    2.69000006
   13.73333359   98.31569672    1.05999994    2.69000006
   13.73638916   95.83180237    1.05999994    2.67000008
   13.73972225   79.42109680    1.05999994    2.67000008
   13.74305534   81.02860260    1.05999994    2.69000006
   13.74611092   89.00129700    1.05999994    2.69000006
   13.74944496   78.05580139    1.07000005    2.69000006
   13.75277805   87.27649689    1.05999994    2.69000006
   13.75527763   82.94609833    1.05999994    2.69000006
   13.75638866   88.78849792    1.05999994    2.67000008
   13.75972176   76.92269897    1.05999994    2.69000006
   13.76555538   76.92269897    1.07000005    2.69000006
   13.76972198   76.09839630    1.07000005    2.69000006
   13.77277756   77.40239716    1.07000005    2.69000006
   13.77611065   76.31210327    1.07000005    2.69000006
   13.77916622   76.82759857    1.07000005    2.67000008
   13.78249931   75.37180328    1.07000005    2.69000006
   13.78583336   77.64929962    1.07000005    2.69000006
   13.78861141   77.15460205    1.07000005    2.69000006
   13.78944492   76.09130096    1.09000003    2.69000006
   13.79277802   75.61710358    1.09000003    2.69000006
   13.79583359   80.42430115    1.09000003    2.69000006
   13.79916668   79.77269745    1.09000003    2.69000006
   13.80249977   78.95809937    1.09000003    2.69000006
   13.80833340   78.95809937    1.07000005    2.69000006
   13.81250000   76.79170227    1.07000005    2.69000006
   13.81555557   78.65989685    1.07000005    2.69000006
   13.81888866   78.86160278    1.07000005    2.69000006
   13.82194424   81.59980011    1.07000005    2.69000006
   13.82250023   76.90239716    1.07000005    2.69000006
   13.82583332   74.41239929    1.07000005    2.69000006
   13.82888889   79.48999786    1.05999994    2.69000006
   13.83222198   77.99430084    1.05999994    2.69000006
   13.83555508   77.84020233    1.05999994    2.69000006
   13.83861065   76.81590271    1.05999994    2.69000006
   13.84194374   76.37310028    1.05999994    2.69000006
   13.84527779   76.49610138    1.05999994    2.71000004
   13.85138893   76.49610138    1.05999994    2.69000006
   13.85555553   78.13490295    1.03999996    2.69000006
   13.85861111   74.40200043    1.03999996    2.69000006
   13.86194515   76.95800018    1.05999994    2.69000006
   13.86527824   80.42649841    1.05999994    2.69000006
   13.86833382   72.95760345    1.05999994    2.71000004
   13.87166691   77.42949677    1.05999994    2.69000006
   13.87472248   76.18689728    1.05999994    2.71000004
   13.87805557   79.04940033    1.05999994    2.69000006
   13.88138866   78.36489868    1.05999994    2.71000004
   13.88444424   75.86239624    1.05999994    2.69000006
   13.88777733   75.23829651    1.07000005    2.69000006
   13.88861084   76.48010254    1.07000005    2.69000006
   13.89388847   76.48010254    1.07000005    2.71000004
   13.89805508   79.03060150    1.09000003    2.71000004
   13.90138817   80.42649841    1.09000003    2.69000006
   13.90472221   77.86080170    1.09000003    2.69000006
   13.90777779   80.30979919    1.09000003    2.69000006
   13.91111088   75.93029785    1.09000003    2.69000006
   13.91416645   75.98249817    1.09000003    2.71000004
   13.91750050   77.46530151    1.09000003    2.71000004
   13.92083359   75.12590027    1.09000003    2.69000006
   13.92194462   81.17510223    1.09000003    2.69000006
   13.92444515   76.99099731    1.09000003    2.71000004
   13.92777824   86.60910034    1.09000003    2.69000006
   13.93083382   83.82790375    1.11000001    2.71000004
   13.93694496   83.82790375    1.11000001    2.71000004
   13.94111156   78.71510315    1.13000000    2.69000006
   13.94416714   74.57060242    1.13000000    2.71000004
   13.94750023   79.45439911    1.13000000    2.71000004
   13.95055580   77.35269928    1.13000000    2.71000004
   13.95388889   73.90529633    1.13000000    2.69000006
   13.95527744   81.97290039    1.14999998    2.69000006
   13.95749950   80.12550354    1.13000000    2.69000006
   13.96083355   75.07240295    1.14999998    2.71000004
   13.96388912   83.61640167    1.14999998    2.71000004
   13.96722221   75.54329681    1.14999998    2.71000004
   13.97055531   76.78749847    1.14999998    2.71000004
   13.97361088   76.66220093    1.16999996    2.69000006
   13.97972202   76.66220093    1.19000006    2.71000004
   13.98388958   75.11560059    1.16999996    2.71000004
   13.98694515   77.27960205    1.16999996    2.71000004
   13.98888874   76.46690369    1.16999996    2.71000004
   13.99055576   74.32019806    1.14999998    2.71000004
   13.99388885   76.59190369    1.14999998    2.71000004
   13.99694443   77.51940155    1.19000006    2.69000006
   14.00027752   79.08070374    1.16999996    2.71000004
   14.00361156   76.53489685    1.21000004    2.71000004
   14.00666714   73.76360321    1.21000004    2.71000004
   14.01000023   78.40769958    1.21000004    2.71000004
   14.01333332   76.67510223    1.23000002    2.71000004
   14.01638889   76.52559662    1.23000002    2.71000004
   14.02250004   76.52559662    1.21000004    2.71000004
   14.02666664   75.94110107    1.21000004    2.73000002
   14.02999973   78.21170044    1.19000006    2.71000004
   14.03305531   77.59020233    1.19000006    2.71000004
   14.03638935   74.39830017    1.21000004    2.71000004
   14.03972244   74.00509644    1.21000004    2.69000006
   14.04277802   74.45230103    1.19000006    2.71000004
   14.04611111   76.75140381    1.16999996    2.71000004
   14.04944515   74.38279724    1.14999998    2.71000004
   14.05249977   77.81369781    1.13000000    2.71000004
   14.05555534   76.92369843    1.11000001    2.73000002
   14.05611134   75.18859863    1.11000001    2.73000002
   14.05944443   74.45200348    1.11000001    2.73000002
   14.06527805   74.45200348    1.07000005    2.71000004
   14.06944466   75.28859711    1.05999994    2.71000004
   14.07277775   77.85639954    1.03999996    2.73000002
   14.07611084   73.95529938    1.03999996    2.71000004
   14.07916641   78.60870361    1.01999998    2.71000004
   14.08249950   79.46890259    1.00000000    2.71000004
   14.08555508   74.18090057    1.00000000    2.73000002
   14.08888817   78.39250183    0.98000002    2.73000002
   14.08944416   77.28459930    0.98000002    2.71000004
   14.09305477   76.62149811    0.95999998    2.71000004
   14.09638882   77.18520355    0.95999998    2.73000002
   14.09944439   78.78910065    0.94000000    2.71000004
   14.10277843   75.53469849    0.94000000    2.71000004
   14.10833359   75.53469849    0.94000000    2.73000002
   14.11250019   74.10720062    0.92000002    2.73000002
   14.11555576   78.12180328    0.92000002    2.73000002
   14.11888885   75.77490234    0.92000002    2.71000004
   14.12222195   73.83450317    0.94000000    2.73000002
   14.12250042   77.34539795    0.94000000    2.73000002
   14.12583351   76.24490356    0.92000002    2.73000002
   14.12888908   76.39279938    0.92000002    2.73000002
   14.13222218   72.33450317    0.92000002    2.73000002
   14.13555527   74.88629913    0.92000002    2.73000002
   14.13861084   75.18299866    0.92000002    2.73000002
   14.14194393   73.90299988    0.92000002    2.73000002
   14.14527798   74.96119690    0.94000000    2.73000002
   14.15111065   74.96119690    0.94000000    2.73000002
   14.15527725   73.56529999    0.92000002    2.73000002
   14.15583324   74.78929901    0.92000002    2.73000002
   14.15888882   76.55349731    0.92000002    2.73000002
   14.16222191   77.94300079    0.92000002    2.73000002
   14.16555500   75.10630035    0.92000002    2.73000002
   14.16861153   75.79820251    0.92000002    2.73000002
   14.17194462   73.80719757    0.92000002    2.73000002
   14.17527771   78.41950226    0.92000002    2.73000002
   14.17833328   73.18900299    0.89999998    2.73000002
   14.18166733   75.96109772    0.89999998    2.73000002
   14.18472195   77.58239746    0.89999998    2.75000000
   14.18805599   75.55079651    0.89999998    2.75000000
   14.18916702   74.55549622    0.89999998    2.75000000
   14.19388866   74.55549622    0.89999998    2.73000002
   14.19805527   81.05169678    0.89999998    2.73000002
   14.20138836   79.36609650    0.89999998    2.73000002
   14.20444393   76.70790100    0.88000000    2.75000000
   14.20777798   82.41539764    0.88000000    2.73000002
   14.21111107   77.41169739    0.88000000    2.73000002
   14.21416664   80.01899719    0.88000000    2.75000000
   14.21749973   79.99909973    0.88000000    2.75000000
   14.22083282   78.99669647    0.88000000    2.75000000
   14.22249985   86.96730042    0.88000000    2.75000000
   14.22416592   73.65679932    0.88000000    2.75000000
   14.22749996   73.50479889    0.88000000    2.75000000
   14.23083305   74.86070251    0.88000000    2.73000002
   14.23666668   74.86070251    0.88000000    2.73000002
   14.24083328   78.57959747    0.88000000    2.75000000
   14.24416733   75.32700348    0.86000001    2.75000000
   14.24750042   78.15989685    0.86000001    2.75000000
   14.25055599   75.80280304    0.86000001    2.75000000
   14.25388908   78.16400146    0.86000001    2.73000002
   14.25583363   78.39969635    0.86000001    2.73000002
   14.25722218   77.51119995    0.86000001    2.75000000
   14.26055527   82.83670044    0.86000001    2.75000000
   14.26388931   80.20829773    0.88000000    2.75000000
   14.26694393   78.22299957    0.86000001    2.73000002
   14.27027798   78.24199677    0.88000000    2.73000002
   14.27361107   77.34480286    0.88000000    2.75000000
   14.27972221   77.34480286    0.89999998    2.75000000
   14.28388977   75.86430359    0.88000000    2.73000002
   14.28694534   80.65540314    0.89999998    2.75000000
   14.28916740   75.76679993    0.89999998    2.75000000
   14.29083347   76.32730103    0.89999998    2.75000000
   14.29388905   74.85810089    0.89999998    2.73000002
   14.29722309   75.63950348    0.92000002    2.75000000
   14.30027771   77.09529877    0.89999998    2.75000000
   14.30361176   74.22170258    0.92000002    2.75000000
   14.30694485   75.65509796    0.89999998    2.75000000
   14.31000042   78.45829773    0.89999998    2.75000000
   14.31333351   76.61949921    0.89999998    2.73000002
   14.31666660   77.01020050    0.92000002    2.75000000
   14.32250023   77.01020050    0.89999998    2.73000002
   14.32666683   77.56880188    0.89999998    2.75000000
   14.32972240   77.21779633    0.89999998    2.75000000
   14.33305550   81.18260193    0.89999998    2.75000000
   14.33638859   74.55850220    0.89999998    2.75000000
   14.33944416   74.62969971    0.89999998    2.75000000
   14.34277725   78.05889893    0.89999998    2.75000000
   14.34611034   77.59960175    0.89999998    2.73000002
   14.34916592   76.24459839    0.88000000    2.75000000
   14.35249996   74.31929779    0.88000000    2.75000000
   14.35555553   78.67140198    0.88000000    2.75000000
   14.35750008   75.58940125    0.88000000    2.75000000
   14.35944462   78.67910004    0.88000000    2.75000000
   14.36527824   78.67910004    0.88000000    2.75000000
   14.36944485   72.86930084    0.88000000    2.75000000
   14.37277794   74.04660034    0.88000000    2.75000000
   14.37583351   73.55049896    0.88000000    2.75000000
   14.37916660   78.23880005    0.88000000    2.75000000
   14.38249969   79.18679810    0.88000000    2.73000002
   14.38555527   79.89849854    0.88000000    2.75000000
   14.38888836   79.48090363    0.88000000    2.75000000
   14.39083290   74.92669678    0.88000000    2.75000000
   14.39249992   78.69529724    0.88000000    2.75000000
   14.39555550   78.76550293    0.89999998    2.75000000
   14.39888859   77.77079773    0.89999998    2.75000000
   14.40222168   79.47930145    0.89999998    2.75000000
   14.40805531   79.47930145    0.89999998    2.73000002
   14.41222191   77.85209656    0.89999998    2.73000002
   14.41555500   82.66510010    0.92000002    2.75000000
   14.41888905   74.93129730    0.89999998    2.75000000
   14.42194462   78.47640228    0.92000002    2.75000000
   14.42444515   77.76270294    0.92000002    2.75000000
   14.42583370   71.89309692    0.89999998    2.75000000
   14.42888927   78.99680328    0.89999998    2.75000000
   14.43222237   76.08180237    0.89999998    2.75000000
   14.43527794   79.46800232    0.89999998    2.75000000
   14.43861103   73.98059845    0.92000002    2.75000000
   14.44194412   84.06510162    0.92000002    2.75000000
   14.44499969   78.32499695    0.89999998    2.75000000
   14.45111084   78.32499695    0.89999998    2.75000000
   14.45527744   77.44110107    0.88000000    2.75000000
   14.45777798   78.56829834    0.88000000    2.75000000
   14.45861053   80.91729736    0.88000000    2.75000000
   14.46194458   75.12519836    0.89999998    2.75000000
   14.46527767   78.92669678    0.88000000    2.76999998
   14.46861076   74.86609650    0.88000000    2.76999998
   14.47166634   77.11560059    0.88000000    2.76999998
   14.47499943   79.52649689    0.88000000    2.75000000
   14.47805500   76.56140137    0.88000000    2.75000000
   14.48138809   75.60710144    0.88000000    2.75000000
   14.48472214   76.92169952    0.86000001    2.75000000
   14.48777771   74.62819672    0.83999997    2.76999998
   14.49388885   74.62819672    0.83999997    2.75000000
   14.49805546   74.42569733    0.81999999    2.75000000
   14.50111103   80.50930023    0.81999999    2.76999998
   14.50444412   76.76789856    0.81999999    2.75000000
   14.50777817   74.50749969    0.83999997    2.75000000
   14.51083374   72.31310272    0.81999999    2.76999998
   14.51416683   76.95490265    0.81999999    2.75000000
   14.51749992   73.71690369    0.80000001    2.76999998
   14.52055550   78.58740234    0.80000001    2.76999998
   14.52388859   72.99939728    0.80000001    2.76999998
   14.52472210   72.12519836    0.80000001    2.76999998
   14.52750015   74.89430237    0.79000002    2.76999998
   14.53083324   73.81749725    0.79000002    2.75000000
   14.53666687   73.81749725    0.79000002    2.75000000
   14.54083347   77.03440094    0.79000002    2.75000000
   14.54416752   79.98000336    0.76999998    2.76999998
   14.54722309   78.69770050    0.76999998    2.76999998
   14.55055618   79.06610107    0.76999998    2.76999998
   14.55388927   75.27290344    0.76999998    2.76999998
   14.55722237   76.77980042    0.75000000    2.76999998
   14.55805588   73.19889832    0.76999998    2.75000000
   14.56083393   74.87899780    0.76999998    2.76999998
   14.56388950   74.33699799    0.75000000    2.76999998
   14.56722260   81.45770264    0.76999998    2.76999998
   14.57055569   78.88549805    0.76999998    2.76999998
   14.57361126   76.52999878    0.76999998    2.75000000
   14.57944393   76.52999878    0.76999998    2.76999998
   14.58361053   77.30960083    0.79000002    2.75000000
   14.58694458   84.15039825    0.79000002    2.76999998
   14.59027767   76.99299622    0.79000002    2.76999998
   14.59166622   80.47480011    0.79000002    2.76999998
   14.59388828   75.32810211    0.79000002    2.76999998
   14.59694386   79.23650360    0.76999998    2.75000000
   14.60027790   74.15309906    0.79000002    2.76999998
   14.60333347   75.24579620    0.76999998    2.76999998
   14.60666752   76.06809998    0.76999998    2.75000000
   14.61000061   75.80989838    0.76999998    2.78999996
   14.61305618   77.33869934    0.79000002    2.75000000
   14.61638927   74.32740021    0.79000002    2.76999998
   14.62250042   74.32740021    0.79000002    2.76999998
   14.64083290   77.24449921    0.81999999    2.76999998
   14.64388847   79.93199921    0.79000002    2.78999996
   14.64722252   81.23650360    0.79000002    2.76999998
   14.65055561   77.31590271    0.76999998    2.76999998
   14.65361118   81.02870178    0.76999998    2.76999998
   14.65694427   77.90160370    0.76999998    2.76999998
   14.66027737   80.17880249    0.76999998    2.76999998
   14.66555500   80.17880249    0.75000000    2.78999996
   14.66972256   77.26519775    0.76999998    2.76999998
   14.67277813   82.81829834    0.79000002    2.76999998
   14.67388916   76.72039795    0.79000002    2.76999998
   14.67638874   76.57450104    0.79000002    2.78999996
   14.67972279   78.42500305    0.79000002    2.78999996
   14.68305588   79.72910309    0.79000002    2.76999998
   14.68611145   75.24130249    0.79000002    2.76999998
   14.68944454   75.62989807    0.79000002    2.76999998
   14.69277763   76.77760315    0.79000002    2.76999998
   14.69583321   77.83010101    0.79000002    2.76999998
   14.69916630   75.97959900    0.79000002    2.76999998
   14.70222187   77.67369843    0.79000002    2.76999998
   14.70833302   77.67369843    0.79000002    2.76999998
   14.71249962   76.04810333    0.79000002    2.76999998
   14.71583271   77.57520294    0.79000002    2.76999998
   14.71888828   77.11070251    0.79000002    2.76999998
   14.72222137   77.06449890    0.80000001    2.76999998
   14.72555542   72.82700348    0.80000001    2.76999998
   14.72861099   72.85099792    0.80000001    2.76999998
   14.73194408   79.75800323    0.80000001    2.76999998
   14.73527813   77.18209839    0.80000001    2.76999998
   14.73833370   77.29869843    0.80000001    2.76999998
   14.74055576   84.44470215    0.80000001    2.76999998
   14.74222279   85.49870300    0.80000001    2.78999996
   14.74555588   85.92849731    0.80000001    2.76999998
   14.75111103   85.92849731    0.80000001    2.76999998
   14.75527763   79.46540070    0.80000001    2.76999998
   14.75861073   86.15290070    0.81999999    2.76999998
   14.76166630   89.72689819    0.83999997    2.76999998
   14.76500034   88.56770325    0.83999997    2.76999998
   14.76833344   83.91059875    0.83999997    2.78999996
   14.77138901   81.87030029    0.81999999    2.76999998
   14.77388859   87.95279694    0.80000001    2.78999996
   14.77527714   79.56900024    0.80000001    2.78999996
   14.77833271   83.21720123    0.81999999    2.78999996
   14.78166676   84.63480377    0.80000001    2.78999996
   14.78472233   81.47209930    0.80000001    2.78999996
   14.78805637   80.56999969    0.80000001    2.78999996
   14.79416752   80.56999969    0.80000001    2.76999998
   14.79805565   81.65840149    0.81999999    2.76999998
   14.80138874   81.70839691    0.83999997    2.76999998
   14.80472279   83.66040039    0.86000001    2.76999998
   14.80722237   83.94450378    0.86000001    2.76999998
   14.80833340   86.66680145    0.88000000    2.76999998
   14.81138897   80.01779938    0.88000000    2.76999998
   14.81472206   79.44920349    0.88000000    2.76999998
   14.81805515   88.18479919    0.88000000    2.78999996
   14.82111073   85.95249939    0.89999998    2.76999998
   14.82444477   80.43299866    0.89999998    2.76999998
   14.82750034   82.80599976    0.92000002    2.76999998
   14.83083344   83.95670319    0.92000002    2.78999996
   14.83694458   83.95670319    0.92000002    2.76999998
   14.84111118   76.53019714    0.89999998    2.78999996
   14.84416676   81.30449677    0.88000000    2.78999996
   14.84749985   83.08450317    0.88000000    2.76999998
   14.85083389   78.76409912    0.88000000    2.76999998
   14.85388947   81.20670319    0.86000001    2.76999998
   14.85722256   75.55159760    0.86000001    2.76999998
   14.86027813   82.93260193    0.86000001    2.76999998
   14.86361122   90.83869934    0.86000001    2.78999996
   14.86694431   79.44570160    0.83999997    2.78999996
   14.86999989   78.06600189    0.83999997    2.76999998
   14.87333393   92.62300110    0.83999997    2.76999998
   14.87388897   79.22969818    0.83999997    2.76999998
   14.87972260   79.22969818    0.86000001    2.76999998
   14.88388920   79.56340027    0.83999997    2.78999996
   14.88722229   82.25530243    0.83999997    2.78999996
   14.89027786   83.63919830    0.80000001    2.76999998
   14.89361095   80.54689789    0.79000002    2.78999996
   14.89694405   83.26709747    0.76999998    2.76999998
   14.89999962   81.28250122    0.75000000    2.78999996
   14.90333271   77.70580292    0.75000000    2.76999998
   14.90638828   77.56860352    0.75000000    2.76999998
   14.90722179   78.12650299    0.75000000    2.76999998
   14.91027737   75.35350037    0.76999998    2.78999996
   14.91333294   74.71070099    0.79000002    2.78999996
   14.91666698   73.53949738    0.80000001    2.78999996
   14.92250061   73.53949738    0.80000001    2.78999996
   14.92666721   77.25019836    0.81999999    2.78999996
   14.93000031   78.04869843    0.81999999    2.78999996
   14.93305588   74.96620178    0.83999997    2.78999996
   14.93638897   78.84709930    0.83999997    2.78999996
   14.93972206   73.27449799    0.86000001    2.76999998
   14.94055557   73.77619934    0.86000001    2.76999998
   14.94333363   78.56379700    0.88000000    2.76999998
   14.94638920   83.76719666    0.89999998    2.76999998
   14.94972229   79.15350342    0.94000000    2.78999996
   14.95305538   82.57830048    0.94000000    2.78999996
   14.95611095   81.72350311    0.89999998    2.76999998
   14.95944405   78.93810272    0.86000001    2.78999996
   14.96527767   78.93810272    0.83999997    2.76999998
   14.96944427   75.01039886    0.81999999    2.78999996
   14.97277737   73.14119720    0.81999999    2.78999996
   14.97388840   75.23490143    0.81999999    2.78999996
   14.97638798   76.73239899    0.80000001    2.78999996
   14.97944355   80.28759766    0.80000001    2.78999996
   14.98277760   76.07360077    0.80000001    2.78999996
   14.98611164   77.00090027    0.79000002    2.78999996
   14.98916721   75.59829712    0.79000002    2.78999996
   14.99250031   74.59020233    0.79000002    2.78999996
   14.99555588   75.26000214    0.79000002    2.78999996
   14.99888897   77.92160034    0.79000002    2.78999996
   15.00222206   78.83239746    0.80000001    2.78999996
   15.00833321   78.83239746    0.80000001    2.78999996
   15.01249981   74.50830078    0.80000001    2.78999996
   15.01555538   82.14320374    0.80000001    2.76999998
   15.01888847   83.40000153    0.81999999    2.78999996
   15.02194405   76.17929840    0.81999999    2.80999994
   15.02527714   79.92230225    0.80000001    2.76999998
   15.02861118   86.22460175    0.80000001    2.78999996
   15.03166676   78.23010254    0.79000002    2.78999996
   15.03500080   75.66049957    0.76999998    2.80999994
   15.03833389   77.84799957    0.73000002    2.78999996
   15.04055595   74.44490051    0.73000002    2.78999996
   15.04194450   78.30349731    0.73000002    2.78999996
   15.04500008   80.57969666    0.69000000    2.80999994
   15.05111122   80.57969666    0.67000002    2.80999994
   15.05527782   78.06189728    0.67000002    2.80999994
   15.05833340   76.45850372    0.67000002    2.78999996
   15.06166649   78.88279724    0.69000000    2.78999996
   15.06500053   79.36650085    0.67000002    2.78999996
   15.06805515   78.23249817    0.67000002    2.78999996
   15.07138920   75.16049957    0.67000002    2.78999996
   15.07388878   73.69290161    0.64999998    2.78999996
   15.07499981   83.42929840    0.64999998    2.78999996
   15.17666721   -1.00000000   -1.00000000   -1.00000000
   15.26666641   -1.00000000   -1.00000000   -1.00000000
   15.36333370   -1.00000000   -1.00000000   -1.00000000
   15.48777771   -1.00000000   -1.00000000   -1.00000000
   15.57499981   76.52169800    0.70999998    2.80999994
   15.57833290   76.11509705    0.64999998    2.80999994
   15.58138847   75.32170105    0.63000000    2.82999992
   15.58472157   74.52799988    0.63000000    2.82999992
   15.58805561   83.11509705    0.63000000    2.82999992
   15.59111118   80.61940002    0.63000000    2.80999994
   15.59527779   80.61940002    0.63000000    2.80999994
   15.59944439   81.48149872    0.64999998    2.80999994
   15.60277843   76.07129669    0.64999998    2.80999994
   15.60583401   80.23600006    0.67000002    2.80999994
   15.60833359   75.88899994    0.67000002    2.80999994
   15.60944462   76.80950165    0.69000000    2.80999994
   15.61277771   79.03589630    0.70999998    2.80999994
   15.61611176   83.51560211    0.70999998    2.82999992
   15.61916637   83.92630005    0.70999998    2.80999994
   15.62250042   76.76850128    0.70999998    2.80999994
   15.62555599   79.91809845    0.73000002    2.80999994
   15.62888908   77.07309723    0.73000002    2.80999994
   15.63222218   75.65119934    0.76999998    2.80999994
   15.63833332   75.65119934    0.76999998    2.80999994
   15.64222240   77.13960266    0.79000002    2.80999994
   15.64555550   76.16590118    0.80000001    2.80999994
   15.64888859   78.17040253    0.80000001    2.80999994
   15.65194416   79.70429993    0.80000001    2.80999994
   15.65527725   77.99620056    0.83999997    2.80999994
   15.65861034   77.76139832    0.83999997    2.80999994
   15.66166592   80.09809875    0.81999999    2.80999994
   15.66499996   80.60630035    0.81999999    2.80999994
   15.66805553   74.89779663    0.79000002    2.80999994
   15.67138958   77.39479828    0.79000002    2.80999994
   15.67472267   76.35919952    0.79000002    2.82999992
   15.67527771   79.05580139    0.79000002    2.82999992
   15.68111134   79.05580139    0.79000002    2.80999994
   15.68527794   78.10040283    0.79000002    2.80999994
   15.68833351   75.31279755    0.80000001    2.80999994
   15.69166660   78.33899689    0.80000001    2.82999992
   15.69472218   77.39700317    0.80000001    2.80999994
   15.69805527   78.59739685    0.80000001    2.80999994
   15.70138836   78.61650085    0.79000002    2.82999992
   15.70444393   76.88939667    0.79000002    2.80999994
   15.70777798   76.19329834    0.79000002    2.80999994
   15.70861053   78.67130280    0.79000002    2.80999994
   15.71138859   79.90750122    0.80000001    2.80999994
   15.71472168   81.93569946    0.80000001    2.80999994
   15.71805477   85.11180115    0.79000002    2.80999994
   15.72388840   85.11180115    0.79000002    2.80999994
   15.72805500   79.05529785    0.76999998    2.82999992
   15.73111057   80.68440247    0.76999998    2.80999994
   15.73444462   80.50789642    0.80000001    2.80999994
   15.73777771   82.35089874    0.79000002    2.80999994
   15.74083328   77.40889740    0.79000002    2.80999994
   15.74194431   79.23200226    0.79000002    2.80999994
   15.74444485   77.49089813    0.79000002    2.80999994
   15.74777794   83.15440369    0.80000001    2.80999994
   15.75111103   82.81439972    0.81999999    2.82999992
   15.75416660   78.78530121    0.83999997    2.80999994
   15.75749969   79.32939911    0.81999999    2.80999994
   15.76083374   77.54640198    0.81999999    2.80999994
   15.76666641   77.54640198    0.80000001    2.82999992
   15.77083302   83.11219788    0.80000001    2.82999992
   15.77416611   80.32080078    0.80000001    2.82999992
   15.77527714   79.45390320    0.80000001    2.80999994
   15.77750015   82.51940155    0.80000001    2.80999994
   15.78083324   77.38439941    0.80000001    2.80999994
   15.78416729   77.01560211    0.81999999    2.80999994
   15.78722286   77.46070099    0.81999999    2.82999992
   15.79055595   76.67340088    0.81999999    2.80999994
   15.79388905   75.63919830    0.81999999    2.80999994
   15.79694462   81.02870178    0.83999997    2.82999992
   15.80027771   78.84059906    0.88000000    2.82999992
   15.80361176   80.75869751    0.92000002    2.80999994
   15.80972195   80.75869751    0.92000002    2.82999992
   15.81388950   78.05300140    0.86000001    2.82999992
   15.81694412   78.02680206    0.86000001    2.80999994
   15.82027817   80.41619873    0.86000001    2.82999992
   15.82361126   80.49890137    0.86000001    2.82999992
   15.82666683   74.38200378    0.86000001    2.82999992
   15.82999992   82.32409668    0.86000001    2.80999994
   15.83333302   79.63529968    0.86000001    2.80999994
   15.83638859   79.75569916    0.88000000    2.80999994
   15.83972168   81.09539795    0.88000000    2.80999994
   15.84194374   81.50370026    0.88000000    2.80999994
   15.84333324   80.69930267    0.88000000    2.80999994
   15.84666634   82.22409821    0.81999999    2.80999994
   15.85249996   82.22409821    0.81999999    2.82999992
   15.85666752   76.85070038    0.81999999    2.82999992
   15.85972214   75.01629639    0.81999999    2.82999992
   15.86305618   78.70040131    0.81999999    2.82999992
   15.86611176   78.70790100    0.81999999    2.82999992
   15.86944485   76.65419769    0.81999999    2.80999994
   15.87277794   76.86949921    0.81999999    2.80999994
   15.87527752   79.38939667    0.81999999    2.80999994
   15.87611103   75.84619904    0.81999999    2.80999994
   15.87944412   76.14700317    0.80000001    2.80999994
   15.88277817   76.05580139    0.80000001    2.82999992
   15.88583279   76.98480225    0.80000001    2.80999994
   15.88916683   76.52279663    0.80000001    2.80999994
   15.89527798   76.52279663    0.89999998    2.80999994
   15.89944458   82.27380371    0.94000000    2.82999992
   15.90249920   81.47540283    0.94000000    2.82999992
   15.90583324   74.71920013    0.92000002    2.80999994
   15.90861034   78.75289917    0.89999998    2.82999992
   15.90944386   77.29260254    0.88000000    2.80999994
   15.91277695   79.63469696    0.81999999    2.82999992
   15.91611099   76.57800293    0.80000001    2.82999992
   15.91916656   77.95079803    0.80000001    2.82999992
   15.92250061   78.66629791    0.79000002    2.80999994
   15.92583370   76.60729980    0.75000000    2.82999992
   15.92888927   77.75379944    0.73000002    2.82999992
   15.93222237   77.67379761    0.73000002    2.80999994
   15.93805599   77.67379761    0.73000002    2.80999994
   15.94222260   78.36599731    0.73000002    2.80999994
   15.94555569   77.62680054    0.76999998    2.80999994
   15.94861126   78.20230103    0.76999998    2.82999992
   15.95194435   78.70359802    0.76999998    2.82999992
   15.95527744   77.28769684    0.79000002    2.80999994
   15.95833302   80.44860077    0.79000002    2.84999990
   15.96166611   79.24330139    0.79000002    2.82999992
   15.96500015   76.97769928    0.79000002    2.82999992
   15.96805477   74.52040100    0.76999998    2.82999992
   15.97138882   77.64659882    0.79000002    2.82999992
   15.97472191   83.55829620    0.79000002    2.80999994
   15.97527695   79.29660034    0.79000002    2.80999994
   15.98111057   79.29660034    0.79000002    2.80999994
   15.98500061   76.62169647    0.79000002    2.80999994
   15.98833370   78.67949677    0.79000002    2.80999994
   15.99250031   82.83010101    0.75000000    2.82999992
   15.99777794   77.79509735    0.73000002    2.82999992
   16.00083351   80.74759674    0.70999998    2.80999994
   16.00416756   82.23419952    0.70999998    2.82999992
   16.00722313   75.85250092    0.67000002    2.82999992
   16.00861168   78.43520355    0.67000002    2.82999992
   16.01111031   78.04129791    0.69000000    2.82999992
   16.01416588   82.59120178    0.67000002    2.80999994
   16.01749992   82.04350281    0.69000000    2.82999992
   16.02388954   82.04350281    0.70999998    2.82999992
   16.02805519   81.42030334    0.70999998    2.82999992
   16.03111076   76.26589966    0.67000002    2.82999992
   16.03444481   81.19480133    0.67000002    2.82999992
   16.03777695   79.52300262    0.69000000    2.82999992
   16.04083252   77.34600067    0.67000002    2.82999992
   16.04194450   82.15670013    0.69000000    2.82999992
   16.04472160   77.17440033    0.67000002    2.82999992
   16.04777718   85.73049927    0.69000000    2.82999992
   16.05111122   82.11540222    0.67000002    2.80999994
   16.05416679   79.35859680    0.69000000    2.82999992
   16.05749893   78.43689728    0.69000000    2.82999992
   16.06083298   79.09259796    0.69000000    2.82999992
   16.06666756   79.09259796    0.69000000    2.82999992
   16.07083511   85.50219727    0.67000002    2.80999994
   16.07389069   79.88150024    0.67000002    2.82999992
   16.07527924   81.85919952    0.67000002    2.82999992
   16.07750130   83.19619751    0.69000000    2.80999994
   16.08083344   85.45619965    0.70999998    2.82999992
   16.08416748   87.93399811    0.73000002    2.82999992
   16.08722305   89.62439728    0.73000002    2.82999992
   16.09055710   81.49759674    0.75000000    2.82999992
   16.09388924   82.25879669    0.79000002    2.82999992
   16.09694481   79.32350159    0.79000002    2.82999992
   16.10027885   78.45999908    0.80000001    2.80999994
   16.10333443   80.58570099    0.81999999    2.82999992
   16.10944557   80.58570099    0.81999999    2.82999992
   16.11361122   78.37879944    0.81999999    2.82999992
   16.11694527   74.10690308    0.81999999    2.80999994
   16.12000084   77.54519653    0.83999997    2.82999992
   16.12333298   81.78679657    0.86000001    2.82999992
   16.12666702   78.24179840    0.83999997    2.82999992
   16.12972260   81.05329895    0.83999997    2.80999994
   16.13305473   87.88909912    0.86000001    2.80999994
   16.13611031   80.22550201    0.83999997    2.80999994
   16.13944435   80.06569672    0.83999997    2.82999992
   16.14194489   75.57039642    0.86000001    2.82999992
   16.14333344   79.44840240    0.86000001    2.82999992
   16.14638901   80.85350037    0.86000001    2.80999994
   16.15250015   80.85350037    0.83999997    2.82999992
   16.15638924   77.78890228    0.83999997    2.80999994
   16.15972137   75.81410217    0.80000001    2.80999994
   16.16305542   76.67070007    0.79000002    2.82999992
   16.16611099   80.70069885    0.75000000    2.80999994
   16.16944313   83.06199646    0.75000000    2.82999992
   16.17249870   78.88110352    0.73000002    2.82999992
   16.17527771   80.08650208    0.73000002    2.82999992
   16.17638779   82.36190033    0.75000000    2.82999992
   16.17944336   79.30259705    0.76999998    2.82999992
   16.18277740   77.99330139    0.80000001    2.82999992
   16.18583298   81.82389832    0.80000001    2.82999992
   16.18916512   80.40460205    0.79000002    2.82999992
   16.19527626   80.40460205    0.80000001    2.82999992
   16.19944382   76.93199921    0.80000001    2.82999992
   16.20250130   80.03820038    0.80000001    2.82999992
   16.20583344   87.70909882    0.81999999    2.82999992
   16.20861244   75.91310120    0.83999997    2.80999994
   16.20944595   82.80529785    0.80000001    2.82999992
   16.21250153   81.45099640    0.83999997    2.80999994
   16.21583366   81.33039856    0.81999999    2.80999994
   16.21888924   77.35050201    0.79000002    2.82999992
   16.22222328   80.64350128    0.76999998    2.82999992
   16.22555542   83.85540009    0.76999998    2.80999994
   16.22861099   85.26879883    0.76999998    2.80999994
   16.23194504   82.26719666    0.76999998    2.80999994
   16.23805618   82.26719666    0.80000001    2.82999992
   16.24222183   77.88559723    0.79000002    2.82999992
   16.24527740   80.12270355    0.75000000    2.82999992
   16.24861145   79.93479919    0.75000000    2.82999992
   16.25194359   76.10220337    0.80000001    2.80999994
   16.25499916   74.71980286    0.79000002    2.82999992
   16.25833321   78.99369812    0.83999997    2.82999992
   16.26166725   77.11879730    0.81999999    2.82999992
   16.26472282   79.64739990    0.83999997    2.80999994
   16.26805496   80.90950012    0.83999997    2.82999992
   16.27138901   84.33650208    0.81999999    2.82999992
   16.27444458   77.15440369    0.81999999    2.82999992
   16.27527809   75.32160187    0.81999999    2.82999992
   16.28083229   75.32160187    0.80000001    2.82999992
   16.28499985   76.86489868    0.76999998    2.82999992
   16.28833199   79.30650330    0.76999998    2.82999992
   16.29138756   83.34909821    0.79000002    2.82999992
   16.29472160   78.48049927    0.79000002    2.80999994
   16.29805565   78.19619751    0.79000002    2.82999992
   16.30111122   80.96929932    0.79000002    2.82999992
   16.30444336   76.64050293    0.79000002    2.82999992
   16.30749893   75.65249634    0.80000001    2.82999992
   16.30861092   74.98590088    0.81999999    2.82999992
   16.31138802   74.06580353    0.81999999    2.82999992
   16.31444359   74.01429749    0.81999999    2.82999992
   16.31777954   77.62169647    0.81999999    2.82999992
   16.32361221   77.62169647    0.79000002    2.82999992
   16.32777786   75.37899780    0.76999998    2.80999994
   16.33111191   75.68800354    0.80000001    2.80999994
   16.33444595   76.74559784    0.80000001    2.84999990
   16.33750153   81.25240326    0.80000001    2.82999992
   16.34083366   79.03589630    0.80000001    2.82999992
   16.34194565   82.18530273    0.81999999    2.80999994
   16.34444427   76.92590332    0.81999999    2.82999992
   16.34749985   77.12809753    0.80000001    2.82999992
   16.35083389   76.65429688    0.75000000    2.82999992
   16.35388947   79.26390076    0.69000000    2.82999992
   16.35722351   76.65339661    0.69000000    2.82999992
   16.36055565   76.11419678    0.73000002    2.82999992
   16.36666679   76.11419678    0.70999998    2.82999992
   16.37083435   73.51760101    0.73000002    2.82999992
   16.37388992   78.76429749    0.75000000    2.82999992
   16.37527847   74.19969940    0.76999998    2.82999992
   16.37777710   76.44930267    0.76999998    2.82999992
   16.38083267   77.19239807    0.79000002    2.82999992
   16.38416672   75.74410248    0.80000001    2.80999994
   16.38722229   76.21459961    0.79000002    2.82999992
   16.39055634   76.94619751    0.76999998    2.80999994
   16.39388847   76.86859894    0.76999998    2.82999992
   16.39694405   77.05879974    0.70999998    2.82999992
   16.40027809   74.61779785    0.70999998    2.82999992
   16.40361023   77.25689697    0.69000000    2.82999992
   16.40944481   77.25689697    0.69000000    2.82999992
   16.41361046   78.44589996    0.73000002    2.82999992
   16.41666603   74.95259857    0.75000000    2.82999992
   16.42000008   77.52149963    0.75000000    2.82999992
   16.42333221   78.83889771    0.76999998    2.82999992
   16.42638779   77.91500092    0.76999998    2.82999992
   16.42972183   76.13899994    0.76999998    2.82999992
   16.43305397   82.29519653    0.76999998    2.82999992
   16.43610954   78.18669891    0.76999998    2.82999992
   16.43944359   77.31780243    0.73000002    2.82999992
   16.44194412   79.87590027    0.73000002    2.80999994
   16.44305420   74.99210358    0.70999998    2.80999994
   16.44610977   77.99909973    0.69000000    2.82999992
   16.45222282   77.99909973    0.70999998    2.82999992
   16.45639038   76.85620117    0.70999998    2.80999994
   16.45972252   73.91649628    0.70999998    2.82999992
   16.46277809   77.18800354    0.70999998    2.82999992
   16.46611214   78.37599945    0.73000002    2.82999992
   16.46944427   74.91940308    0.75000000    2.82999992
   16.47249985   78.60880280    0.76999998    2.82999992
   16.47527885   75.32360077    0.75000000    2.80999994
   16.47638893   76.41510010    0.75000000    2.82999992
   16.47944450   76.61160278    0.76999998    2.82999992
   16.48277855   77.80059814    0.79000002    2.80999994
   16.48611069   80.07589722    0.76999998    2.82999992
   16.48916626   75.63800049    0.75000000    2.82999992
   16.49500084   75.63800049    0.70999998    2.82999992
   16.49916649   80.31079865    0.67000002    2.82999992
   16.50250053   78.59020233    0.67000002    2.82999992
   16.50583267   85.03410339    0.70999998    2.82999992
   16.50861168   77.94760132    0.69000000    2.82999992
   16.50944519   79.44570160    0.70999998    2.82999992
   16.51250076   77.95379639    0.73000002    2.82999992
   16.51583290   76.91629791    0.75000000    2.82999992
   16.51916695   80.10140228    0.73000002    2.82999992
   16.52222252   78.29979706    0.70999998    2.82999992
   16.52555466   77.53859711    0.70999998    2.82999992
   16.52888870   77.29019928    0.70999998    2.82999992
   16.53194427   78.78929901    0.69000000    2.82999992
   16.53805542   78.78929901    0.69000000    2.82999992
   16.54222107   81.81120300    0.70999998    2.82999992
   16.54527664   76.09609985    0.70999998    2.82999992
   16.54861069   79.41539764    0.70999998    2.82999992
   16.55194283   74.26529694    0.70999998    2.80999994
   16.55499840   77.35350037    0.69000000    2.82999992
   16.55833244   73.30130005    0.69000000    2.82999992
   16.56138802   77.76719666    0.69000000    2.82999992
   16.56472206   78.25749969    0.69000000    2.82999992
   16.56805611   76.94409943    0.69000000    2.82999992
   16.57111168   76.43379974    0.69000000    2.84999990
   16.57444572   78.99250031    0.69000000    2.82999992
   16.57527924   76.34729767    0.69000000    2.82999992
   16.59611130   76.34729767    0.73000002    2.82999992
   16.60000038   79.08860016    0.73000002    2.82999992
   16.60333443   76.45369720    0.73000002    2.82999992
   16.60666656   77.91929626    0.75000000    2.82999992
   16.60861206   75.78369904    0.75000000    2.82999992
   16.61027908   76.27320099    0.75000000    2.82999992
   16.61333466   75.82099915    0.75000000    2.82999992
   16.61666679   79.22899628    0.73000002    2.82999992
   16.62000084   78.90299988    0.73000002    2.82999992
   16.62305641   74.29319763    0.73000002    2.82999992
   16.62638855   75.12400055    0.73000002    2.82999992
   16.62972260   77.28350067    0.75000000    2.82999992
   16.63277817   74.93099976    0.75000000    2.80999994
   16.63888931   74.93099976    0.76999998    2.82999992
   16.64277840   77.53610229    0.70999998    2.82999992
   16.64611053   75.33209991    0.70999998    2.82999992
   16.64944458   75.05950165    0.69000000    2.82999992
   16.65250015   74.04170227    0.69000000    2.82999992
   16.65583229   76.49700165    0.69000000    2.82999992
   16.65888786   79.65560150    0.67000002    2.82999992
   16.66222191   75.36190033    0.67000002    2.82999992
   16.66555595   75.21730042    0.67000002    2.82999992
   16.66860962   73.92639923    0.67000002    2.82999992
   16.67194366   76.84850311    0.67000002    2.82999992
   16.67527771   74.76670074    0.69000000    2.82999992
   16.67583275   73.07630157    0.69000000    2.82999992
   16.68166542   73.07630157    0.69000000    2.82999992
   16.68583298   77.71330261    0.70999998    2.82999992
   16.68888855   73.97119904    0.70999998    2.82999992
   16.69222069   74.05509949    0.73000002    2.82999992
   16.69527626   79.01450348    0.73000002    2.80999994
   16.69861031   76.51589966    0.73000002    2.82999992
   16.70194435   76.01490021    0.73000002    2.82999992
   16.70499992   77.34049988    0.70999998    2.80999994
   16.70833397   81.21040344    0.69000000    2.80999994
   16.70916748   77.61239624    0.70999998    2.82999992
   16.71194458   75.77639771    0.70999998    2.82999992
   16.71527863   78.66449738    0.70999998    2.82999992
   16.71861076   74.09010315    0.73000002    2.84999990
   16.72444534   74.09010315    0.73000002    2.82999992
   16.72861099   77.36920166    0.73000002    2.82999992
   16.73166656   80.58670044    0.75000000    2.82999992
   16.73500061   75.60489655    0.75000000    2.84999990
   16.73833275   76.40419769    0.75000000    2.82999992
   16.74138832   77.33350372    0.75000000    2.82999992
   16.74250031   78.60479736    0.75000000    2.82999992
   16.74500084   74.87809753    0.75000000    2.82999992
   16.74833298   74.81620026    0.73000002    2.80999994
   16.75138855   75.40299988    0.73000002    2.80999994
   16.75472260   72.29049683    0.73000002    2.82999992
   16.75805473   74.63179779    0.73000002    2.82999992
   16.76138878   75.66880035    0.73000002    2.82999992
   16.76722145   75.66880035    0.75000000    2.82999992
   16.77138901   75.41390228    0.75000000    2.82999992
   16.77472115   76.48829651    0.75000000    2.82999992
   16.77583313   74.33950043    0.75000000    2.82999992
   16.77833366   81.18969727    0.75000000    2.82999992
   16.78166580   83.85169983    0.73000002    2.82999992
   16.78472137   78.40689850    0.73000002    2.82999992
   16.78805542   80.41639709    0.70999998    2.80999994
   16.79138756   79.41729736    0.69000000    2.82999992
   16.79444313   72.46469879    0.69000000    2.82999992
   16.79777718   76.50090027    0.67000002    2.82999992
   16.80111122   79.10630035    0.67000002    2.82999992
   16.80416679   72.21549988    0.69000000    2.80999994
   16.80999947   72.21549988    0.73000002    2.82999992
   16.81416512   80.28250122    0.73000002    2.82999992
   16.81750107   82.36669922    0.73000002    2.82999992
   16.82083511   75.71119690    0.73000002    2.82999992
   16.82389069   77.01509857    0.70999998    2.82999992
   16.82722282   73.46179962    0.73000002    2.82999992
   16.83027840   75.64450073    0.75000000    2.82999992
   16.83361244   73.39550018    0.75000000    2.82999992
   16.83694458   76.21489716    0.73000002    2.82999992
   16.84000015   80.51239777    0.73000002    2.82999992
   16.84250069   72.20459747    0.73000002    2.82999992
   16.84361267   71.45369720    0.73000002    2.82999992
   16.84694481   77.08869934    0.67000002    2.82999992
   16.85305595   77.08869934    0.67000002    2.82999992
   16.85722351   75.31919861    0.67000002    2.82999992
   16.86027908   77.08110046    0.69000000    2.82999992
   16.86361122   72.22560120    0.69000000    2.82999992
   16.86666679   73.12729645    0.73000002    2.82999992
   16.87000084   80.57469940    0.73000002    2.82999992
   16.87333298   78.16819763    0.75000000    2.84999990
   16.87583351   77.65110016    0.73000002    2.80999994
   16.87694550   76.11399841    0.75000000    2.82999992
   16.88027763   78.73310089    0.73000002    2.82999992
   16.88333321   72.27709961    0.76999998    2.82999992
   16.88666725   79.78829956    0.76999998    2.82999992
   16.88999939   72.93350220    0.76999998    2.82999992
   16.89583397   72.93350220    0.76999998    2.82999992
   16.89999962   81.26159668    0.76999998    2.80999994
   16.90333366   76.21549988    0.76999998    2.82999992
   16.90638924   80.43090057    0.79000002    2.82999992
   16.90916634   79.11730194    0.79000002    2.80999994
   16.90999985   78.92310333    0.79000002    2.82999992
   16.91333389   76.92420197    0.79000002    2.80999994
   16.91638756   73.03089905    0.79000002    2.80999994
   16.91972160   72.69370270    0.76999998    2.80999994
   16.92305565   73.48210144    0.79000002    2.82999992
   16.92611122   78.57800293    0.79000002    2.80999994
   16.92944336   75.08100128    0.80000001    2.82999992
   16.93277740   76.24420166    0.80000001    2.82999992
   16.93861008   76.24420166    0.76999998    2.80999994
   16.94277763   73.03420258    0.76999998    2.80999994
   16.94610977   76.71019745    0.73000002    2.82999992
   16.94916534   80.92520142    0.73000002    2.80999994
   16.95250130   76.91149902    0.75000000    2.82999992
   16.95583344   76.79740143    0.76999998    2.82999992
   16.95888901   76.53410339    0.80000001    2.80999994
   16.96222305   74.39710236    0.83999997    2.82999992
   16.96555710   76.29509735    0.81999999    2.82999992
   16.96861076   78.36350250    0.81999999    2.82999992
   16.97194481   79.99749756    0.83999997    2.82999992
   16.97527885   75.96469879    0.81999999    2.80999994
   16.97583389   76.75109863    0.81999999    2.80999994
   16.98139000   76.75109863    0.81999999    2.82999992
   16.98555565   81.95700073    0.81999999    2.82999992
   16.98888969   80.50830078    0.81999999    2.80999994
   16.99222183   77.41159821    0.81999999    2.80999994
   16.99527740   82.12580109    0.81999999    2.80999994
   16.99861145   73.73889923    0.86000001    2.82999992
   17.00166702   79.02420044    0.86000001    2.80999994
   17.00499916   85.33190155    0.86000001    2.82999992
   17.00833321   79.60030365    0.83999997    2.80999994
   17.00916672   80.05349731    0.81999999    2.80999994
   17.01166725   79.25980377    0.81999999    2.80999994
   17.01499939   75.83499908    0.79000002    2.80999994
   17.01833344   75.26439667    0.79000002    2.82999992
   17.02444458   75.26439667    0.75000000    2.82999992
   17.02861023   75.82309723    0.76999998    2.82999992
   17.03166580   78.02819824    0.80000001    2.80999994
   17.03499985   78.83139801    0.80000001    2.80999994
   17.03805542   81.58840179    0.81999999    2.80999994
   17.04138756   79.28620148    0.81999999    2.82999992
   17.04249954   77.38150024    0.81999999    2.82999992
   17.04500008   79.78009796    0.81999999    2.80999994
   17.04833221   77.90809631    0.86000001    2.82999992
   17.05166626   78.35160065    0.86000001    2.82999992
   17.05472183   74.31390381    0.86000001    2.82999992
   17.05805397   77.31980133    0.86000001    2.82999992
   17.06110954   75.02780151    0.86000001    2.80999994
   17.06722260   75.02780151    0.88000000    2.80999994
   17.07139015   76.41649628    0.88000000    2.80999994
   17.07472229   79.09770203    0.95999998    2.80999994
   17.07583427   76.03150177    0.95999998    2.80999994
   17.07833481   77.02200317    0.89999998    2.80999994
   17.08166695   78.12699890    0.88000000    2.80999994
   17.08500099   72.78500366    0.86000001    2.82999992
   17.08833313   77.79869843    0.83999997    2.80999994
   17.09138870   82.16880035    0.83999997    2.80999994
   17.09472275   80.40149689    0.83999997    2.82999992
   17.09805679   78.40809631    0.80000001    2.80999994
   17.10111237   75.14150238    0.75000000    2.82999992
   17.10444450   83.44080353    0.75000000    2.82999992
   17.11000061   83.44080353    0.75000000    2.82999992
   17.11416626   82.01260376    0.75000000    2.82999992
   17.11750031   78.92870331    0.81999999    2.80999994
   17.12055588   82.87509918    0.76999998    2.82999992
   17.12388992   84.21659851    0.75000000    2.82999992
   17.12722206   79.23329926    0.73000002    2.82999992
   17.13055611   86.85929871    0.70999998    2.80999994
   17.13361168   84.08219910    0.69000000    2.82999992
   17.13694382   83.53220367    0.70999998    2.80999994
   17.14027786   85.34239960    0.70999998    2.82999992
   17.14249992   82.25589752    0.70999998    2.82999992
   17.14361191   87.50959778    0.73000002    2.80999994
   17.14694405   79.90509796    0.73000002    2.80999994
   17.15277672   79.90509796    0.73000002    2.82999992
   17.15694427   82.16619873    0.73000002    2.82999992
   17.16027832   77.20510101    0.75000000    2.82999992
   17.16361046   79.63009644    0.75000000    2.82999992
   17.16666603   78.16230011    0.76999998    2.82999992
   17.17000008   76.45020294    0.80000001    2.80999994
   17.17305565   78.44499969    0.80000001    2.80999994
   17.17583275   79.88169861    0.79000002    2.80999994
   17.17666626   76.59860229    0.79000002    2.80999994
   17.18000031   81.27130127    0.80000001    2.80999994
   17.18333244   78.60099792    0.80000001    2.80999994
   17.18638802   76.13469696    0.80000001    2.80999994
   17.18972206   79.59049988    0.81999999    2.80999994
   17.19583321   79.59049988    0.80000001    2.82999992
   17.20000076   74.86370087    0.76999998    2.82999992
   17.20305634   82.58339691    0.79000002    2.82999992
   17.20639038   80.72589874    0.73000002    2.82999992
   17.20916748   79.48100281    0.75000000    2.80999994
   17.21000099   78.35820007    0.75000000    2.80999994
   17.21333504   79.85630035    0.76999998    2.80999994
   17.21666718   82.61479950    0.76999998    2.80999994
   17.21972275   75.79660034    0.76999998    2.80999994
   17.22305679   81.86280060    0.76999998    2.82999992
   17.22611237   76.48690033    0.75000000    2.80999994
   17.22944450   76.45529938    0.76999998    2.82999992
   17.23277855   77.42769623    0.76999998    2.82999992
   17.23861122   77.42769623    0.80000001    2.80999994
   17.24277878   73.38030243    0.80000001    2.80999994
   17.24583435   76.45200348    0.81999999    2.80999994
   17.24916649   76.61730194    0.80000001    2.80999994
   17.25250053   80.73650360    0.80000001    2.80999994
   17.25555611   79.66159821    0.81999999    2.82999992
   17.25888824   79.49150085    0.83999997    2.82999992
   17.26222229   80.73840332    0.86000001    2.80999994
   17.26527786   78.01349640    0.83999997    2.82999992
   17.26861000   75.81410217    0.88000000    2.80999994
   17.27166557   76.78589630    0.89999998    2.80999994
   17.27499962   75.21690369    0.89999998    2.80999994
   17.27583313   75.10859680    0.89999998    2.80999994
   17.28138924   75.10859680    0.83999997    2.80999994
   17.28555489   73.65889740    0.83999997    2.80999994
   17.28888893   72.12519836    0.86000001    2.80999994
   17.29194450   79.30580139    0.86000001    2.80999994
   17.29527664   74.61959839    0.88000000    2.82999992
   17.29833221   75.47930145    0.88000000    2.82999992
   17.30166626   79.41239929    0.88000000    2.82999992
   17.30499840   77.21630096    0.86000001    2.82999992
   17.30805397   77.07469940    0.86000001    2.82999992
   17.30916595   77.87249756    0.86000001    2.82999992
   17.31166649   75.08020020    0.86000001    2.80999994
   17.31499863   74.19830322    0.86000001    2.82999992
   17.31833458   74.45760345    0.86000001    2.80999994
   17.32416725   74.45760345    0.86000001    2.80999994
   17.32833481   77.08540344    0.88000000    2.82999992
   17.33166695   73.53710175    0.89999998    2.80999994
   17.33472252   76.13089752    0.94000000    2.80999994
   17.33805656   74.88800049    0.95999998    2.80999994
   17.34138870   80.91889954    0.95999998    2.82999992
   17.34250069   79.17780304    0.95999998    2.82999992
   17.34472275   74.86019897    0.95999998    2.78999996
   17.34805679   78.06220245    0.94000000    2.80999994
   17.35138893   78.60829926    0.94000000    2.80999994
   17.35444450   78.12190247    0.94000000    2.80999994
   17.35777855   75.86889648    0.95999998    2.80999994
   17.36111069   77.27100372    0.94000000    2.82999992
   17.36722183   77.27100372    0.92000002    2.80999994
   17.37111092   74.32489777    0.92000002    2.80999994
   17.37444496   75.26159668    0.88000000    2.80999994
   17.37583351   75.33460236    0.88000000    2.80999994
   17.37805557   78.39540100    0.88000000    2.80999994
   17.38138962   74.56610107    0.86000001    2.80999994
   17.38472176   78.95339966    0.88000000    2.80999994
   17.38777733   74.02619934    0.88000000    2.80999994
   17.39111137   74.03230286    0.88000000    2.80999994
   17.39444351   73.58820343    0.86000001    2.82999992
   17.39749908   75.49279785    0.81999999    2.82999992
   17.40083313   75.61419678    0.81999999    2.80999994
   17.40388870   72.08950043    0.80000001    2.82999992
   17.40999985   72.08950043    0.79000002    2.80999994
   17.41416550   74.76670074    0.79000002    2.80999994
   17.41722107   78.30300140    0.79000002    2.82999992
   17.42055511   75.89379883    0.79000002    2.80999994
   17.42388916   76.54090118    0.79000002    2.80999994
   17.42694473   77.52290344    0.79000002    2.80999994
   17.43027687   82.95580292    0.75000000    2.80999994
   17.43361092   76.73010254    0.75000000    2.80999994
   17.43666649   74.85299683    0.73000002    2.82999992
   17.43999863   80.41470337    0.73000002    2.80999994
   17.44249916   73.57160187    0.73000002    2.80999994
   17.44333267   73.41699982    0.73000002    2.82999992
   17.44666672   80.24880219    0.73000002    2.80999994
   17.45277786   80.24880219    0.75000000    2.80999994
   17.45694542   73.15270233    0.75000000    2.80999994
   17.46027946   79.20480347    0.76999998    2.80999994
   17.46333504   74.35959625    0.76999998    2.80999994
   17.46666718   75.72059631    0.76999998    2.80999994
   17.46972275   73.60240173    0.76999998    2.80999994
   17.47305679   76.08679962    0.76999998    2.80999994
   17.47583389   74.03009796    0.76999998    2.80999994
   17.47694588   75.79869843    0.75000000    2.82999992
   17.48000145   77.45369720    0.75000000    2.80999994
   17.48333359   80.03810120    0.75000000    2.80999994
   17.48638916   75.50330353    0.75000000    2.80999994
   17.48972321   76.07669830    0.79000002    2.80999994
   17.49555588   76.07669830    0.79000002    2.80999994
   17.49972153   80.07640076    0.79000002    2.80999994
   17.50305557   80.87640381    0.79000002    2.82999992
   17.50611115   72.11160278    0.80000001    2.82999992
   17.50916672   77.30930328    0.81999999    2.80999994
   17.51000023   75.72799683    0.81999999    2.82999992
   17.51305580   78.74579620    0.83999997    2.80999994
   17.51638794   78.80410004    0.81999999    2.80999994
   17.51944351   78.87940216    0.80000001    2.80999994
   17.52277756   75.76409912    0.81999999    2.80999994
   17.52611160   76.80030060    0.80000001    2.82999992
   17.52916718   74.74490356    0.80000001    2.80999994
   17.53249931   77.15789795    0.79000002    2.80999994
   17.53861046   77.15789795    0.80000001    2.82999992
   17.54249954   75.77909851    0.81999999    2.82999992
   17.54583359   75.59989929    0.81999999    2.80999994
   17.54916573   74.00749969    0.83999997    2.82999992
   17.55222130   75.56929779    0.81999999    2.80999994
   17.55555534   82.39589691    0.81999999    2.80999994
   17.55888748   81.20950317    0.81999999    2.80999994
   17.56194305   79.86720276    0.81999999    2.80999994
   17.56527710   76.57129669    0.81999999    2.80999994
   17.56833458   73.78859711    0.80000001    2.78999996
   17.57166672   77.76550293    0.81999999    2.80999994
   17.57500076   74.03170013    0.81999999    2.82999992
   17.57583427   81.65080261    0.81999999    2.82999992
   17.58139038   81.65080261    0.83999997    2.80999994
   17.58555603   79.08059692    0.88000000    2.80999994
   17.58889008   80.65560150    0.88000000    2.80999994
   17.59194565   83.19390106    0.86000001    2.80999994
   17.60944557   79.77369690    0.86000001    2.80999994
   17.61194420   85.99459839    0.83999997    2.80999994
   17.61527824   81.53510284    0.81999999    2.80999994
   17.61833382   82.19539642    0.81999999    2.80999994
   17.62444496   82.19539642    0.83999997    2.80999994
   17.62861061   79.22920227    0.83999997    2.80999994
   17.63166618   76.47139740    0.83999997    2.80999994
   17.63500023   77.36350250    0.86000001    2.80999994
   17.63805580   76.30030060    0.88000000    2.82999992
   17.64138794   92.79910278    0.89999998    2.80999994
   17.64277840   79.02639771    0.89999998    2.78999996
   17.64527702   79.84709930    0.89999998    2.80999994
   17.64833260   80.91739655    0.89999998    2.78999996
   17.65166664   81.88069916    0.88000000    2.80999994
   17.65499878   75.45010376    0.86000001    2.80999994
   17.65805435   73.07340240    0.86000001    2.80999994
   17.66138840   75.57929993    0.86000001    2.80999994
   17.66722107   75.57929993    0.79000002    2.80999994
   17.67138863   78.36049652    0.76999998    2.80999994
   17.67444420   80.50340271    0.76999998    2.80999994
   17.67611122   77.52980042    0.75000000    2.80999994
   17.67833328   81.94300079    0.75000000    2.80999994
   17.68138885   83.89900208    0.75000000    2.80999994
   17.68472099   76.36979675    0.76999998    2.82999992
   17.68805504   75.51899719    0.76999998    2.80999994
   17.69111061   81.92520142    0.76999998    2.80999994
   17.69444275   74.87889862    0.76999998    2.80999994
   17.69777679   80.78430176    0.79000002    2.80999994
   17.70083427   78.56849670    0.79000002    2.80999994
   17.70416832   83.16139984    0.79000002    2.80999994
   17.71000099   83.16139984    0.80000001    2.80999994
   17.71416664   76.55879974    0.80000001    2.80999994
   17.71750069   78.43340302    0.83999997    2.78999996
   17.72055626   79.66110229    0.83999997    2.78999996
   17.72389030   76.38819885    0.88000000    2.80999994
   17.72722244   81.89559937    0.88000000    2.80999994
   17.73027802   75.69110107    0.81999999    2.80999994
   17.73361206   82.09539795    0.79000002    2.80999994
   17.73666763   78.47180176    0.76999998    2.80999994
   17.73999977   72.89700317    0.75000000    2.78999996
   17.74277878   75.92259979    0.75000000    2.82999992
   17.74361229   78.38310242    0.75000000    2.82999992
   17.74666786   75.96959686    0.73000002    2.80999994
   17.75277710   75.96959686    0.73000002    2.80999994
   17.75694466   74.66369629    0.76999998    2.80999994
   17.76027870   75.14369965    0.80000001    2.80999994
   17.76361084   91.82399750    0.80000001    2.80999994
   17.76666641   79.91690063    0.80000001    2.80999994
   17.77000046   77.27380371    0.80000001    2.80999994
   17.77305603   79.33280182    0.80000001    2.80999994
   17.77611160   76.82769775    0.81999999    2.80999994
   17.77694511   74.95739746    0.81999999    2.80999994
   17.78000069   74.26609802    0.81999999    2.80999994
   17.78333282   81.67870331    0.81999999    2.80999994
   17.78666687   73.16329956    0.81999999    2.80999994
   17.78972244   74.77559662    0.83999997    2.80999994
   17.79583359   74.77559662    0.83999997    2.80999994
   17.79999924   78.12390137    0.86000001    2.80999994
   17.80305481   77.55180359    0.86000001    2.80999994
   17.80638885   79.31300354    0.88000000    2.80999994
   17.80944443   79.57360077    0.89999998    2.80999994
   17.80999947   77.50160217    0.88000000    2.80999994
   17.81305504   77.18409729    0.86000001    2.80999994
   17.81638718   78.91899872    0.86000001    2.80999994
   17.81972313   75.27719879    0.88000000    2.80999994
   17.82277870   78.43859863    0.86000001    2.80999994
   17.82611275   82.49980164    0.86000001    2.82999992
   17.82916832   78.46569824    0.86000001    2.80999994
   17.83250046   75.63480377    0.86000001    2.80999994
   17.83861160   75.63480377    0.86000001    2.80999994
   17.84277916   84.01490021    0.86000001    2.80999994
   17.84333420   78.22989655    0.86000001    2.80999994
   17.84638977   81.77899933    0.86000001    2.78999996
   17.84972191   74.83979797    0.86000001    2.80999994
   17.85305595   79.39839935    0.92000002    2.80999994
   17.85611153   74.17420197    0.92000002    2.78999996
   17.85944557   74.19599915    0.88000000    2.82999992
   17.86277771   76.19889832    0.86000001    2.78999996
   17.86583328   75.26899719    0.86000001    2.80999994
   17.86916733   73.46369934    0.86000001    2.80999994
   17.87222290   73.69969940    0.88000000    2.78999996
   17.87555504   80.22630310    0.86000001    2.78999996
   17.87611198   75.78630066    0.86000001    2.78999996
   17.88138962   75.78630066    0.86000001    2.80999994
   17.88555527   72.56349945    0.86000001    2.80999994
   17.88888931   77.37580109    0.88000000    2.80999994
   17.89194489   79.30059814    0.86000001    2.80999994
   17.89527702   77.01399994    0.88000000    2.80999994
   17.89861107   77.31300354    0.88000000    2.80999994
   17.90166664   77.77259827    0.88000000    2.78999996
   17.90499878   79.13050079    0.86000001    2.80999994
   17.90805435   79.42179871    0.83999997    2.82999992
   17.90944481   85.75679779    0.83999997    2.82999992
   17.91194344   79.94139862    0.83999997    2.78999996
   17.91499901   74.65630341    0.83999997    2.78999996
   17.91833305   79.29199982    0.86000001    2.80999994
   17.92416573   79.29199982    0.86000001    2.78999996
   17.92833328   73.87210083    0.86000001    2.80999994
   17.93166542   83.96080017    0.81999999    2.80999994
   17.93499947   76.27719879    0.81999999    2.80999994
   17.93805504   78.33959961    0.80000001    2.80999994
   17.94138718   81.92209625    0.81999999    2.80999994
   17.94277763   74.34459686    0.80000001    2.80999994
   17.94499969   78.53720093    0.80000001    2.78999996
   17.94805527   72.31040192    0.80000001    2.80999994
   17.95138931   73.23220062    0.79000002    2.80999994
   17.95472336   79.98549652    0.79000002    2.78999996
   17.95777893   74.63999939    0.79000002    2.80999994
   17.96111107   81.98320007    0.79000002    2.78999996
   17.96722221   81.98320007    0.80000001    2.80999994
   17.97138977   73.18920135    0.80000001    2.80999994
   17.97444534   72.59919739    0.80000001    2.80999994
   17.97611237   73.65540314    0.81999999    2.80999994
   17.97805595   78.96080017    0.83999997    2.80999994
   17.98111153   75.92700195    0.86000001    2.80999994
   17.98444557   77.14140320    0.86000001    2.80999994
   17.98777771   82.53880310    0.83999997    2.78999996
   17.99083328   78.73529816    0.81999999    2.78999996
   17.99416733   79.66670227    0.80000001    2.80999994
   17.99749947   73.30789948    0.79000002    2.78999996
   18.00055504   81.07849884    0.79000002    2.78999996
   18.00388908   82.17769623    0.79000002    2.78999996
   18.01000023   82.17769623    0.76999998    2.78999996
   18.01416588   85.29570007    0.76999998    2.80999994
   18.01722145   78.96140289    0.76999998    2.80999994
   18.02055550   84.35959625    0.76999998    2.80999994
   18.02388954   80.01509857    0.79000002    2.80999994
   18.02694511   79.95320129    0.79000002    2.78999996
   18.03027725   75.21299744    0.76999998    2.78999996
   18.03361130   77.26480103    0.75000000    2.80999994
   18.03666687   80.14160156    0.75000000    2.80999994
   18.03999901   76.90409851    0.75000000    2.78999996
   18.04277802   74.62190247    0.75000000    2.80999994
   18.04361153   76.64019775    0.75000000    2.80999994
   18.04666710   80.89409637    0.76999998    2.78999996
   18.05277634   80.89409637    0.80000001    2.80999994
   18.05694389   80.48190308    0.80000001    2.80999994
   18.06027794   74.38800049    0.80000001    2.80999994
   18.06333351   76.27529907    0.80000001    2.78999996
   18.06666756   78.83489990    0.80000001    2.78999996
   18.07000160   77.34279633    0.80000001    2.78999996
   18.07305717   77.20890045    0.80000001    2.78999996
   18.07611275   76.31369781    0.80000001    2.80999994
   18.07666779   81.34960175    0.80000001    2.80999994
   18.07972336   75.93599701    0.79000002    2.80999994
   18.08305550   74.40670013    0.80000001    2.80999994
   18.08638954   78.00610352    0.80000001    2.78999996
   18.08944511   75.75949860    0.79000002    2.80999994
   18.09583473   75.75949860    0.76999998    2.78999996
   18.09972191   78.17639923    0.75000000    2.78999996
   18.10305595   75.95929718    0.75000000    2.78999996
   18.10639000   75.64060211    0.76999998    2.78999996
   18.10944557   76.03690338    0.76999998    2.76999998
   18.11000061   75.11260223    0.76999998    2.76999998
   18.11305618   76.63819885    0.76999998    2.80999994
   18.11638832   76.31179810    0.76999998    2.78999996
   18.11972237   75.69129944    0.79000002    2.78999996
   18.12277794   75.28959656    0.79000002    2.78999996
   18.12611198   75.29090118    0.79000002    2.80999994
   18.12944412   72.79720306    0.80000001    2.78999996
   18.13277817   80.13120270    0.79000002    2.78999996
   18.13861084   80.13120270    0.79000002    2.78999996
   18.14277840   82.63800049    0.79000002    2.78999996
   18.14333344   74.78800201    0.79000002    2.78999996
   18.14638901   78.13839722    0.79000002    2.78999996
   18.14972115   74.99310303    0.79000002    2.78999996
   18.15305519   78.24500275    0.80000001    2.78999996
   18.15611076   75.97480011    0.80000001    2.78999996
   18.15944481   80.39659882    0.80000001    2.80999994
   18.16250038   82.67230225    0.80000001    2.80999994
   18.16583252   76.85189819    0.80000001    2.80999994
   18.16916656   78.70230103    0.79000002    2.78999996
   18.17222214   76.72679901    0.80000001    2.78999996
   18.17555428   76.25610352    0.79000002    2.78999996
   18.17666626   77.17639923    0.79000002    2.78999996
   18.18138885   77.17639923    0.76999998    2.78999996
   18.18555450   76.48789978    0.76999998    2.78999996
   18.18861008   79.18389893    0.73000002    2.78999996
   18.19194412   74.16919708    0.73000002    2.78999996
   18.19527626   72.96330261    0.75000000    2.78999996
   18.19861031   76.11540222    0.75000000    2.78999996
   18.20166779   77.50749969    0.73000002    2.80999994
   18.20499992   76.73919678    0.75000000    2.78999996
   18.20805550   78.04669952    0.75000000    2.78999996
   18.21000099   78.47689819    0.76999998    2.80999994
   18.21166801   79.90879822    0.76999998    2.80999994
   18.21500015   74.18759918    0.76999998    2.78999996
   18.21833420   77.48040009    0.79000002    2.76999998
   18.22416687   77.48040009    0.79000002    2.78999996
   18.22833443   81.88619995    0.79000002    2.78999996
   18.23166656   76.83689880    0.79000002    2.80999994
   18.23472214   77.90670013    0.79000002    2.78999996
   18.23805618   80.97380066    0.79000002    2.76999998
   18.24138832   79.96630096    0.79000002    2.78999996
   18.24333382   76.83910370    0.79000002    2.78999996
   18.24472237   76.52619934    0.79000002    2.78999996
   18.24805641   77.14320374    0.80000001    2.76999998
   18.25138855   82.40899658    0.81999999    2.78999996
   18.25444412   80.13230133    0.79000002    2.78999996
   18.25777817   79.28250122    0.79000002    2.76999998
   18.26083374   78.60489655    0.79000002    2.78999996
   18.26694489   78.60489655    0.80000001    2.78999996
   18.27111053   77.34490204    0.80000001    2.76999998
   18.27444458   80.49829865    0.80000001    2.78999996
   18.27666664   77.33110046    0.79000002    2.78999996
   18.27805519   74.96880341    0.79000002    2.78999996
   18.28138924   74.04550171    0.80000001    2.78999996
   18.28472137   77.79060364    0.79000002    2.78999996
   18.28777695   80.07180023    0.79000002    2.78999996
   18.29111099   78.38860321    0.79000002    2.78999996
   18.29444313   84.91310120    0.81999999    2.78999996
   18.29749870   74.95719910    0.81999999    2.78999996
   18.30083275   74.83280182    0.81999999    2.78999996
   18.30388832   80.05590057    0.80000001    2.78999996
   18.30999947   80.05590057    0.79000002    2.76999998
   18.31416512   82.39189911    0.80000001    2.76999998
   18.31722260   80.49269867    0.80000001    2.78999996
   18.32055664   79.42089844    0.83999997    2.78999996
   18.32361221   80.78630066    0.81999999    2.76999998
   18.32694626   83.17590332    0.83999997    2.78999996
   18.33027840   77.65609741    0.83999997    2.78999996
   18.33333397   78.57430267    0.83999997    2.78999996
   18.33666801   79.50959778    0.83999997    2.76999998
   18.34000015   79.65730286    0.86000001    2.76999998
   18.34305573   85.82890320    0.83999997    2.76999998
   18.34500122   75.34110260    0.81999999    2.78999996
   18.34694481   76.42520142    0.81999999    2.78999996
   18.35277748   76.42520142    0.80000001    2.78999996
   18.35694504   78.76959991    0.79000002    2.78999996
   18.36000061   77.54290009    0.76999998    2.76999998
   18.36333466   81.48989868    0.75000000    2.78999996
   18.36666679   83.31809998    0.75000000    2.78999996
   18.36972237   80.00330353    0.75000000    2.76999998
   18.37305641   76.05639648    0.73000002    2.78999996
   18.37638855   85.67019653    0.73000002    2.76999998
   18.37833405   80.08280182    0.75000000    2.76999998
   18.38000107   82.02909851    0.75000000    2.76999998
   18.38305473   78.48229980    0.73000002    2.78999996
   18.38638878   76.58339691    0.75000000    2.78999996
   18.38944435   75.53589630    0.75000000    2.78999996
   18.39555550   75.53589630    0.79000002    2.76999998
   18.39972115   78.55639648    0.79000002    2.76999998
   18.40305519   75.84449768    0.79000002    2.76999998
   18.40638924   76.29429626    0.76999998    2.76999998
   18.40944481   77.10880280    0.79000002    2.76999998
   18.41194344   77.39790344    0.76999998    2.76999998
   18.41305542   80.10970306    0.76999998    2.76999998
   18.41638756   75.95159912    0.76999998    2.76999998
   18.41972160   77.24770355    0.73000002    2.76999998
   18.42277718   74.13619995    0.73000002    2.78999996
   18.42611122   76.81510162    0.70999998    2.76999998
   18.42916679   79.66999817    0.73000002    2.76999998
   18.43249893   80.49539948    0.73000002    2.76999998
   18.43833160   80.49539948    0.75000000    2.76999998
   18.44249916   81.55449677    0.75000000    2.76999998
   18.44527626   75.27510071    0.75000000    2.76999998
   18.44610977   75.12560272    0.73000002    2.75000000
   18.44944382   76.95839691    0.73000002    2.76999998
   18.45277786   85.07859802    0.75000000    2.76999998
   18.45583344   76.13770294    0.75000000    2.78999996
   18.45916748   77.61170197    0.76999998    2.78999996
   18.46222305   79.76950073    0.76999998    2.78999996
   18.46555710   76.37480164    0.79000002    2.76999998
   18.46888924   77.97619629    0.79000002    2.76999998
   18.47194481   74.39469910    0.79000002    2.76999998
   18.47527885   75.61990356    0.79000002    2.76999998
   18.48139000   75.61990356    0.79000002    2.76999998
   18.48555565   77.98120117    0.79000002    2.76999998
   18.48861122   74.98339844    0.79000002    2.76999998
   18.49194527   77.56600189    0.79000002    2.76999998
   18.49500084   82.24310303    0.79000002    2.76999998
   18.49833298   76.64119720    0.79000002    2.76999998
   18.50166702   77.00119781    0.79000002    2.76999998
   18.50472260   78.51779938    0.79000002    2.78999996
   18.50805473   77.12950134    0.76999998    2.76999998
   18.51138878   80.47219849    0.79000002    2.76999998
   18.51222229   75.34829712    0.76999998    2.76999998
   18.51499939   81.34100342    0.76999998    2.76999998
   18.51805496   74.28130341    0.75000000    2.76999998
   18.52416611   74.28130341    0.76999998    2.76999998
   18.52833366   74.50009918    0.76999998    2.76999998
   18.53166580   80.48960114    0.79000002    2.78999996
   18.53499985   77.77739716    0.80000001    2.76999998
   18.53805542   78.26119995    0.80000001    2.76999998
   18.54138756   78.67089844    0.80000001    2.76999998
   18.54444313   76.15969849    0.80000001    2.76999998
   18.54555511   77.70300293    0.80000001    2.76999998
   18.54833221   74.64029694    0.80000001    2.76999998
   18.55138779   75.23560333    0.79000002    2.76999998
   18.55472183   77.20179749    0.79000002    2.75000000
   18.55805397   79.19909668    0.76999998    2.76999998
   18.56110954   82.52619934    0.76999998    2.78999996
   18.56694603   82.52619934    0.75000000    2.76999998
   18.57111168   75.96880341    0.75000000    2.76999998
   18.57444572   79.54290009    0.75000000    2.76999998
   18.57750130   78.59480286    0.76999998    2.76999998
   18.57916832   75.81300354    0.76999998    2.76999998
   18.58111191   75.66519928    0.76999998    2.76999998
   18.58444595   75.43379974    0.76999998    2.75000000
   18.58777809   83.45410156    0.79000002    2.76999998
   18.59083366   79.92880249    0.79000002    2.75000000
   18.59416771   75.75990295    0.79000002    2.75000000
   18.59722328   77.22049713    0.79000002    2.75000000
   18.60055542   76.49849701    0.80000001    2.75000000
   18.60388947   79.84100342    0.80000001    2.75000000
   18.60972214   79.84100342    0.80000001    2.76999998
   18.62833405   73.11430359    0.81999999    2.76999998
   18.63138962   77.77940369    0.81999999    2.76999998
   18.63472176   75.69100189    0.80000001    2.76999998
   18.63805580   80.80229950    0.80000001    2.76999998
   18.64111137   76.25669861    0.79000002    2.76999998
   18.64444351   77.15850067    0.76999998    2.76999998
   18.64749908   75.01979828    0.79000002    2.75000000
   18.65305519   75.01979828    0.80000001    2.75000000
   18.65694427   79.57230377    0.81999999    2.76999998
   18.66027832   76.80740356    0.81999999    2.76999998
   18.66138840   78.18630219    0.83999997    2.76999998
   18.66388893   78.15180206    0.83999997    2.76999998
   18.66722107   76.75399780    0.83999997    2.75000000
   18.67055511   76.45950317    0.86000001    2.76999998
   18.67361069   76.43609619    0.88000000    2.76999998
   18.67694473   76.58979797    0.88000000    2.75000000
   18.68000031   78.13390350    0.89999998    2.75000000
   18.68333244   76.07969666    0.89999998    2.75000000
   18.68666649   76.22669983    0.94000000    2.75000000
   18.68972206   80.32720184    0.94000000    2.75000000
   18.69583321   80.32720184    0.94000000    2.75000000
   18.70000076   75.64710236    0.92000002    2.75000000
   18.70305634   77.22820282    0.92000002    2.76999998
   18.70639038   76.66410065    0.89999998    2.75000000
   18.70972252   77.63849640    0.89999998    2.76999998
   18.71277809   77.10279846    0.89999998    2.76999998
   18.71611214   80.45379639    0.89999998    2.75000000
   18.71916771   81.00879669    0.92000002    2.76999998
   18.72249985   76.50279999    0.92000002    2.75000000
   18.72583389   76.29049683    0.92000002    2.75000000
   18.72805595   80.17859650    0.92000002    2.75000000
   18.72916794   81.75749969    0.92000002    2.75000000
   18.73250008   78.41069794    0.92000002    2.75000000
   18.73861122   78.41069794    0.92000002    2.75000000
   18.74277878   77.71170044    0.94000000    2.75000000
   18.74611092   76.56089783    0.94000000    2.75000000
   18.74916649   79.76260376    0.95999998    2.75000000
   18.75250053   77.89450073    0.95999998    2.75000000
   18.75555611   73.68849945    0.95999998    2.75000000
   18.75888824   72.98359680    0.95999998    2.75000000
   18.76138878   75.09549713    0.98000002    2.75000000
   18.76250076   77.97579956    0.95999998    2.75000000
   18.76583290   77.52249908    0.95999998    2.75000000
   18.76916695   74.87359619    0.95999998    2.75000000
   18.77222252   77.55370331    0.95999998    2.75000000
   18.77555466   75.92990112    0.98000002    2.75000000
   18.78138924   75.92990112    0.95999998    2.75000000
   18.78555489   75.72019958    0.94000000    2.75000000
   18.78888893   80.77880096    0.94000000    2.75000000
   18.79222107   75.97470093    0.95999998    2.76999998
   18.79472160   74.49420166    0.94000000    2.75000000
   18.79555511   76.17910004    0.94000000    2.75000000
   18.79888916   76.79149628    0.94000000    2.75000000
   18.80222130   76.44840240    0.92000002    2.76999998
   18.80527687   76.70980072    0.92000002    2.75000000
   18.80861092   78.32350159    0.89999998    2.75000000
   18.81194305   78.61170197    0.89999998    2.75000000
   18.81499863   74.68589783    0.89999998    2.75000000
   18.81833458   74.99230194    0.89999998    2.75000000
   18.82444572   74.99230194    0.92000002    2.75000000
   18.82833481   76.85639954    0.92000002    2.75000000
   18.83166695   77.20040131    0.92000002    2.75000000
   18.83500099   77.54889679    0.92000002    2.76999998
   18.83805656   79.59750366    0.94000000    2.73000002
   18.84138870   78.33190155    0.94000000    2.75000000
   18.84472275   77.15920258    0.94000000    2.75000000
   18.84777832   84.32859802    0.94000000    2.75000000
   18.85111237   74.27359772    0.94000000    2.75000000
   18.85416794   81.83699799    0.94000000    2.75000000
   18.85750008   81.54579926    0.94000000    2.75000000
   18.86083412   81.52230072    0.92000002    2.75000000
   18.86138916   80.79959869    0.92000002    2.75000000
   18.86722183   80.79959869    0.92000002    2.75000000
   18.87138939   80.22450256    0.94000000    2.75000000
   18.87444496   76.78399658    0.94000000    2.75000000
   18.87777710   80.72589874    0.94000000    2.75000000
   18.88111115   80.64240265    0.95999998    2.73000002
   18.88416672   78.16970062    0.95999998    2.75000000
   18.88750076   77.00469971    0.98000002    2.75000000
   18.89083290   75.43009949    0.98000002    2.75000000
   18.89388847   77.56649780    0.98000002    2.75000000
   18.89472198   79.10620117    0.98000002    2.75000000
   18.89749908   77.81060028    0.98000002    2.75000000
   18.90083313   79.42160034    0.94000000    2.75000000
   18.90416718   76.63790131    0.92000002    2.75000000
   18.90999985   76.63790131    0.89999998    2.75000000
   18.91416550   83.86489868    0.88000000    2.75000000
   18.91749954   79.21479797    0.88000000    2.75000000
   18.92055511   90.75289917    0.88000000    2.75000000
   18.92388916   80.37319946    0.88000000    2.75000000
   18.92694473   79.56220245    0.88000000    2.75000000
   18.92805481   78.70130157    0.88000000    2.75000000
   18.93055534   79.85260010    0.88000000    2.75000000
   18.93388748   79.64640045    0.89999998    2.73000002
   18.93722153   85.63020325    0.88000000    2.75000000
   18.94027710   82.78900146    0.88000000    2.75000000
   18.94361115   80.16670227    0.88000000    2.73000002
   18.94694328   76.99700165    0.88000000    2.75000000
   18.95277786   76.99700165    0.86000001    2.73000002
   18.95694542   75.46469879    0.86000001    2.75000000
   18.96027946   77.54039764    0.86000001    2.75000000
   18.96138954   80.04550171    0.86000001    2.75000000
   18.96389008   77.22480011    0.86000001    2.75000000
   18.96694565   77.56490326    0.83999997    2.75000000
   18.97027779   76.73850250    0.86000001    2.73000002
   18.97333336   81.39550018    0.86000001    2.75000000
   18.97666740   80.38980103    0.86000001    2.75000000
   18.98000145   82.05819702    0.86000001    2.73000002
   18.98305511   81.69750214    0.86000001    2.75000000
   18.98638916   87.69470215    0.86000001    2.75000000
   18.98972321   89.54199982    0.86000001    2.75000000
   18.99583435   89.54199982    0.86000001    2.73000002
   18.99972153   89.94740295    0.88000000    2.75000000
   19.00305557   90.62640381    0.88000000    2.73000002
   19.00638962   97.05339813    0.88000000    2.73000002
   19.00944519   96.57409668    0.89999998    2.75000000
   19.01277733  139.30499268    0.89999998    2.73000002
   19.01611137  114.89399719    0.89999998    2.75000000
   19.01916695  121.91200256    0.92000002    2.75000000
   19.02249908  143.55499268    0.89999998    2.75000000
   19.02555466  182.04400635    0.92000002    2.73000002
   19.02805519  209.40199280    0.94000000    2.71000004
   19.02916718  205.11000061    0.94000000    2.73000002
   19.03249931  177.78199768    0.94000000    2.73000002
   19.03861046  177.78199768    0.98000002    2.73000002
   19.04277802   -1.00000000    0.98000002    2.73000002
   19.04583359   -1.00000000    0.98000002    2.73000002
   19.04916573   -1.00000000    0.98000002    2.73000002
   19.05249977   -1.00000000    0.98000002    2.75000000
   19.05555534   -1.00000000    0.98000002    2.75000000
   19.05888748   -1.00000000    0.98000002    2.73000002
   19.06222153   -1.00000000    0.98000002    2.73000002
   19.06555557   -1.00000000    1.00000000    2.73000002
   19.06861115   -1.00000000    0.98000002    2.73000002
   19.07194519   -1.00000000    0.98000002    2.73000002
   19.07527924   -1.00000000    0.98000002    2.73000002
   19.08555603   -1.00000000    0.98000002    2.71000004
   19.08861160   -1.00000000    0.98000002    2.73000002
   19.09194565   -1.00000000    0.98000002    2.73000002
   19.09555626   -1.00000000    0.95999998    2.75000000
   19.09889030   -1.00000000    0.95999998    2.73000002
   19.10194397   -1.00000000    0.95999998    2.73000002
   19.10527802   -1.00000000    0.95999998    2.73000002
   19.10861206   -1.00000000    0.94000000    2.73000002
   19.11166763   -1.00000000    0.94000000    2.73000002
   19.11499977   -1.00000000    0.94000000    2.73000002
   19.11833382   -1.00000000    0.94000000    2.73000002
   19.12833405   -1.00000000    0.92000002    2.73000002
   19.13166618   -1.00000000    0.92000002    2.73000002
   19.13472176   -1.00000000    0.89999998    2.73000002
   19.13805580   -1.00000000    0.89999998    2.73000002
   19.14111137   -1.00000000    0.89999998    2.73000002
   19.14444351   -1.00000000    0.89999998    2.73000002
   19.14777756   -1.00000000    0.88000000    2.71000004
   19.15083313   -1.00000000    0.86000001    2.73000002
   19.15416718   -1.00000000    0.86000001    2.73000002
   19.15722275   -1.00000000    0.86000001    2.73000002
   19.16055489   -1.00000000    0.88000000    2.71000004
   19.17111015   -1.00000000    0.88000000    2.73000002
   19.17444420   -1.00000000    0.86000001    2.71000004
   19.17749977   -1.00000000    0.86000001    2.71000004
   19.18083191   -1.00000000    0.86000001    2.71000004
   19.18416595   -1.00000000    0.88000000    2.71000004
   19.18722153   -1.00000000    0.88000000    2.71000004
   19.19055557   -1.00000000    0.88000000    2.71000004
   19.19361115   -1.00000000    0.89999998    2.75000000
   19.19722176   -1.00000000    0.89999998    2.71000004
   19.20055580   -1.00000000    0.88000000    2.71000004
   19.20361137   -1.00000000    0.88000000    2.71000004
   19.21389008   -1.00000000    0.92000002    2.71000004
   19.21722221   -1.00000000    0.92000002    2.71000004
   19.22055626   -1.00000000    0.92000002    2.71000004
   19.22361183   -1.00000000    0.92000002    2.71000004
   19.22694588   -1.00000000    0.94000000    2.71000004
   19.23027802   -1.00000000    0.94000000    2.71000004
   19.23361206   -1.00000000    0.94000000    2.73000002
   19.23666763   -1.00000000    0.95999998    2.71000004
   19.23999977   -1.00000000    0.95999998    2.73000002
   19.24333382   -1.00000000    0.98000002    2.71000004
   19.24638939   -1.00000000    0.95999998    2.71000004
   19.25694466   -1.00000000    1.00000000    2.71000004
   19.26000023   -1.00000000    1.01999998    2.71000004
   19.26361084   -1.00000000    1.01999998    2.71000004
   19.26694489   -1.00000000    1.01999998    2.69000006
   19.27027702   -1.00000000    1.01999998    2.69000006
   19.27333260   -1.00000000    1.01999998    2.71000004
   19.27666664   -1.00000000    1.01999998    2.71000004
   19.27972221   -1.00000000    1.01999998    2.69000006
   19.28305435   -1.00000000    1.01999998    2.73000002
   19.28638840   -1.00000000    1.01999998    2.71000004
   19.28944397   -1.00000000    1.01999998    2.71000004
   19.29972076   -1.00000000    1.00000000    2.71000004
   19.30305481   -1.00000000    1.00000000    2.71000004
   19.30611038   -1.00000000    0.98000002    2.71000004
   19.30944443   -1.00000000    0.98000002    2.69000006
   19.31250000   -1.00000000    0.98000002    2.71000004
   19.31583214   -1.00000000    0.98000002    2.71000004
   19.31916809   -1.00000000    0.98000002    2.69000006
   19.32222366   -1.00000000    0.98000002    2.71000004
   19.32555580   -1.00000000    0.98000002    2.71000004
   19.32888985   -1.00000000    0.98000002    2.71000004
   19.33222389   -1.00000000    0.98000002    2.71000004
   19.34250069   -1.00000000    1.00000000    2.71000004
   19.34583473   -1.00000000    1.00000000    2.71000004
   19.34889030   -1.00000000    1.00000000    2.71000004
   19.35222244   -1.00000000    1.00000000    2.71000004
   19.35555649   -1.00000000    1.00000000    2.69000006
   19.35861206   -1.00000000    1.01999998    2.71000004
   19.36222267   -1.00000000    1.03999996    2.71000004
   19.36555672   -1.00000000    1.03999996    2.69000006
   19.36888885   -1.00000000    1.03999996    2.69000006
   19.37194443   -1.00000000    1.05999994    2.69000006
   19.37527847   -1.00000000    1.05999994    2.71000004
   19.38527679   -1.00000000    1.05999994    2.69000006
   19.38861084   -1.00000000    1.05999994    2.69000006
   19.39194489   -1.00000000    1.05999994    2.69000006
   19.39527702   -1.00000000    1.07000005    2.69000006
   19.39861107   -1.00000000    1.07000005    2.69000006
   19.40166664   -1.00000000    1.07000005    2.69000006
   19.40499878   -1.00000000    1.11000001    2.71000004
   19.40833282   -1.00000000    1.11000001    2.71000004
   19.41138840   -1.00000000    1.11000001    2.69000006
   19.41472244   -1.00000000    1.11000001    2.69000006
   19.41805458   -1.00000000    1.11000001    2.69000006
   19.42833328   -1.00000000    1.11000001    2.69000006
   19.43138885   -1.00000000    1.11000001    2.69000006
   19.43472099   -1.00000000    1.11000001    2.69000006
   19.43777657   -1.00000000    1.11000001    2.69000006
   19.44111061   -1.00000000    1.11000001    2.69000006
   19.44444275   -1.00000000    1.13000000    2.69000006
   19.44749832   -1.00000000    1.13000000    2.71000004
   19.45083427   -1.00000000    1.14999998    2.69000006
   19.45416832   -1.00000000    1.13000000    2.69000006
   19.45722389   -1.00000000    1.14999998    2.69000006
   19.46055603   -1.00000000    1.14999998    2.69000006
   19.47111130   -1.00000000    1.13000000    2.69000006
   19.47416687   -1.00000000    1.13000000    2.67000008
   19.47750092   -1.00000000    1.13000000    2.69000006
   19.48083305   -1.00000000    1.13000000    2.67000008
   19.48388863   -1.00000000    1.11000001    2.69000006
   19.48722267   -1.00000000    1.13000000    2.67000008
   19.49027824   -1.00000000    1.11000001    2.67000008
   19.49361229   -1.00000000    1.13000000    2.67000008
   19.49722290   -1.00000000    1.13000000    2.69000006
   19.50055504   -1.00000000    1.13000000    2.67000008
   19.50388908   -1.00000000    1.13000000    2.67000008
   19.51388931   -1.00000000    1.14999998    2.67000008
   19.51722145   -1.00000000    1.14999998    2.67000008
   19.52027702   -1.00000000    1.14999998    2.69000006
   19.52361107   -1.00000000    1.14999998    2.67000008
   19.52694511   -1.00000000    1.16999996    2.66000009
   19.53027725   -1.00000000    1.16999996    2.67000008
   19.53361130   -1.00000000    1.16999996    2.67000008
   19.53694344   -1.00000000    1.16999996    2.67000008
   19.53999901   -1.00000000    1.16999996    2.67000008
   19.54333305   -1.00000000    1.16999996    2.67000008
   19.54638863   -1.00000000    1.16999996    2.67000008
   19.55666542   -1.00000000    1.16999996    2.67000008
   19.55999947   -1.00000000    1.16999996    2.67000008
   19.56333351   -1.00000000    1.13000000    2.67000008
   19.56666756   -1.00000000    1.13000000    2.67000008
   19.57000160   -1.00000000    1.13000000    2.67000008
   19.57305717   -1.00000000    1.11000001    2.66000009
   19.57638931   -1.00000000    1.09000003    2.67000008
   19.57944489   -1.00000000    1.07000005    2.67000008
   19.58277893   -1.00000000    1.07000005    2.66000009
   19.58611107   -1.00000000    1.07000005    2.67000008
   19.58916664   -1.00000000    1.09000003    2.69000006
   19.59944534   -1.00000000    1.11000001    2.67000008
   19.60277748   -1.00000000    1.11000001    2.67000008
   19.60611153   -1.00000000    1.11000001    2.67000008
   19.60916710   -1.00000000    1.11000001    2.67000008
   19.61250114   -1.00000000    1.13000000    2.67000008
   19.61583328   -1.00000000    1.13000000    2.67000008
   19.61888885   -1.00000000    1.13000000    2.67000008
   19.62222290   -1.00000000    1.11000001    2.67000008
   19.62527847   -1.00000000    1.13000000    2.67000008
   19.65277672   -1.00000000    1.13000000    2.67000008
   19.65583229   -1.00000000    1.14999998    2.67000008
   19.65916634   -1.00000000    1.16999996    2.66000009
   19.66250038   -1.00000000    1.14999998    2.66000009
   19.66583252   -1.00000000    1.14999998    2.67000008
   19.66916656   -1.00000000    1.16999996    2.66000009
   19.67222214   -1.00000000    1.16999996    2.67000008
   19.67555428   -1.00000000    1.16999996    2.66000009
   19.67860985   -1.00000000    1.16999996    2.66000009
   19.68194389   -1.00000000    1.16999996    2.66000009
   19.68527603   -1.00000000    1.19000006    2.67000008
   19.69527626   -1.00000000    1.21000004    2.66000009
   19.69861031   -1.00000000    1.21000004    2.66000009
   19.70194435   -1.00000000    1.19000006    2.64000010
   19.70499992   -1.00000000    1.21000004    2.66000009
   19.70833397   -1.00000000    1.21000004    2.66000009
   19.71166801   -1.00000000    1.21000004    2.66000009
   19.71472359   -1.00000000    1.21000004    2.66000009
   19.71805573   -1.00000000    1.21000004    2.66000009
   19.72138977   -1.00000000    1.21000004    2.66000009
   19.72444534   -1.00000000    1.21000004    2.66000009
   19.72777748   -1.00000000    1.21000004    2.66000009
   19.73833275   -1.00000000    1.21000004    2.66000009
   19.74138832   -1.00000000    1.21000004    2.66000009
   19.74472237   -1.00000000    1.21000004    2.64000010
   19.74805641   -1.00000000    1.21000004    2.66000009
   19.75111198   -1.00000000    1.21000004    2.66000009
   19.75444412   -1.00000000    1.23000002    2.66000009
   19.75777817   -1.00000000    1.25000000    2.66000009
   19.76083374   -1.00000000    1.25000000    2.66000009
   19.76444435   -1.00000000    1.26999998    2.64000010
   19.76777840   -1.00000000    1.26999998    2.66000009
   19.77083397   -1.00000000    1.28999996    2.66000009
   19.78111076   -1.00000000    1.28999996    2.64000010
   19.78444481   -1.00000000    1.30999994    2.64000010
   19.78750038   -1.00000000    1.30999994    2.66000009
   19.79083252   -1.00000000    1.28999996    2.66000009
   19.79388809   -1.00000000    1.28999996    2.64000010
   19.79749870   -1.00000000    1.28999996    2.66000009
   19.80083275   -1.00000000    1.28999996    2.64000010
   19.80388832   -1.00000000    1.28999996    2.64000010
   19.80722237   -1.00000000    1.30999994    2.64000010
   19.81027794   -1.00000000    1.33000004    2.64000010
   19.81361008   -1.00000000    1.30999994    2.64000010
   19.82389069   -1.00000000    1.33000004    2.64000010
   19.82722282   -1.00000000    1.33000004    2.64000010
   19.83083344   -1.00000000    1.34000003    2.64000010
   19.83416748   -1.00000000    1.34000003    2.64000010
   19.83722305   -1.00000000    1.34000003    2.64000010
   19.84055710   -1.00000000    1.36000001    2.64000010
   19.84361267   -1.00000000    1.34000003    2.64000010
   19.84694481   -1.00000000    1.34000003    2.61999989
   19.85027885   -1.00000000    1.34000003    2.61999989
   19.85333443   -1.00000000    1.34000003    2.64000010
   19.85666656   -1.00000000    1.36000001    2.64000010
   19.86666679   -1.00000000    1.38000000    2.64000010
   19.87000084   -1.00000000    1.39999998    2.61999989
   19.87361145   -1.00000000    1.38000000    2.61999989
   19.87694550   -1.00000000    1.39999998    2.61999989
   19.88000107   -1.00000000    1.39999998    2.61999989
   19.88333321   -1.00000000    1.38000000    2.64000010
   19.88638878   -1.00000000    1.38000000    2.61999989
   19.88972282   -1.00000000    1.39999998    2.61999989
   19.89305496   -1.00000000    1.38000000    2.64000010
   19.89638901   -1.00000000    1.38000000    2.64000010
   19.89972115   -1.00000000    1.38000000    2.64000010
   19.90972137   -1.00000000    1.39999998    2.61999989
   19.91277695   -1.00000000    1.39999998    2.61999989
   19.91611099   -1.00000000    1.39999998    2.61999989
   19.91944313   -1.00000000    1.39999998    2.64000010
   19.92249870   -1.00000000    1.39999998    2.61999989
   19.92583275   -1.00000000    1.41999996    2.61999989
   19.92944336   -1.00000000    1.39999998    2.61999989
   19.93277740   -1.00000000    1.41999996    2.61999989
   19.93583298   -1.00000000    1.44000006    2.61999989
   19.93916512   -1.00000000    1.44000006    2.61999989
   19.94222069   -1.00000000    1.44000006    2.61999989
   19.95250130   -1.00000000    1.44000006    2.61999989
   19.95583344   -1.00000000    1.44000006    2.61999989
   19.95888901   -1.00000000    1.46000004    2.59999990
   19.96250153   -1.00000000    1.44000006    2.61999989
   19.96583366   -1.00000000    1.46000004    2.61999989
   19.96888924   -1.00000000    1.44000006    2.61999989
   19.97222328   -1.00000000    1.46000004    2.61999989
   19.97527885   -1.00000000    1.46000004    2.59999990
   19.97861099   -1.00000000    1.44000006    2.59999990
   19.98194504   -1.00000000    1.44000006    2.59999990
   19.98500061   -1.00000000    1.44000006    2.59999990
   19.99527740   -1.00000000    1.44000006    2.59999990
   19.99861145   -1.00000000    1.44000006    2.59999990
   20.00194359   -1.00000000    1.44000006    2.59999990
   20.00527763   -1.00000000    1.44000006    2.59999990
   20.00833321   -1.00000000    1.44000006    2.59999990
   20.01166725   -1.00000000    1.41999996    2.59999990
   20.01472282   -1.00000000    1.41999996    2.59999990
   20.01805496   -1.00000000    1.41999996    2.59999990
   20.02138901   -1.00000000    1.41999996    2.59999990
   20.02444458   90.88520050    1.39999998    2.59999990
   20.02777672   88.38449860    1.39999998    2.59999990
   20.02833366   84.72799683    1.39999998    2.59999990
   20.03416634   84.72799683    1.38000000    2.61999989
   20.03833199   91.32790375    1.38000000    2.59999990
   20.04138756   85.64929962    1.38000000    2.59999990
   20.04472160   87.73629761    1.38000000    2.59999990
   20.04805565   88.38359833    1.36000001    2.59999990
   20.05111122   94.10160065    1.36000001    2.59999990
   20.05444336   86.46649933    1.36000001    2.59999990
   20.05749893   80.12229919    1.36000001    2.59999990
   20.06083298   82.97589874    1.36000001    2.59999990
   20.06166649   87.62899780    1.36000001    2.59999990
   20.06472206   86.80709839    1.36000001    2.59999990
   20.06777954   82.84570313    1.36000001    2.57999992
   20.07111168   90.48179626    1.36000001    2.59999990
   20.07694626   90.48179626    1.38000000    2.57999992
   20.08111191   84.87609863    1.36000001    2.59999990
   20.08444595   90.88330078    1.36000001    2.59999990
   20.08750153   85.00959778    1.36000001    2.57999992
   20.09083366   82.76509857    1.36000001    2.57999992
   20.09388924   85.31189728    1.36000001    2.57999992
   20.09500122   90.67400360    1.38000000    2.59999990
   20.09777832   87.96189880    1.38000000    2.57999992
   20.10083389   87.50060272    1.39999998    2.57999992
   20.10416794   87.55840302    1.39999998    2.57999992
   20.10722351   85.42929840    1.39999998    2.59999990
   20.11055565   83.89080048    1.39999998    2.59999990
   20.11388969   89.22029877    1.41999996    2.57999992
   20.11972237   89.22029877    1.44000006    2.57999992
   20.12388992   86.00679779    1.44000006    2.57999992
   20.12722206   85.56420135    1.44000006    2.57999992
   20.12833405   85.59470367    1.44000006    2.57999992
   20.13083267   77.26750183    1.48000002    2.57999992
   20.13388824   85.11209869    1.48000002    2.57999992
   20.13722229   78.55979919    1.48000002    2.57999992
   20.14027786   79.67400360    1.48000002    2.57999992
   20.14361191   80.46669769    1.50000000    2.57999992
   20.14694405   82.62400055    1.50000000    2.57999992
   20.14999962   88.58889771    1.50000000    2.57999992
   20.15333366   84.50859833    1.50000000    2.55999994
   20.15666580   83.21330261    1.51999998    2.55999994
   20.16277695   83.21330261    1.51999998    2.55999994
   20.16694450   89.21530151    1.50000000    2.55999994
   20.17000008   84.95839691    1.50000000    2.55999994
   20.17333221   94.63320160    1.50000000    2.57999992
   20.17638779   94.41880035    1.50000000    2.55999994
