    HOUR (UT)   FLARE FACTOR    SKY TESTER    SUN TESTER
   11.73638916   -1.00000000   -1.00000000   -1.00000000
   11.76222229  213.26699829    4.53999996    1.94000006
   11.76555538  184.70199585    4.53000021    1.94000006
   11.76861095  202.37600708    4.51000023    1.94000006
   11.77194405  231.88299561    4.48999977    1.94000006
   11.77527714  223.64599609    4.48999977    1.96000004
   11.77833271  212.64999390    4.48999977    1.96000004
   11.78249931  212.64999390    4.44999981    1.96000004
   11.78666687  192.71299744    4.44999981    1.96000004
   11.79000092  213.69900513    4.44999981    1.96000004
   11.79305553  220.57099915    4.42999983    1.98000002
   11.79555607  214.18499756    4.42999983    1.98000002
   11.79666710  194.69000244    4.42999983    1.98000002
   11.80000019  199.84199524    4.40999985    1.98000002
   11.80333328  187.77999878    4.40999985    1.98000002
   11.80666733  206.52999878    4.38999987    1.98000002
   11.81000042  185.57699585    4.36999989    1.98000002
   11.81305599  204.98899841    4.36999989    1.98000002
   11.81638908  186.86900330    4.34999990    2.00000000
   11.81944466  189.03599548    4.34999990    2.00000000
   11.82527733  189.03599548    4.32999992    2.00000000
   11.82944393  196.96099854    4.30999994    2.00000000
   11.83277798  180.33700562    4.30999994    2.00000000
   11.83583260  181.82899475    4.28999996    2.00000000
   11.83916664  192.59300232    4.28999996    2.01999998
   11.84249973  189.36399841    4.26999998    2.01999998
   11.84583282  189.56599426    4.26000023    2.01999998
   11.84888840  192.55200195    4.26000023    2.01999998
   11.85222244  184.23899841    4.23999977    2.01999998
   11.85527802  179.64500427    4.23999977    2.01999998
   11.85861111  166.08799744    4.21999979    2.01999998
   11.86194515  184.55200195    4.19999981    2.03999996
   11.86250019  187.31500244    4.19999981    2.03999996
   11.86833382  187.31500244    4.17999983    2.03999996
   11.87222195  166.67399597    4.15999985    2.03999996
   11.87555599  191.37500000    4.13999987    2.03999996
   11.87888908  170.33399963    4.13999987    2.03999996
   11.88194466  167.03700256    4.11999989    2.03999996
   11.88527775  179.68200684    4.11999989    2.05999994
   11.88861084  188.92199707    4.09999990    2.05999994
   11.89166641  176.21899414    4.09999990    2.05999994
   11.89499950  165.34399414    4.07999992    2.05999994
   11.89583302  191.68899536    4.07999992    2.05999994
   11.89861107  156.85600281    4.07999992    2.05999994
   11.90194416  199.30200195    4.05999994    2.05999994
   11.90499973  184.71499634    4.03999996    2.05999994
   11.91111088  184.71499634    4.01999998    2.07999992
   11.91527748  199.52900696    4.00000000    2.07999992
   11.91833401  153.56900024    3.99000001    2.07999992
   11.92166710  169.16999817    3.99000001    2.07999992
   11.92500019  196.26400757    3.97000003    2.07999992
   11.92805576  174.86700439    3.97000003    2.07999992
   11.92916679  183.83799744    3.97000003    2.07999992
   11.93166733  190.75500488    3.95000005    2.09999990
   11.93500042  175.95799255    3.95000005    2.09999990
   11.93805599  187.03999329    3.93000007    2.09999990
   11.94138908  176.84300232    3.91000009    2.09999990
   11.94472218  150.08099365    3.91000009    2.09999990
   11.94777775  167.58200073    3.91000009    2.09999990
   11.95388889  167.58200073    3.89000010    2.09999990
   11.95805550  166.01400757    3.86999989    2.09999990
   11.96138859  172.51600647    3.86999989    2.09999990
   11.96249962  166.32600403    3.84999990    2.11999989
   11.96472168  187.38900757    3.84999990    2.11999989
   11.96805477  163.66900635    3.84999990    2.11999989
   11.97138882  173.72399902    3.82999992    2.11999989
   11.97444439  206.24699402    3.82999992    2.11999989
   11.97777748  154.75100708    3.82999992    2.13000011
   11.98083305  183.02499390    3.80999994    2.11999989
   11.98416710  164.77200317    3.78999996    2.13000011
   11.98750019  154.04899597    3.78999996    2.13000011
   11.99055576  145.56100464    3.78999996    2.13000011
   11.99666691  145.56100464    3.75000000    2.13000011
   12.00083351  154.59100342    3.75000000    2.11999989
   12.00416660  157.22700500    3.75000000    2.13000011
   12.00722218  155.11599731    3.73000002    2.13000011
   12.01055527  144.28300476    3.72000003    2.13000011
   12.01388931  157.07600403    3.72000003    2.15000010
   12.01694393  169.87699890    3.70000005    2.13000011
   12.02027798  162.62300110    3.70000005    2.13000011
   12.02361107  156.62100220    3.68000007    2.13000011
   12.02666664  136.06199646    3.68000007    2.13000011
   12.02916622  157.48899841    3.66000009    2.13000011
   12.03027725  153.35200500    3.66000009    2.15000010
   12.03361130  150.42199707    3.64000010    2.13000011
   12.03944492  150.42199707    3.61999989    2.15000010
   12.04361153  143.16600037    3.59999990    2.17000008
   12.04694462  166.67500305    3.59999990    2.17000008
   12.05027771  155.54200745    3.59999990    2.17000008
   12.05333328  145.36900330    3.57999992    2.17000008
   12.05666733  152.92300415    3.57999992    2.15000010
   12.06000042  146.60899353    3.55999994    2.15000010
   12.06250000  144.38499451    3.55999994    2.17000008
   12.06333351  148.99800110    3.55999994    2.17000008
   12.06666660  144.19799805    3.53999996    2.17000008
   12.06999969  120.26100159    3.53999996    2.17000008
   12.07305527  153.89300537    3.51999998    2.17000008
   12.07638836  132.52999878    3.51999998    2.19000006
   12.08249950  132.52999878    3.50000000    2.19000006
   12.08666611  134.00100708    3.50000000    2.19000006
   12.08972168  146.05799866    3.50000000    2.19000006
   12.09305477  131.30000305    3.48000002    2.19000006
   12.09583282  135.66299438    3.48000002    2.19000006
   12.09666634  131.96899414    3.48000002    2.19000006
   12.10000038  131.23899841    3.46000004    2.19000006
   12.10333347  132.44799805    3.45000005    2.21000004
   12.10638905  139.33999634    3.46000004    2.19000006
   12.10972214  146.21000671    3.45000005    2.19000006
   12.11277771  134.36999512    3.43000007    2.21000004
   12.11611176  140.26499939    3.43000007    2.21000004
   12.11944485  131.92900085    3.43000007    2.21000004
   12.12527752  131.92900085    3.41000009    2.21000004
   12.12944412  135.48899841    3.41000009    2.21000004
   12.13277817  129.78500366    3.41000009    2.21000004
   12.13583279  147.12199402    3.39000010    2.21000004
   12.13916683  143.50900269    3.36999989    2.21000004
   12.14222240  127.45999908    3.36999989    2.21000004
   12.14555550  136.90100098    3.36999989    2.23000002
   12.14888859  133.06700134    3.36999989    2.21000004
   12.15194416  119.44200134    3.34999990    2.21000004
   12.15527725  129.96200562    3.32999992    2.23000002
   12.15861034  119.30300140    3.32999992    2.21000004
   12.16166592  128.51899719    3.32999992    2.23000002
   12.16249943  138.60200500    3.32999992    2.23000002
   12.16805553  138.60200500    3.30999994    2.23000002
   12.17222214  134.98800659    3.28999996    2.23000002
   12.17555618  135.70799255    3.28999996    2.23000002
   12.17861176  121.57199860    3.28999996    2.23000002
   12.18194485  138.50799561    3.26999998    2.25000000
   12.18527794  133.54200745    3.26999998    2.25000000
   12.18833351  118.68399811    3.25000000    2.23000002
   12.19166660  139.96699524    3.25000000    2.25000000
   12.19499969  124.38999939    3.25000000    2.25000000
   12.19583321  132.72900391    3.25000000    2.23000002
   12.19833374  128.35499573    3.25000000    2.25000000
   12.20166683  137.06599426    3.23000002    2.25000000
   12.20499992  122.76999664    3.21000004    2.25000000
   12.21083355  122.76999664    3.21000004    2.26999998
   12.21500015  124.53900146    3.20000005    2.25000000
   12.21833324  124.33999634    3.20000005    2.25000000
   12.22166634  123.54799652    3.20000005    2.25000000
   12.22472191  119.73400116    3.18000007    2.25000000
   12.22805500  124.04599762    3.18000007    2.26999998
   12.22916603  132.97000122    3.18000007    2.26999998
   12.23138809  124.30100250    3.18000007    2.26999998
   12.23472214  117.72499847    3.16000009    2.26999998
   12.23805618  122.43699646    3.14000010    2.26999998
   12.24111176  126.59799957    3.14000010    2.25000000
   12.24444485  113.91500092    3.14000010    2.26999998
   12.24777794  122.96199799    3.14000010    2.26999998
   12.25388908  122.96199799    3.11999989    2.26999998
   12.25805569  119.53399658    3.09999990    2.28999996
   12.26111126  122.53600311    3.09999990    2.26999998
   12.26249981  118.75900269    3.09999990    2.28999996
   12.26472187  133.38999939    3.07999992    2.28999996
   12.26805496  110.61699677    3.07999992    2.28999996
   12.27138901  113.15499878    3.05999994    2.28999996
   12.27444458  122.23799896    3.05999994    2.28999996
   12.27777767  120.77100372    3.05999994    2.28999996
   12.28111076  117.31300354    3.03999996    2.28999996
   12.28416729  110.89800262    3.03999996    2.28999996
   12.28750038  135.26699829    3.01999998    2.28999996
   12.29055595  123.27400208    3.01999998    2.28999996
   12.29666710  123.27400208    3.00000000    2.30999994
   12.30083370  115.16100311    3.00000000    2.30999994
   12.30388927  120.94499969    2.98000002    2.30999994
   12.30722237  114.05400085    3.00000000    2.30999994
   12.31055546  127.77300262    2.98000002    2.30999994
   12.31361103  127.90899658    2.98000002    2.30999994
   12.31694412  112.84899902    2.96000004    2.30999994
   12.32027817  138.98599243    2.94000006    2.30999994
   12.32333374  118.29000092    2.94000006    2.30999994
   12.32666683  121.54499817    2.93000007    2.30999994
   12.32916641  113.51200104    2.93000007    2.32999992
   12.32999992  126.65200043    2.93000007    2.30999994
   12.33333302  125.79499817    2.93000007    2.30999994
   12.33944416  125.79499817    2.91000009    2.30999994
   12.34361076  119.51300049    2.89000010    2.30999994
   12.34694386  122.95899963    2.89000010    2.30999994
   12.35000038  126.34400177    2.86999989    2.30999994
   12.35333347  121.04599762    2.86999989    2.32999992
   12.35666752  118.56500244    2.86999989    2.32999992
   12.35972214  133.11599731    2.84999990    2.32999992
   12.36250019  118.04799652    2.84999990    2.32999992
   12.36333370  120.58499908    2.84999990    2.32999992
   12.36666679  131.30099487    2.82999992    2.32999992
   12.36999989  112.71900177    2.82999992    2.32999992
   12.37305546  117.15799713    2.82999992    2.32999992
   12.37638855  116.06199646    2.82999992    2.32999992
   12.38222218  116.06199646    2.82999992    2.32999992
   12.38638878  107.81500244    2.82999992    2.34999990
   12.38972187  128.54800415    2.82999992    2.34999990
   12.39305496  119.01100159    2.82999992    2.34999990
   12.39583302  108.98100281    2.80999994    2.34999990
   12.39638901  111.60600281    2.80999994    2.34999990
   12.39972210  119.81999969    2.80999994    2.34999990
   12.40305519  113.77200317    2.80999994    2.34999990
   12.40611076  111.47799683    2.80999994    2.34999990
   12.40944386  124.46399689    2.80999994    2.34999990
   12.41277695  110.04499817    2.80999994    2.34999990
   12.41583252  125.83899689    2.80999994    2.34999990
   12.41916656  117.55899811    2.78999996    2.36999989
   12.42527771  117.55899811    2.78999996    2.34999990
   12.42944431  107.37599945    2.78999996    2.36999989
   12.43249989  121.88600159    2.78999996    2.36999989
   12.43583298  105.72399902    2.78999996    2.36999989
   12.43888855  114.73500061    2.76999998    2.34999990
   12.44222260  118.94100189    2.76999998    2.34999990
   12.44555569  115.97000122    2.76999998    2.36999989
   12.44888878  113.13400269    2.76999998    2.34999990
   12.45194435  118.62599945    2.76999998    2.34999990
   12.45527744  120.34999847    2.76999998    2.36999989
   12.45833302  116.46700287    2.76999998    2.36999989
   12.46166611  119.45800018    2.75000000    2.36999989
   12.46249962  111.11900330    2.75000000    2.36999989
   12.46805477  111.11900330    2.75000000    2.36999989
   12.47222137  120.80100250    2.73000002    2.36999989
   12.47527695  114.69899750    2.73000002    2.36999989
   12.47861099  112.95899963    2.73000002    2.36999989
   12.48194408  107.58300018    2.73000002    2.36999989
   12.48500061  112.60199738    2.73000002    2.39000010
   12.48833370  114.63899994    2.71000004    2.36999989
   12.49166679  116.08799744    2.71000004    2.36999989
   12.49472237  115.91300201    2.71000004    2.39000010
   12.49583340  110.41400146    2.71000004    2.39000010
   12.49861145  106.38099670    2.69000006    2.36999989
   12.50166702  114.36100006    2.69000006    2.39000010
   12.50500011  114.20999908    2.69000006    2.36999989
   12.51083374  114.20999908    2.67000008    2.39000010
   12.51500034  104.38300323    2.67000008    2.39000010
   12.51833344  101.65499878    2.67000008    2.39000010
   12.52138901  112.63999939    2.66000009    2.40000010
   12.52472210  110.41999817    2.67000008    2.39000010
   12.52805519  102.35600281    2.66000009    2.39000010
   12.52916622  108.90899658    2.66000009    2.39000010
   12.53166676  106.41600037    2.66000009    2.39000010
   12.53472233  103.06900024    2.66000009    2.39000010
   12.53805637  107.11299896    2.66000009    2.39000010
   12.54111195  110.11699677    2.64000010    2.40000010
   12.54444504  104.36599731    2.64000010    2.39000010
   12.54777813  116.59600067    2.64000010    2.39000010
   12.55361176  116.59600067    2.64000010    2.40000010
   12.55777836  107.25599670    2.61999989    2.40000010
   12.56111145  111.50900269    2.64000010    2.39000010
   12.56250000  102.22200012    2.61999989    2.39000010
   12.56472206  105.63600159    2.61999989    2.40000010
   12.56777763  107.14600372    2.61999989    2.39000010
   12.57111073  106.29000092    2.61999989    2.40000010
   12.57416630  100.61599731    2.61999989    2.40000010
   12.57750034  118.44200134    2.61999989    2.40000010
   12.58083344  111.77799988    2.61999989    2.39000010
   12.58388901  104.27300262    2.61999989    2.40000010
   12.58722210  111.26699829    2.61999989    2.40000010
   12.59055519  108.62599945    2.61999989    2.40000010
   12.59666634  108.62599945    2.59999990    2.40000010
   12.60083389  114.06999969    2.59999990    2.42000008
   12.60388947  119.59100342    2.59999990    2.40000010
   12.60722256  108.74500275    2.59999990    2.42000008
   12.61027813  118.22599792    2.59999990    2.40000010
   12.61361122  112.30100250    2.57999992    2.40000010
   12.61694431  116.51599884    2.57999992    2.42000008
   12.61999989   99.82830048    2.57999992    2.40000010
   12.62333393  110.57900238    2.57999992    2.42000008
   12.62666702  109.18599701    2.57999992    2.42000008
   12.62916660  113.80200195    2.55999994    2.42000008
   12.63027763  114.17199707    2.55999994    2.42000008
   12.63333321  105.20999908    2.55999994    2.40000010
   12.63944435  105.20999908    2.55999994    2.42000008
   12.64361095  100.45200348    2.53999996    2.42000008
   12.64666653  125.41400146    2.53999996    2.40000010
   12.64999962  102.02999878    2.53999996    2.42000008
   12.65333271  106.41500092    2.55999994    2.42000008
   12.65638828  107.49299622    2.53999996    2.42000008
   12.65972137  113.56600189    2.51999998    2.42000008
   12.66249943  103.17099762    2.53999996    2.42000008
   12.66333294  104.33200073    2.53999996    2.42000008
   12.66638851  100.12000275    2.51999998    2.44000006
   12.66972256  118.65200043    2.51999998    2.44000006
   12.67277813  117.98000336    2.51999998    2.44000006
   12.67611122  107.72499847    2.51999998    2.44000006
   12.68222237  107.72499847    2.50000000    2.42000008
   12.68638897  109.94200134    2.51999998    2.42000008
   12.68972206  111.84799957    2.51999998    2.44000006
   12.69277763  111.98600006    2.50000000    2.42000008
   12.69583321  109.34500122    2.50000000    2.44000006
   12.69666672  113.56300354    2.50000000    2.44000006
   12.69972229  124.68199921    2.50000000    2.42000008
   12.70305538  106.76799774    2.50000000    2.44000006
   12.70611095  106.78700256    2.50000000    2.42000008
   12.70944405  120.41000366    2.50000000    2.44000006
   12.71277714  121.32399750    2.48000002    2.44000006
   12.71583271  124.41400146    2.48000002    2.44000006
   12.71916580  127.26399994    2.48000002    2.42000008
   12.72499943  127.26399994    2.46000004    2.44000006
   12.72916603  110.44100189    2.46000004    2.46000004
   12.73249912  101.43099976    2.46000004    2.42000008
   12.73583317  118.25800323    2.46000004    2.44000006
   12.73888874  121.18699646    2.48000002    2.44000006
   12.74222279  105.73799896    2.48000002    2.44000006
   12.74527836  112.65799713    2.46000004    2.46000004
   12.74861145  107.88600159    2.46000004    2.46000004
   12.75194454  112.14199829    2.46000004    2.46000004
   12.75500011  118.42400360    2.42000008    2.46000004
   12.75833321  108.71700287    2.42000008    2.44000006
   12.76166630  115.32800293    2.42000008    2.46000004
   12.76249981  114.77100372    2.40000010    2.46000004
   12.78305531  114.77100372    2.36999989    2.46000004
   12.78722286  102.18900299    2.36999989    2.46000004
   12.79055595  108.24099731    2.36999989    2.46000004
   12.79388905  102.34200287    2.36999989    2.46000004
   12.79583359  107.86299896    2.34999990    2.46000004
   12.79750061  115.80200195    2.34999990    2.46000004
   12.80055618  114.45600128    2.34999990    2.46000004
   12.80388927   94.39170074    2.34999990    2.46000004
   12.80722237  124.37300110    2.34999990    2.46000004
   12.81027794  104.76699829    2.34999990    2.48000002
   12.81361103  106.76399994    2.34999990    2.48000002
   12.81666660   98.01719666    2.34999990    2.48000002
   12.81999969  102.55599976    2.34999990    2.46000004
   12.82583332  102.55599976    2.32999992    2.46000004
   12.82999992  106.91100311    2.32999992    2.48000002
   12.83333302   99.13069916    2.32999992    2.48000002
   12.83666611  114.45700073    2.32999992    2.46000004
   12.83972168  105.88700104    2.32999992    2.48000002
   12.84305477  130.03100586    2.32999992    2.48000002
   12.84611034  116.13600159    2.32999992    2.48000002
   12.84944439  133.60099792    2.30999994    2.48000002
   12.85277843  129.33500671    2.30999994    2.48000002
   12.85583401  120.68399811    2.30999994    2.48000002
   12.85916710  115.59300232    2.30999994    2.48000002
   12.86250019  113.58000183    2.30999994    2.48000002
   12.86277771  109.36100006    2.30999994    2.48000002
   12.86888885  109.36100006    2.28999996    2.48000002
   12.87305546  116.04499817    2.28999996    2.50000000
   12.87611103  113.58599854    2.28999996    2.48000002
   12.87944412   99.57409668    2.28999996    2.48000002
   12.88249969  101.06300354    2.28999996    2.50000000
   12.88583279  119.82700348    2.26999998    2.48000002
   12.88916683  111.40000153    2.26999998    2.48000002
   12.89222240   91.24629974    2.25000000    2.48000002
   12.89555550  106.63300323    2.25000000    2.48000002
   12.89611053   94.02439880    2.25000000    2.48000002
   12.89916611   90.49569702    2.25000000    2.48000002
   12.90249920  110.03800201    2.25000000    2.50000000
   12.90555477   92.34459686    2.25000000    2.50000000
   12.91166592   92.34459686    2.23000002    2.50000000
   12.91583252   99.65390015    2.23000002    2.48000002
   12.91888905   98.29769897    2.23000002    2.48000002
   12.92222214  107.24700165    2.21000004    2.48000002
   12.92555618   97.98840332    2.23000002    2.50000000
   12.92861176   93.49890137    2.21000004    2.48000002
   12.92944431   95.92150116    2.23000002    2.50000000
   12.93222237   96.30030060    2.21000004    2.50000000
   12.93555546  112.68399811    2.21000004    2.50000000
   12.93861103  110.01799774    2.21000004    2.50000000
   12.94194412  100.26200104    2.21000004    2.50000000
   12.94527817   97.71589661    2.21000004    2.51999998
   12.94833374  111.54599762    2.21000004    2.50000000
   12.95444393  111.54599762    2.19000006    2.50000000
   12.95861053  102.32800293    2.19000006    2.50000000
   12.96194458  110.01799774    2.19000006    2.51999998
   12.96277714  109.53600311    2.19000006    2.51999998
   12.96555519  118.30200195    2.19000006    2.50000000
   12.96888828  110.79000092    2.19000006    2.50000000
   12.97194386  105.83000183    2.17000008    2.50000000
   12.97527695   99.26599884    2.19000006    2.50000000
   12.97861099  101.67500305    2.17000008    2.50000000
   12.98166656   99.23179626    2.17000008    2.51999998
   12.98500061  107.43399811    2.15000010    2.50000000
   12.98805618  103.63999939    2.15000010    2.50000000
   12.99138927  114.49900055    2.15000010    2.51999998
   12.99722290  114.49900055    2.15000010    2.51999998
   13.00138855  108.82499695    2.15000010    2.50000000
   13.00472260  103.80999756    2.13000011    2.51999998
   13.00805569  120.14099884    2.13000011    2.51999998
   13.01111126   99.59850311    2.13000011    2.51999998
   13.01444435  107.00000000    2.13000011    2.51999998
   13.01749992  101.04399872    2.13000011    2.51999998
   13.02083302  106.08799744    2.11999989    2.51999998
   13.02416611  112.95099640    2.11999989    2.51999998
   13.02722168   98.78990173    2.11999989    2.51999998
   13.02944374  121.24900055    2.11999989    2.51999998
   13.03083324  100.57599640    2.11999989    2.51999998
   13.03416729  113.44499969    2.11999989    2.53999996
   13.04027843  113.44499969    2.09999990    2.51999998
   13.04416752  115.46900177    2.09999990    2.51999998
   13.04750061  109.24700165    2.09999990    2.51999998
   13.05083370   93.93080139    2.07999992    2.51999998
   13.05388927  113.72799683    2.07999992    2.53999996
   13.05722237  106.80999756    2.07999992    2.53999996
   13.06055546  118.58000183    2.07999992    2.53999996
   13.06277752  103.09100342    2.07999992    2.53999996
   13.06388950  106.54299927    2.07999992    2.51999998
   13.06722260  100.94300079    2.05999994    2.51999998
   13.07027817  111.43699646    2.05999994    2.53999996
   13.07361126  107.21399689    2.05999994    2.51999998
   13.07694435  100.29699707    2.05999994    2.55999994
   13.08305550  100.29699707    2.05999994    2.53999996
   13.08722210  103.02500153    2.05999994    2.53999996
   13.09027767  109.61000061    2.05999994    2.53999996
   13.09361076  101.45999908    2.03999996    2.53999996
   13.09638882  108.49400330    2.03999996    2.53999996
   13.09722233  121.64600372    2.03999996    2.53999996
   13.10055637  105.18099976    2.03999996    2.53999996
   13.10361195  118.79499817    2.03999996    2.53999996
   13.10694504  101.38899994    2.03999996    2.53999996
   13.11027813  120.84100342    2.03999996    2.53999996
   13.11333370  118.65699768    2.03999996    2.53999996
   13.11666679  120.77799988    2.03999996    2.53999996
   13.11999989  127.58100128    2.03999996    2.53999996
   13.12583351  127.58100128    2.03999996    2.53999996
   13.13000011   93.10810089    2.01999998    2.53999996
   13.13333321  126.64099884    2.01999998    2.55999994
   13.13638878  124.48200226    2.00000000    2.53999996
   13.13972187  128.02000427    2.01999998    2.55999994
   13.14277744  117.04100037    2.01999998    2.55999994
   13.14611053  123.05500031    2.00000000    2.53999996
   13.14944458  117.66999817    2.00000000    2.57999992
   13.15249920  120.36199951    1.98000002    2.55999994
   13.15583324  108.84700012    2.00000000    2.53999996
   13.15888882  116.34899902    2.00000000    2.55999994
   13.16222191  114.13999939    2.00000000    2.55999994
   13.16305542  112.94100189    2.00000000    2.55999994
   13.16861153  112.94100189    2.00000000    2.55999994
   13.17277813  111.28600311    2.00000000    2.55999994
   13.17611122  125.29799652    2.00000000    2.55999994
   13.17916679  117.98699951    1.98000002    2.55999994
   13.18249989  118.06700134    2.00000000    2.55999994
   13.18583298  113.00299835    1.98000002    2.55999994
   13.18888855  122.80000305    1.98000002    2.55999994
   13.19222260  124.98300171    1.98000002    2.55999994
   13.19527817  122.01200104    2.00000000    2.55999994
   13.19638920  117.97000122    1.98000002    2.55999994
   13.19888878  132.81900024    1.98000002    2.55999994
   13.20222187  120.40399933    1.98000002    2.55999994
   13.20555496  126.51100159    1.98000002    2.55999994
   13.21166611  126.51100159    1.98000002    2.55999994
   13.21555519  108.56600189    1.98000002    2.57999992
   13.21888828  131.28700256    1.96000004    2.53999996
   13.22222137  136.13200378    1.96000004    2.55999994
   13.22527695  119.15699768    1.96000004    2.55999994
   13.22861099  133.88800049    1.96000004    2.55999994
   13.22972202  139.61399841    1.96000004    2.55999994
   13.23222160  111.81700134    1.96000004    2.55999994
   13.23555565  118.51399994    1.96000004    2.55999994
   13.23861122  129.67999268    1.96000004    2.55999994
   13.24194431  127.98999786    1.96000004    2.55999994
   13.24527836  131.88600159    1.96000004    2.55999994
   13.24833393  112.55300140    1.94000006    2.55999994
   13.25444412  112.55300140    1.94000006    2.55999994
   13.25861073  131.55900574    1.94000006    2.55999994
   13.26166630  132.61000061    1.94000006    2.59999990
   13.26305580  124.77100372    1.94000006    2.57999992
   13.26555538  130.72300720    1.94000006    2.57999992
   13.26861095  130.03500366    1.94000006    2.59999990
   13.27194405  134.84199524    1.94000006    2.55999994
   13.27527714  124.76499939    1.91999996    2.55999994
   13.27861118  131.61199951    1.91999996    2.57999992
   13.28194427  116.89299774    1.91999996    2.57999992
   13.28500080  119.26399994    1.91999996    2.57999992
   13.28833389  122.41699982    1.91999996    2.57999992
   13.29138947  134.46600342    1.89999998    2.57999992
   13.29722309  134.46600342    1.89999998    2.59999990
   13.30138874  130.41900635    1.89999998    2.57999992
   13.30444431  133.97099304    1.89999998    2.57999992
   13.30777836  128.66799927    1.89999998    2.57999992
   13.31111145  125.89399719    1.89999998    2.57999992
   13.31416702  133.03799438    1.89999998    2.57999992
   13.31750011  143.10499573    1.89999998    2.57999992
   13.32083321  128.57299805    1.88000000    2.57999992
   13.32388878  125.30300140    1.88000000    2.57999992
   13.32722187  123.83599854    1.89999998    2.59999990
   13.32972240  123.55100250    1.88000000    2.59999990
   13.33083344  133.64100647    1.88000000    2.59999990
   13.33416653  142.37600708    1.88000000    2.57999992
   13.34000015  142.37600708    1.88000000    2.57999992
   13.34416676  128.57800293    1.88000000    2.59999990
   13.34749985  124.08999634    1.88000000    2.57999992
   13.35055637  107.48500061    1.88000000    2.59999990
   13.35388947  133.89300537    1.86000001    2.59999990
   13.35722256  124.38999939    1.86000001    2.59999990
   13.36027813  128.25700378    1.86000001    2.57999992
   13.36305618  130.83700562    1.88000000    2.57999992
   13.36388969  122.60500336    1.86000001    2.57999992
   13.36722279  143.76899719    1.88000000    2.59999990
   13.37055588  138.84300232    1.86000001    2.57999992
   13.37361145  141.34599304    1.86000001    2.59999990
   13.37694454  130.10699463    1.86000001    2.59999990
   13.38305569  130.10699463    1.86000001    2.59999990
   13.38694477  126.22399902    1.86000001    2.59999990
   13.39027786  121.72200012    1.86000001    2.59999990
   13.39361095  135.91200256    1.86000001    2.59999990
   13.39638901  144.67100525    1.86000001    2.59999990
   13.39694405  134.78799438    1.86000001    2.59999990
   13.40027714  148.33799744    1.86000001    2.59999990
   13.40333271  138.18699646    1.86000001    2.59999990
   13.40666676  144.02999878    1.86000001    2.59999990
   13.40999985  137.72700500    1.85000002    2.59999990
   13.41305542  143.96899414    1.85000002    2.59999990
   13.41638851  128.57800293    1.86000001    2.59999990
   13.41972256  139.71099854    1.85000002    2.59999990
   13.42583370  139.71099854    1.83000004    2.59999990
   13.43000031  139.68400574    1.83000004    2.59999990
   13.43305588  128.14500427    1.83000004    2.61999989
   13.43638897  160.83299255    1.83000004    2.61999989
   13.43944454  119.19499969    1.83000004    2.59999990
   13.44277763  128.32899475    1.83000004    2.59999990
   13.44611073  128.46600342    1.83000004    2.59999990
   13.44916630  136.60200500    1.80999994    2.59999990
   13.45249939  127.41799927    1.80999994    2.59999990
   13.45583344  142.46499634    1.80999994    2.61999989
   13.45888901  120.72799683    1.80999994    2.61999989
   13.46222210  131.55099487    1.80999994    2.61999989
   13.46305561  115.82399750    1.80999994    2.59999990
   13.46861076  115.82399750    1.78999996    2.59999990
   13.47277737  139.39999390    1.80999994    2.61999989
   13.47583294  141.83999634    1.78999996    2.59999990
   13.47916603  126.49700165    1.80999994    2.61999989
   13.48249912  130.73899841    1.78999996    2.61999989
   13.48555565  128.61999512    1.78999996    2.59999990
   13.48888874  134.97799683    1.78999996    2.59999990
   13.49222279  130.67399597    1.80999994    2.61999989
   13.49527836  125.55200195    1.78999996    2.59999990
   13.49638939  143.30499268    1.78999996    2.61999989
   13.49888897  142.93200684    1.78999996    2.59999990
   13.50222206  140.83900452    1.78999996    2.61999989
   13.50555515  120.48799896    1.78999996    2.61999989
   13.51138878  120.48799896    1.78999996    2.61999989
   13.51555538  134.73800659    1.78999996    2.61999989
   13.51888847  130.54499817    1.78999996    2.61999989
   13.52194405  131.35299683    1.78999996    2.61999989
   13.52527714  136.02699280    1.78999996    2.61999989
   13.52861118  126.68000031    1.78999996    2.64000010
   13.52972221  133.45399475    1.78999996    2.64000010
   13.53194427  138.35899353    1.76999998    2.61999989
   13.53527832  132.85400391    1.76999998    2.61999989
   13.53861141  135.93499756    1.78999996    2.61999989
   13.54166698  123.22100067    1.78999996    2.61999989
   13.54500008  136.87500000    1.78999996    2.61999989
   13.54805565  125.73500061    1.78999996    2.61999989
   13.55444431  125.73500061    1.76999998    2.64000010
   13.55833340  119.59200287    1.75000000    2.61999989
   13.56166649  128.05999756    1.76999998    2.61999989
   13.56305599  145.31599426    1.76999998    2.61999989
   13.56527805  126.00299835    1.76999998    2.61999989
   13.56861115  124.27400208    1.76999998    2.61999989
   13.57194424  118.17700195    1.75000000    2.61999989
   13.57499981  140.01499939    1.76999998    2.61999989
   13.57833290  120.04599762    1.76999998    2.61999989
   13.58166695  133.10200500    1.76999998    2.64000010
   13.58472157  137.81399536    1.75000000    2.61999989
   13.58805561  142.85200500    1.75000000    2.61999989
   13.59111118  135.14100647    1.75000000    2.61999989
   13.59722233  135.14100647    1.76999998    2.61999989
   13.60138893  133.18400574    1.76999998    2.61999989
   13.60444450  130.30400085    1.75000000    2.61999989
   13.60777855  134.72900391    1.75000000    2.64000010
   13.61083412  135.24299622    1.75000000    2.61999989
   13.61416721  119.28600311    1.75000000    2.61999989
   13.61750031  136.44700623    1.75000000    2.61999989
   13.62055588  113.66100311    1.75000000    2.64000010
   13.62388897  118.71299744    1.75000000    2.61999989
   13.62722206  128.33799744    1.75000000    2.64000010
   13.62972260  119.54100037    1.75000000    2.61999989
   13.63055611  127.82900238    1.75000000    2.61999989
   13.63388920  131.26100159    1.73000002    2.61999989
   13.64000034  131.26100159    1.73000002    2.64000010
   13.64416695  132.59100342    1.71000004    2.64000010
   13.64722252  123.11399841    1.71000004    2.61999989
   13.65055561  122.53399658    1.71000004    2.64000010
   13.65388870  143.72999573    1.71000004    2.64000010
   13.65694427  127.49199677    1.71000004    2.64000010
   13.66027737  123.95800018    1.69000006    2.61999989
   13.66305542  128.36099243    1.69000006    2.61999989
   13.66416645  138.20899963    1.69000006    2.61999989
   13.66722298  112.16600037    1.69000006    2.61999989
   13.67055607  122.07700348    1.69000006    2.61999989
   13.67361164  118.33999634    1.66999996    2.64000010
   13.67722225  126.12500000    1.66999996    2.64000010
   13.68277836  126.12500000    1.66999996    2.64000010
   13.68694496  133.25000000    1.69000006    2.64000010
   13.69027805  121.59799957    1.69000006    2.64000010
   13.69333363  120.64600372    1.66999996    2.64000010
   13.69638920  135.94599915    1.69000006    2.64000010
   13.69694424  126.70500183    1.69000006    2.64000010
   13.70027733  129.11799622    1.66999996    2.66000009
   13.70361137  128.36300659    1.66999996    2.64000010
   13.70666695  123.25399780    1.66999996    2.64000010
   13.71000004  130.68099976    1.64999998    2.64000010
   13.71333313  143.53999329    1.64999998    2.64000010
   13.71638870  138.77600098    1.64999998    2.64000010
   13.71972179  127.67400360    1.64999998    2.64000010
   13.72555542  127.67400360    1.64999998    2.64000010
   13.72972202  131.80000305    1.64999998    2.64000010
   13.73305511  139.52499390    1.64999998    2.64000010
   13.73638916  141.52600098    1.64999998    2.64000010
   13.73944473  132.15400696    1.63000000    2.64000010
   13.74277782  130.71400452    1.63000000    2.66000009
   13.74583340  136.72000122    1.61000001    2.64000010
   13.74916649  113.44799805    1.61000001    2.64000010
   13.75249958  127.34100342    1.61000001    2.64000010
   13.75555515  134.02099609    1.61000001    2.64000010
   13.75888920  128.26100159    1.61000001    2.66000009
   13.76222229  122.13800049    1.60000002    2.64000010
   13.76305580  120.87899780    1.60000002    2.64000010
   13.76861095  120.87899780    1.60000002    2.66000009
   13.77277756  132.41299438    1.60000002    2.66000009
   13.77583313  127.89199829    1.60000002    2.64000010
   13.77916622  112.51599884    1.58000004    2.66000009
   13.79666710  128.72900391    1.60000002    2.64000010
   13.79916668  135.50100708    1.58000004    2.64000010
   13.80222225  121.56700134    1.58000004    2.64000010
   13.80555534  129.70199585    1.58000004    2.66000009
   13.81166649  129.70199585    1.58000004    2.66000009
   13.81555557  124.54900360    1.60000002    2.64000010
   13.81888866  130.06199646    1.58000004    2.66000009
   13.82222176  123.76999664    1.58000004    2.66000009
   13.82527733  137.37500000    1.58000004    2.66000009
   13.82861137  138.67700195    1.58000004    2.66000009
   13.82999992  137.82099915    1.58000004    2.66000009
   13.83222198  142.00300598    1.58000004    2.66000009
   13.83555508  122.66400146    1.58000004    2.66000009
   13.83888817  134.25700378    1.55999994    2.66000009
   13.84194374  135.30400085    1.58000004    2.64000010
   13.84527779  141.10600281    1.55999994    2.66000009
   13.84861088  148.73899841    1.55999994    2.67000008
   13.85444450  148.73899841    1.55999994    2.66000009
   13.85861111  127.51399994    1.55999994    2.66000009
   13.86166668  136.49000549    1.55999994    2.66000009
   13.86333370  116.40799713    1.55999994    2.66000009
   13.86555576  147.58999634    1.55999994    2.66000009
   13.86861134  124.01399994    1.55999994    2.66000009
   13.87194443  137.07800293    1.53999996    2.67000008
   13.87500000  123.09600067    1.55999994    2.66000009
   13.87833309  146.15400696    1.55999994    2.66000009
   13.88166714  114.40100098    1.53999996    2.66000009
   13.88472176  129.73100281    1.53999996    2.66000009
   13.88805580  116.07099915    1.55999994    2.67000008
   13.89138889  114.52100372    1.53999996    2.66000009
   13.89722252  114.52100372    1.53999996    2.66000009
   13.90138817  138.15499878    1.53999996    2.66000009
   13.90472221  133.10699463    1.53999996    2.66000009
   13.90777779  132.05700684    1.53999996    2.67000008
   13.91111088  140.71800232    1.55999994    2.66000009
   13.91444397  117.33499908    1.53999996    2.66000009
   13.91750050  123.24500275    1.53999996    2.66000009
   13.92083359  117.12100220    1.53999996    2.66000009
   13.92388916  125.08899689    1.53999996    2.67000008
   13.92722225  123.74400330    1.53999996    2.67000008
   13.93000031  115.78700256    1.51999998    2.66000009
   13.93111134  126.58699799    1.51999998    2.66000009
   13.93416691  126.94599915    1.51999998    2.67000008
   13.94000053  126.94599915    1.51999998    2.67000008
   13.94416714  120.59600067    1.51999998    2.67000008
   13.94750023  121.59999847    1.50000000    2.67000008
   13.95055580  135.60200500    1.50000000    2.66000009
   13.95388889  129.58000183    1.50000000    2.67000008
   13.95722198  122.73300171    1.50000000    2.67000008
   13.96027756  123.63099670    1.50000000    2.67000008
   13.96333313  123.85900116    1.50000000    2.67000008
   13.96416664  122.83599854    1.50000000    2.69000006
   13.96722221  125.18299866    1.48000002    2.67000008
   13.97055531  123.33300018    1.48000002    2.67000008
   13.97361088  124.75000000    1.48000002    2.66000009
   13.97694397  117.42600250    1.48000002    2.67000008
   13.98305511  117.42600250    1.48000002    2.66000009
   13.98694515  112.03099823    1.48000002    2.67000008
   13.99027824  122.28600311    1.48000002    2.67000008
   13.99361134  120.67900085    1.48000002    2.67000008
   13.99666691  112.97899628    1.46000004    2.67000008
   13.99722290  108.01399994    1.46000004    2.67000008
   14.00027752  131.16299438    1.46000004    2.67000008
   14.00361156  121.38899994    1.46000004    2.67000008
   14.00666714  115.64800262    1.46000004    2.67000008
   14.01000023  118.10299683    1.46000004    2.67000008
   14.01333332  115.20500183    1.46000004    2.67000008
   14.01638889  120.02400208    1.46000004    2.67000008
   14.01972198  119.83399963    1.46000004    2.67000008
   14.02583313  119.83399963    1.46000004    2.67000008
   14.02999973  122.46399689    1.46000004    2.67000008
   14.03055573  119.75900269    1.46000004    2.67000008
   14.03361130  118.47000122    1.46000004    2.67000008
   14.03694534  111.18399811    1.46000004    2.67000008
   14.04027843  119.37400055    1.46000004    2.67000008
   14.04333401  118.32399750    1.46000004    2.67000008
   14.04666710  123.52600098    1.44000006    2.67000008
   14.04972267  119.14700317    1.46000004    2.67000008
   14.05305576  124.86799622    1.44000006    2.67000008
   14.05638885  126.61599731    1.44000006    2.67000008
   14.05944443  134.33799744    1.44000006    2.69000006
   14.06277752  125.30599976    1.44000006    2.67000008
   14.06333351  122.17199707    1.44000006    2.67000008
   14.06861115  122.17199707    1.44000006    2.67000008
   14.07277775  125.54000092    1.44000006    2.67000008
   14.07583332  131.71899414    1.44000006    2.67000008
   14.07916641  126.51300049    1.44000006    2.67000008
   14.08249950  120.22100067    1.44000006    2.67000008
   14.08555508  111.67099762    1.44000006    2.67000008
   14.08888817  124.89099884    1.41999996    2.67000008
   14.09222221  124.06800079    1.41999996    2.69000006
   14.09527779  122.56199646    1.41999996    2.69000006
   14.09666634  121.39600372    1.41999996    2.67000008
   14.09916592  131.42500305    1.41999996    2.69000006
   14.10222244  129.54600525    1.41999996    2.67000008
   14.10555553  138.24699402    1.41999996    2.69000006
   14.11138916  138.24699402    1.41999996    2.67000008
   14.11555576  127.35199738    1.41999996    2.69000006
   14.11888885  134.66200256    1.41999996    2.69000006
   14.12194443  129.90899658    1.41999996    2.67000008
   14.12527752  126.86199951    1.41999996    2.69000006
   14.12861156  137.07400513    1.41999996    2.69000006
   14.13000011  124.43099976    1.41999996    2.69000006
   14.13222218  124.50099945    1.41999996    2.69000006
   14.13527775  127.65799713    1.41999996    2.67000008
   14.13861084  125.70600128    1.41999996    2.69000006
   14.14194393  127.87899780    1.41999996    2.69000006
   14.14499950  131.39500427    1.41999996    2.69000006
   14.14833355  124.33000183    1.41999996    2.67000008
   14.15444374  124.33000183    1.41999996    2.69000006
   14.15833282  127.74800110    1.39999998    2.69000006
   14.16166592  133.52499390    1.39999998    2.69000006
   14.16333294  127.57299805    1.39999998    2.69000006
   14.16527748  124.54699707    1.41999996    2.69000006
   14.16833401  147.29699707    1.39999998    2.69000006
   14.17166710  124.41300201    1.41999996    2.69000006
   14.17500019  141.51899719    1.39999998    2.69000006
   14.17805576  135.49800110    1.39999998    2.67000008
   14.18138885  116.11799622    1.39999998    2.67000008
   14.18444443  131.34800720    1.39999998    2.69000006
   14.18777752  139.37600708    1.39999998    2.69000006
   14.19111156  131.52699280    1.39999998    2.69000006
   14.19722271  131.52699280    1.39999998    2.69000006
   14.20138836  150.31599426    1.39999998    2.69000006
   14.20444393  139.51800537    1.39999998    2.69000006
   14.20777798  136.22700500    1.39999998    2.69000006
   14.21083355  130.52999878    1.39999998    2.69000006
   14.21416664  134.58500671    1.39999998    2.69000006
   14.21749973  125.47799683    1.39999998    2.69000006
   14.22055531  117.92900085    1.38000000    2.69000006
   14.22388840  125.74299622    1.38000000    2.69000006
   14.22722149  133.56599426    1.38000000    2.69000006
   14.22999954  138.16499329    1.38000000    2.69000006
   14.23083305  130.82099915    1.38000000    2.69000006
   14.23388958  132.64799500    1.38000000    2.69000006
   14.24000072  132.64799500    1.38000000    2.69000006
   14.24416733  131.21499634    1.36000001    2.69000006
   14.24722290  130.72999573    1.36000001    2.69000006
   14.25055599  140.13600159    1.36000001    2.69000006
   14.25388908  123.41999817    1.36000001    2.69000006
   14.25694466  137.48500061    1.36000001    2.69000006
   14.26027775  120.17299652    1.36000001    2.71000004
   14.26333332  132.93899536    1.34000003    2.69000006
   14.26388931  128.53700256    1.34000003    2.69000006
   14.26694393  124.62200165    1.34000003    2.69000006
   14.27027798  135.99000549    1.36000001    2.69000006
   14.27361107  117.80699921    1.36000001    2.69000006
   14.27666664  128.40899658    1.34000003    2.69000006
   14.28277779  128.40899658    1.33000004    2.71000004
   14.28694534  129.22700500    1.34000003    2.69000006
   14.29027843  121.81800079    1.33000004    2.69000006
   14.29333401  128.60499573    1.33000004    2.69000006
   14.29666710  130.66600037    1.33000004    2.71000004
   14.29722309  116.00000000    1.33000004    2.71000004
   14.30027771  111.35199738    1.33000004    2.69000006
   14.30361176  123.61000061    1.30999994    2.71000004
   14.30694485  125.44799805    1.30999994    2.69000006
   14.31000042  139.22799683    1.30999994    2.69000006
   14.31333351  128.15400696    1.33000004    2.69000006
   14.31638908  132.82099915    1.33000004    2.71000004
   14.31972218  129.09500122    1.30999994    2.69000006
   14.32555580  129.09500122    1.33000004    2.71000004
   14.32972240  140.64399719    1.30999994    2.69000006
   14.33027744  146.10899353    1.30999994    2.69000006
   14.33361053  130.68600464    1.30999994    2.69000006
   14.33694458  134.90199280    1.30999994    2.71000004
   14.34000015  125.27500153    1.30999994    2.69000006
   14.34333324  122.71499634    1.30999994    2.69000006
   14.34666634  126.18000031    1.30999994    2.69000006
   14.34972191  143.26800537    1.30999994    2.71000004
   14.35305595  128.53300476    1.30999994    2.71000004
   14.35611153  134.81599426    1.30999994    2.71000004
   14.35944462  127.92900085    1.30999994    2.71000004
   14.36277771  132.20300293    1.30999994    2.71000004
   14.36361122  142.48500061    1.30999994    2.69000006
   14.36861134  142.48500061    1.30999994    2.71000004
   14.37277794  124.20400238    1.30999994    2.71000004
   14.37583351  123.13800049    1.30999994    2.69000006
   14.37916660  128.74000549    1.30999994    2.71000004
   14.38222218  127.23300171    1.28999996    2.71000004
   14.38555527  119.68199921    1.28999996    2.71000004
   14.38888836  129.16099548    1.28999996    2.73000002
   14.39222240  134.35299683    1.28999996    2.69000006
   14.39527798  126.40599823    1.28999996    2.71000004
   14.39694405  120.27500153    1.28999996    2.71000004
   14.39888859  128.24499512    1.28999996    2.71000004
   14.40222168  138.13200378    1.28999996    2.71000004
   14.40527725  114.59500122    1.28999996    2.71000004
   14.41138840  114.59500122    1.26999998    2.71000004
   14.41555500  138.63000488    1.26999998    2.71000004
   14.41888905  118.33899689    1.26999998    2.71000004
   14.42194462  128.05999756    1.26999998    2.71000004
   14.42527771  131.90600586    1.26999998    2.71000004
   14.42833328  125.93299866    1.25000000    2.71000004
   14.43027782  125.23300171    1.25000000    2.71000004
   14.43222237  117.28399658    1.25000000    2.71000004
   14.43555546  133.59199524    1.25000000    2.73000002
   14.43861103  111.03600311    1.25000000    2.73000002
   14.44194412  120.42700195    1.25000000    2.71000004
   14.44499969  134.59100342    1.25000000    2.71000004
   14.44833374  127.17700195    1.25000000    2.71000004
   14.45416641  127.17700195    1.25000000    2.71000004
   14.45833302  127.11299896    1.25000000    2.69000006
   14.46166611  132.97900391    1.25000000    2.71000004
   14.46361065  115.75499725    1.25000000    2.71000004
   14.46527767  127.13099670    1.25000000    2.71000004
   14.46861076  121.88400269    1.25000000    2.71000004
   14.47166634  131.75399780    1.25000000    2.71000004
   14.47499943  120.65699768    1.25000000    2.71000004
   14.47805500  129.01499939    1.25000000    2.71000004
   14.48138809  127.55100250    1.25000000    2.71000004
   14.48472214  126.23799896    1.25000000    2.71000004
   14.48777771  130.74200439    1.25000000    2.71000004
   14.49111176  130.59100342    1.25000000    2.73000002
   14.49694443  130.59100342    1.25000000    2.71000004
   14.50111103  131.19700623    1.25000000    2.71000004
   14.50444412  128.23500061    1.25000000    2.71000004
   14.50777817  123.33999634    1.23000002    2.71000004
   14.51083374  130.96099854    1.25000000    2.71000004
   14.51416683  130.72999573    1.23000002    2.71000004
   14.51722240  137.85000610    1.25000000    2.71000004
   14.52055550  131.87399292    1.25000000    2.71000004
   14.52388859  135.02000427    1.23000002    2.73000002
   14.52694416  128.50900269    1.25000000    2.71000004
   14.53027725  138.95799255    1.23000002    2.71000004
   14.53083324  134.38900757    1.23000002    2.73000002
   14.53388977  120.00900269    1.23000002    2.71000004
   14.54000092  120.00900269    1.23000002    2.73000002
   14.54416752  138.43800354    1.23000002    2.73000002
   14.54722309  133.84899902    1.23000002    2.71000004
   14.55055618  129.82400513    1.23000002    2.71000004
   14.55361176  144.00799561    1.23000002    2.71000004
   14.55694485  132.46600342    1.21000004    2.73000002
   14.56027794  134.82299805    1.23000002    2.71000004
   14.56333351  134.40499878    1.21000004    2.73000002
   14.56416702  126.05699921    1.21000004    2.73000002
   14.56722260  139.86799622    1.23000002    2.71000004
   14.57027817  136.89900208    1.23000002    2.71000004
   14.57361126  129.16600037    1.23000002    2.71000004
   14.57666683  135.95599365    1.21000004    2.71000004
   14.58277798  135.95599365    1.21000004    2.71000004
   14.58694458  120.38300323    1.21000004    2.71000004
   14.59000015  128.71699524    1.21000004    2.73000002
   14.59333324  124.47399902    1.21000004    2.71000004
   14.59666634  134.85299683    1.21000004    2.71000004
   14.59749985  133.75799561    1.21000004    2.71000004
   14.60027790  121.48999786    1.21000004    2.73000002
   14.60333347  123.33699799    1.21000004    2.73000002
   14.60666752  132.17599487    1.21000004    2.73000002
   14.60972214  122.88300323    1.19000006    2.73000002
   14.61305618  115.96399689    1.21000004    2.71000004
   14.61638927  130.63499451    1.19000006    2.73000002
   14.61944485  122.63400269    1.19000006    2.73000002
   14.62555599  122.63400269    1.19000006    2.73000002
   14.62972260  140.51800537    1.19000006    2.73000002
   14.63083363  126.48899841    1.19000006    2.73000002
   14.63361073  134.36500549    1.21000004    2.73000002
   14.63666630  131.20300293    1.19000006    2.73000002
   14.64000034  132.37199402    1.19000006    2.71000004
   14.64333344  134.34500122    1.21000004    2.71000004
   14.64638901  119.32199860    1.19000006    2.73000002
   14.64972210  121.20600128    1.19000006    2.73000002
   14.65277767  116.30899811    1.19000006    2.73000002
   14.65611076  137.25999451    1.19000006    2.71000004
   14.65944386  125.27100372    1.19000006    2.73000002
   14.66249943  131.85299683    1.19000006    2.73000002
   14.66416645  124.93000031    1.19000006    2.73000002
   14.66833401  124.93000031    1.19000006    2.73000002
   14.67250061  140.58500671    1.19000006    2.73000002
   14.67583370  120.05000305    1.19000006    2.73000002
   14.67916679  144.17199707    1.19000006    2.71000004
   14.68222237  137.60499573    1.19000006    2.73000002
   14.68555546  127.52600098    1.19000006    2.73000002
   14.68861103  131.00799561    1.19000006    2.73000002
   14.69194412  134.28300476    1.19000006    2.73000002
   14.69527817  124.05000305    1.21000004    2.73000002
   14.69750023  138.83500671    1.19000006    2.73000002
   14.69888878  133.19999695    1.19000006    2.73000002
   14.70194435  123.51200104    1.19000006    2.71000004
   14.70527744  127.10500336    1.19000006    2.73000002
   14.71138859  127.10500336    1.19000006    2.73000002
   14.71555519  130.56799316    1.19000006    2.71000004
   14.71861076  135.88299561    1.21000004    2.73000002
   14.72194386  117.39900208    1.19000006    2.73000002
   14.72527695  138.33399963    1.19000006    2.73000002
   14.72833252  125.13300323    1.19000006    2.73000002
   14.73083305  119.86599731    1.19000006    2.73000002
   14.73222160  125.01999664    1.19000006    2.73000002
   14.73527813  129.96099854    1.19000006    2.71000004
   14.73861122  124.62999725    1.19000006    2.73000002
   14.74166679  137.30599976    1.19000006    2.73000002
   14.74499989  126.98899841    1.19000006    2.73000002
   14.74833393  129.94799805    1.19000006    2.73000002
   14.75416660  129.94799805    1.19000006    2.73000002
   14.75833321  137.44400024    1.19000006    2.73000002
   14.76138878  136.40899658    1.19000006    2.73000002
   14.76416683  129.65699768    1.19000006    2.73000002
   14.76527786  132.81900024    1.19000006    2.71000004
   14.76833344  142.56399536    1.19000006    2.73000002
   14.77166653  133.85000610    1.19000006    2.73000002
   14.77472210  138.74800110    1.19000006    2.73000002
   14.77805519  140.42399597    1.19000006    2.73000002
   14.78138828  136.88499451    1.19000006    2.75000000
   14.78444481  127.58499908    1.19000006    2.73000002
   14.78777790  131.59399414    1.19000006    2.73000002
   14.79111195  127.07700348    1.19000006    2.75000000
   14.79694462  127.07700348    1.19000006    2.73000002
   14.81527805  133.77499390    1.19000006    2.73000002
   14.81861115  139.91099548    1.19000006    2.73000002
   14.82194424  132.53999329    1.19000006    2.75000000
   14.82499981  130.15499878    1.19000006    2.75000000
   14.82833290  117.50399780    1.19000006    2.73000002
   14.83138847  126.23400116    1.19000006    2.73000002
   14.83472157  127.17900085    1.19000006    2.73000002
   14.84000015  127.17900085    1.19000006    2.73000002
   14.84416676  127.37699890    1.19000006    2.73000002
   14.84749985  126.61699677    1.19000006    2.75000000
   14.84833336  123.65299988    1.19000006    2.75000000
   14.85111141  139.98100281    1.19000006    2.73000002
   14.85444450  131.55200195    1.19000006    2.73000002
   14.85750008  127.96499634    1.19000006    2.73000002
   14.86083412  138.90100098    1.16999996    2.75000000
   14.86416721  120.62599945    1.16999996    2.75000000
   14.86722279  117.26899719    1.16999996    2.73000002
   14.87055588  133.78399658    1.19000006    2.75000000
   14.87361145  123.46299744    1.16999996    2.75000000
   14.87694454  133.73300171    1.16999996    2.75000000
   14.88305569  133.73300171    1.16999996    2.75000000
   14.88694477  136.37600708    1.16999996    2.73000002
   14.89027786  127.95500183    1.16999996    2.73000002
   14.89361095  129.34100342    1.16999996    2.75000000
   14.89666653  127.53399658    1.16999996    2.75000000
   14.89999962  118.77999878    1.14999998    2.75000000
   14.90333271  127.08100128    1.14999998    2.75000000
   14.90638828  117.37599945    1.14999998    2.75000000
   14.90972137  116.03800201    1.13000000    2.73000002
   14.91277695  134.45700073    1.13000000    2.73000002
   14.91499996  130.03700256    1.13000000    2.73000002
   14.91666698  122.57599640    1.14999998    2.75000000
   14.92000008  131.03700256    1.13000000    2.75000000
   14.92583370  131.03700256    1.13000000    2.75000000
   14.93000031  129.39900208    1.13000000    2.75000000
   14.93305588  121.35800171    1.13000000    2.73000002
   14.93638897  127.97399902    1.13000000    2.75000000
   14.93972206  129.89700317    1.13000000    2.73000002
   14.94277763  134.03199768    1.13000000    2.75000000
   14.94611073  132.39399719    1.13000000    2.75000000
   14.94833374  126.58499908    1.13000000    2.73000002
   14.94972229  133.71299744    1.13000000    2.73000002
   14.95305538  128.64999390    1.11000001    2.75000000
   14.95611095  127.08100128    1.13000000    2.75000000
   14.95944405  129.21600342    1.11000001    2.75000000
   14.96277714  123.04000092    1.11000001    2.75000000
   14.96861076  123.04000092    1.11000001    2.75000000
   14.97277737  114.57299805    1.13000000    2.75000000
   14.97611046  127.04199982    1.13000000    2.75000000
   14.97916603  119.08100128    1.11000001    2.75000000
   14.98166656  134.09899902    1.11000001    2.75000000
   14.98277760  121.32599640    1.11000001    2.73000002
   14.98611164  133.11799622    1.11000001    2.75000000
   14.98916721  139.90100098    1.11000001    2.75000000
   14.99250031  114.57800293    1.09000003    2.75000000
   14.99583340  132.31900024    1.09000003    2.75000000
   14.99888897  131.14399719    1.11000001    2.75000000
   15.10750008   -1.00000000   -1.00000000   -1.00000000
   15.19555569   -1.00000000   -1.00000000   -1.00000000
   15.30083370   -1.00000000   -1.00000000   -1.00000000
   15.40861034   -1.00000000   -1.00000000   -1.00000000
   15.50249958   -1.00000000   -1.00000000   -1.00000000
   15.60444450   -1.00000000   -1.00000000   -1.00000000
   15.69416714   -1.00000000   -1.00000000   -1.00000000
   15.75444412  133.23599243    0.95999998    2.76999998
   15.75777817  145.10299683    0.95999998    2.80999994
   15.76111126  148.59300232    0.94000000    2.78999996
   15.76416683  141.52799988    0.94000000    2.78999996
   15.76749992  153.40400696    0.94000000    2.78999996
   15.77055550  143.02000427    0.92000002    2.78999996
   15.77472210  143.02000427    0.92000002    2.80999994
   15.77888870  138.74299622    0.92000002    2.78999996
   15.78222179  154.64399719    0.92000002    2.78999996
   15.78527832  147.48100281    0.92000002    2.78999996
   15.78777790  156.67199707    0.92000002    2.76999998
   15.78916740  147.92300415    0.92000002    2.78999996
   15.79222298  154.55799866    0.92000002    2.78999996
   15.79555607  154.13999939    0.92000002    2.78999996
   15.79861164  147.26300049    0.92000002    2.78999996
   15.80194473  157.96200562    0.92000002    2.78999996
   15.80527782  142.41299438    0.92000002    2.78999996
   15.80833340  152.69999695    0.92000002    2.78999996
   15.81166649  156.43499756    0.92000002    2.78999996
   15.81777763  156.43499756    0.94000000    2.78999996
   15.82166672  162.63900757    0.92000002    2.78999996
   15.82499981  137.30900574    0.92000002    2.78999996
   15.82833290  138.68200684    0.92000002    2.78999996
   15.83138847  152.22799683    0.92000002    2.78999996
   15.83472157  155.02499390    0.92000002    2.78999996
   15.83805561  159.46499634    0.92000002    2.78999996
   15.84138870  142.60400391    0.92000002    2.78999996
   15.84444427  162.58399963    0.92000002    2.78999996
   15.84777737  127.21199799    0.92000002    2.78999996
   15.85083389  140.63099670    0.92000002    2.76999998
   15.85416698  148.11000061    0.92000002    2.78999996
   15.85472298  154.62300110    0.92000002    2.78999996
   15.86055565  154.62300110    0.92000002    2.78999996
   15.86472225  155.92700195    0.92000002    2.78999996
   15.86777782  149.66700745    0.92000002    2.78999996
   15.87111092  156.62399292    0.92000002    2.78999996
   15.87444496  155.48899841    0.92000002    2.78999996
   15.87750053  161.63999939    0.89999998    2.78999996
   15.88083363  162.97700500    0.89999998    2.78999996
   15.88388920  147.20100403    0.89999998    2.78999996
   15.88722229  152.02799988    0.89999998    2.78999996
   15.88805580  155.07800293    0.89999998    2.78999996
   15.89083290  154.64700317    0.89999998    2.78999996
   15.89388847  161.32099915    0.89999998    2.78999996
   15.89722252  163.25300598    0.92000002    2.78999996
   15.90333271  163.25300598    0.92000002    2.78999996
   15.90749931  138.17300415    0.92000002    2.78999996
   15.91083336  147.47399902    0.92000002    2.76999998
   15.91388893  156.48800659    0.92000002    2.78999996
   15.91722298  159.41900635    0.92000002    2.76999998
   15.92027855  144.77900696    0.92000002    2.78999996
   15.92138958  157.48500061    0.92000002    2.78999996
   15.92416668  149.62899780    0.92000002    2.78999996
   15.92722225  127.42299652    0.94000000    2.78999996
   15.93055630  139.76699829    0.94000000    2.78999996
   15.93388939  149.70500183    0.94000000    2.78999996
   15.93694496  160.26400757    0.92000002    2.78999996
   15.94027805  151.71499634    0.92000002    2.78999996
   15.94611073  151.71499634    0.89999998    2.76999998
   15.95027733  144.52200317    0.89999998    2.78999996
   15.95361137  144.41799927    0.89999998    2.76999998
   15.95472240  168.63800049    0.92000002    2.76999998
   15.95722198  135.92199707    0.89999998    2.78999996
   15.96027756  137.12100220    0.92000002    2.78999996
   15.96361065  164.77400208    0.92000002    2.78999996
   15.96694374  145.12199402    0.92000002    2.78999996
   15.96999931  148.19200134    0.92000002    2.78999996
   15.97333336  157.88400269    0.92000002    2.78999996
   15.97666645  157.34399414    0.92000002    2.76999998
   15.97972202  138.48899841    0.92000002    2.78999996
   15.98305511  154.36999512    0.92000002    2.80999994
   15.98916721  154.36999512    0.92000002    2.78999996
   15.99305534  136.92399597    0.92000002    2.76999998
   15.99638939  166.40299988    0.92000002    2.78999996
   15.99972248  146.56500244    0.92000002    2.76999998
   16.00277710  137.44299316    0.94000000    2.78999996
   16.00611115  156.97000122    0.92000002    2.80999994
   16.00944519  138.92300415    0.92000002    2.78999996
   16.01250076  135.84500122    0.89999998    2.78999996
   16.01583290  146.46699524    0.89999998    2.78999996
   16.01916695  148.44999695    0.89999998    2.78999996
   16.02138901  157.16099548    0.89999998    2.78999996
   16.02277756  149.78500366    0.89999998    2.78999996
   16.02583313  130.68499756    0.88000000    2.80999994
   16.03194427  130.68499756    0.89999998    2.80999994
   16.03610992  149.27000427    0.88000000    2.78999996
   16.03916550  144.67599487    0.88000000    2.78999996
   16.04249954  143.22399902    0.88000000    2.78999996
   16.04583359  146.68200684    0.86000001    2.78999996
   16.04888916  147.34800720    0.86000001    2.78999996
   16.05222130  150.72999573    0.86000001    2.78999996
   16.05472183  153.04100037    0.86000001    2.78999996
   16.05583191  138.77799988    0.86000001    2.78999996
   16.05888748  133.68200684    0.86000001    2.78999996
   16.06222153  145.52499390    0.86000001    2.78999996
   16.06555557  141.11900330    0.86000001    2.78999996
   16.06916809  132.83099365    0.86000001    2.78999996
   16.07472229  132.83099365    0.88000000    2.78999996
   16.07916832  142.77400208    0.88000000    2.80999994
   16.08222389  153.17700195    0.88000000    2.78999996
   16.08555603  152.23399353    0.86000001    2.78999996
   16.08805656  155.68099976    0.86000001    2.78999996
   16.08916664  149.47200012    0.86000001    2.78999996
   16.09222221  146.75799561    0.86000001    2.78999996
   16.09555626  147.87500000    0.86000001    2.78999996
   16.09889030  156.91400146    0.86000001    2.78999996
   16.10194397  167.29800415    0.86000001    2.78999996
   16.10527802  151.42199707    0.86000001    2.78999996
   16.10861206  152.12300110    0.86000001    2.78999996
   16.11166763  145.97300720    0.86000001    2.78999996
   16.11750031  145.97300720    0.88000000    2.78999996
   16.12166595  145.70799255    0.88000000    2.78999996
   16.12500000  160.43800354    0.88000000    2.78999996
   16.12833405  157.40499878    0.88000000    2.78999996
   16.13138962  155.14199829    0.88000000    2.78999996
   16.13472176  153.63200378    0.88000000    2.78999996
   16.13777733  160.10200500    0.88000000    2.78999996
   16.14111137  167.20700073    0.88000000    2.78999996
   16.14444351  159.71000671    0.88000000    2.78999996
   16.14749908  169.94000244    0.88000000    2.78999996
   16.15083313  160.53999329    0.88000000    2.78999996
   16.15416718  161.16000366    0.86000001    2.78999996
   16.15472221  157.40600586    0.86000001    2.78999996
   16.16055489  157.40600586    0.86000001    2.78999996
   16.16472244  174.73899841    0.88000000    2.78999996
   16.16777802  181.16799927    0.86000001    2.78999996
   16.17111015  171.77600098    0.86000001    2.78999996
   16.17444420  157.36399841    0.86000001    2.78999996
   16.17749977  155.85499573    0.86000001    2.78999996
   16.18083191  149.46899414    0.86000001    2.80999994
   16.18388748  148.72200012    0.86000001    2.78999996
   16.18722153  151.93499756    0.86000001    2.80999994
   16.18805504  156.99000549    0.86000001    2.80999994
   16.19083214  152.97799683    0.86000001    2.78999996
   16.19388771  153.76899719    0.86000001    2.78999996
   16.19722176  154.68899536    0.86000001    2.78999996
   16.20333481  154.68899536    0.83999997    2.80999994
   16.20750046  154.66700745    0.86000001    2.78999996
   16.21055603  154.88600159    0.86000001    2.78999996
   16.21389008  155.64700317    0.86000001    2.78999996
   16.21722221  145.05599976    0.86000001    2.78999996
   16.22027779  147.97999573    0.88000000    2.78999996
   16.22138977  142.85000610    0.88000000    2.78999996
   16.22416687  145.65699768    0.86000001    2.78999996
   16.22722244  142.59399414    0.86000001    2.78999996
   16.23055649  135.99699402    0.88000000    2.78999996
   16.23388863  140.87500000    0.86000001    2.80999994
   16.23694420  135.84500122    0.86000001    2.78999996
   16.24027824  135.35099792    0.86000001    2.78999996
   16.24611092  135.35099792    0.86000001    2.78999996
   16.25027847  147.77400208    0.83999997    2.80999994
   16.25361061  154.29600525    0.83999997    2.80999994
   16.25472260  161.04499817    0.83999997    2.78999996
   16.25722313  152.59399414    0.83999997    2.78999996
   16.26027870  139.57299805    0.81999999    2.78999996
   16.26361084  143.01100159    0.83999997    2.80999994
   16.26694489  153.97900391    0.86000001    2.78999996
   16.27000046  152.75300598    0.86000001    2.80999994
   16.27333260  139.59899902    0.86000001    2.78999996
   16.27666664  155.72099304    0.83999997    2.78999996
   16.27972221  154.90600586    0.86000001    2.80999994
   16.28305435  150.61799622    0.86000001    2.78999996
   16.28888893  150.61799622    0.86000001    2.78999996
   16.29305458  149.40899658    0.86000001    2.78999996
   16.29638863  146.49699402    0.86000001    2.80999994
   16.29944420  142.48899841    0.89999998    2.78999996
   16.30277634  155.35299683    0.89999998    2.78999996
   16.30611038  143.38900757    0.89999998    2.78999996
   16.30916595  153.74899292    0.92000002    2.78999996
   16.31250000  141.55000305    0.94000000    2.78999996
   16.31583214  154.04100037    0.92000002    2.78999996
   16.31888962  140.55700684    0.92000002    2.78999996
   16.32139015  147.03399658    0.94000000    2.78999996
   16.32250023  139.65499878    0.94000000    2.78999996
   16.32555580  142.15899658    0.94000000    2.80999994
   16.33194542  142.15899658    0.94000000    2.80999994
   16.33611107  157.60000610    0.95999998    2.78999996
   16.33916664  167.48300171    0.95999998    2.80999994
   16.34250069  152.10000610    0.98000002    2.78999996
   16.34555626  166.11799622    0.98000002    2.78999996
   16.34889030  163.37899780    1.00000000    2.78999996
   16.35222244  168.27099609    1.00000000    2.78999996
   16.35472298  156.02999878    1.00000000    2.78999996
   16.35583305  165.57299805    1.00000000    2.78999996
   16.35888863  158.86199951    1.00000000    2.78999996
   16.36222267  162.95199585    1.00000000    2.80999994
   16.36555672  155.83299255    1.01999998    2.78999996
   16.36861038  150.24400330    1.00000000    2.78999996
   16.37472153  150.24400330    1.01999998    2.78999996
   16.37888908  171.68600464    1.01999998    2.78999996
   16.38194466  157.09599304    1.01999998    2.78999996
   16.38527679  158.30000305    1.01999998    2.78999996
   16.38805580  159.81100464    1.01999998    2.78999996
   16.38888931  167.54299927    1.01999998    2.78999996
   16.39194489  156.15499878    1.01999998    2.78999996
   16.39527702  162.34100342    0.98000002    2.78999996
   16.39861107  154.10099792    0.98000002    2.78999996
   16.40166664  157.35499573    0.98000002    2.78999996
   16.40499878  162.75799561    0.95999998    2.78999996
   16.40833282  163.14900208    0.95999998    2.78999996
   16.41138840  147.80799866    0.95999998    2.78999996
   16.41749954  147.80799866    0.95999998    2.78999996
   16.42166519  148.05099487    0.95999998    2.78999996
   16.42499924  140.74400330    0.94000000    2.80999994
   16.42805481  150.14700317    0.92000002    2.80999994
   16.43138885  162.11799622    0.92000002    2.78999996
   16.43444443  170.46699524    0.89999998    2.78999996
   16.43777657  158.09100342    0.89999998    2.80999994
   16.44111061  161.81500244    0.89999998    2.80999994
   16.44416618  160.10499573    0.89999998    2.80999994
   16.44749832  166.09599304    0.89999998    2.80999994
   16.45083427  162.42300415    0.89999998    2.78999996
   16.45388985  159.68200684    0.89999998    2.80999994
   16.45472336  161.94599915    0.89999998    2.80999994
   16.46027946  161.94599915    0.92000002    2.82999992
   16.46444511  165.61199951    0.92000002    2.80999994
   16.46777916  180.38600159    0.92000002    2.78999996
   16.47083473  160.52499390    0.92000002    2.78999996
   16.47416687  166.92599487    0.92000002    2.78999996
   16.47750092  167.17199707    0.94000000    2.78999996
   16.48055649  159.96699524    0.94000000    2.80999994
   16.48388863  162.68499756    0.94000000    2.80999994
   16.48722267  177.21699524    0.94000000    2.80999994
   16.48805618  169.57200623    0.94000000    2.80999994
   16.49083328  181.59399414    0.95999998    2.80999994
   16.49416733  170.19299316    0.95999998    2.78999996
   16.49722290  178.83299255    0.95999998    2.78999996
   16.50333405  178.83299255    0.95999998    2.78999996
   16.50749969  174.84599304    0.94000000    2.78999996
   16.51055527  192.08399963    0.94000000    2.80999994
   16.51388931  168.44000244    0.94000000    2.78999996
   16.51722145  172.90199280    0.94000000    2.78999996
   16.52027702  168.57499695    0.94000000    2.80999994
   16.52138901  184.46899414    0.94000000    2.80999994
   16.52388954  169.11599731    0.89999998    2.80999994
   16.52722168  165.21099854    0.89999998    2.78999996
   16.53027725  164.54600525    0.89999998    2.80999994
   16.53361130  188.16099548    0.88000000    2.80999994
   16.53666687  182.12800598    0.88000000    2.78999996
   16.53999901  176.75300598    0.86000001    2.80999994
   16.54611015  176.75300598    0.86000001    2.78999996
   16.55027771  143.44599915    0.83999997    2.80999994
   16.55333328  176.07499695    0.81999999    2.80999994
   16.55472183  170.84500122    0.81999999    2.80999994
   16.55694389  186.75999451    0.81999999    2.80999994
   16.56027794  190.60800171    0.81999999    2.80999994
   16.56333351  179.96099854    0.81999999    2.80999994
   16.56666756  172.16799927    0.81999999    2.82999992
   16.57000160  161.85899353    0.80000001    2.80999994
   16.57305717  169.53199768    0.81999999    2.80999994
   16.57638931  173.48899841    0.81999999    2.78999996
   16.57944489  180.59300232    0.80000001    2.80999994
   16.58277893  164.44200134    0.80000001    2.80999994
   16.58889008  164.44200134    0.80000001    2.80999994
   16.59305573  175.37699890    0.80000001    2.82999992
   16.59638977  183.81700134    0.80000001    2.80999994
   16.59944534  161.71800232    0.80000001    2.80999994
   16.60277748  178.45899963    0.80000001    2.80999994
   16.60611153  163.32699585    0.80000001    2.80999994
   16.60916710  176.38900757    0.81999999    2.80999994
   16.61250114  174.61000061    0.81999999    2.80999994
   16.61583328  176.38900757    0.80000001    2.80999994
   16.61888885  171.14100647    0.80000001    2.80999994
   16.62138939  165.53500366    0.81999999    2.80999994
   16.62249947  174.07699585    0.80000001    2.80999994
   16.62583351  176.52799988    0.81999999    2.80999994
   16.63166618  176.52799988    0.81999999    2.80999994
   16.63583374  154.81500244    0.81999999    2.80999994
   16.63916588  148.26899719    0.81999999    2.80999994
   16.64222145  163.13499451    0.81999999    2.80999994
   16.64555550  159.18299866    0.81999999    2.80999994
   16.64888954  164.18200684    0.83999997    2.80999994
   16.65194321  162.68099976    0.81999999    2.80999994
   16.65472221  159.43800354    0.83999997    2.80999994
   16.65555573  162.52799988    0.81999999    2.80999994
   16.65888786  171.10600281    0.81999999    2.80999994
   16.66194344  154.65699768    0.81999999    2.80999994
   16.66527748  160.95399475    0.81999999    2.80999994
   16.66833305  158.91499329    0.81999999    2.82999992
   16.67472076  158.91499329    0.83999997    2.80999994
   16.67888832  159.49800110    0.81999999    2.80999994
   16.68194389  156.02299500    0.81999999    2.80999994
   16.68527603  149.98599243    0.81999999    2.80999994
   16.68805504  159.37300110    0.83999997    2.80999994
   16.68888855  151.08500671    0.83999997    2.80999994
   16.69222069  145.29899597    0.83999997    2.80999994
   16.69527626  155.97200012    0.81999999    2.78999996
   16.69861031  163.64399719    0.81999999    2.82999992
   16.70194435  170.50599670    0.81999999    2.80999994
   16.70499992  147.98500061    0.81999999    2.80999994
   16.70833397  153.29899597    0.81999999    2.80999994
   16.71138954  145.06500244    0.81999999    2.80999994
   16.71750069  145.06500244    0.81999999    2.82999992
   16.72166634  161.03399658    0.83999997    2.78999996
   16.72472191  157.00300598    0.81999999    2.80999994
   16.72805595  161.74499512    0.81999999    2.80999994
   16.73139000  160.60899353    0.83999997    2.80999994
   16.73444557  153.07000732    0.83999997    2.80999994
   16.73777771  150.79699707    0.86000001    2.80999994
   16.74111176  150.96400452    0.83999997    2.80999994
   16.74416733  162.09800720    0.86000001    2.80999994
   16.74749947  161.06500244    0.86000001    2.78999996
   16.75055504  158.52400208    0.86000001    2.80999994
   16.75388908  159.85299683    0.86000001    2.80999994
   16.75472260  155.16000366    0.86000001    2.80999994
   16.77555466  155.16000366    0.88000000    2.80999994
   16.77972221  155.13000488    0.86000001    2.80999994
   16.78305435  153.98399353    0.86000001    2.80999994
   16.78610992  161.92300415    0.86000001    2.80999994
   16.78805542  152.54299927    0.86000001    2.80999994
   16.78972244  156.04899597    0.86000001    2.80999994
   16.79305458  150.33200073    0.83999997    2.80999994
   16.79611015  157.85099792    0.83999997    2.80999994
   16.79944420  166.84800720    0.81999999    2.80999994
   16.80277634  158.36300659    0.81999999    2.80999994
   16.80583191  162.99800110    0.83999997    2.78999996
   16.80916595  171.77299500    0.81999999    2.80999994
   16.81250000  172.17999268    0.83999997    2.80999994
   16.81833458  172.17999268    0.81999999    2.78999996
   16.82250023  171.25900269    0.83999997    2.80999994
   16.82555580  167.01300049    0.83999997    2.80999994
   16.82888985  166.41499329    0.83999997    2.80999994
   16.83222389  166.76800537    0.81999999    2.80999994
   16.83527756  161.30200195    0.81999999    2.80999994
   16.83861160  166.12100220    0.81999999    2.80999994
   16.84194565  164.28500366    0.81999999    2.82999992
   16.84500122  171.08399963    0.83999997    2.80999994
   16.84833336  167.99800110    0.81999999    2.80999994
   16.85138893  165.46400452    0.81999999    2.80999994
   16.85472298  161.67199707    0.81999999    2.80999994
   16.85527802  169.82200623    0.81999999    2.80999994
   16.86111069  169.82200623    0.83999997    2.80999994
   16.86527824  155.13499451    0.86000001    2.80999994
   16.86861038  151.67999268    0.83999997    2.80999994
   16.87166595  166.14799500    0.83999997    2.80999994
   16.87500000  160.73599243    0.81999999    2.80999994
   16.87833405  149.84500122    0.83999997    2.80999994
   16.88138962  167.59300232    0.81999999    2.80999994
   16.88472176  160.58000183    0.81999999    2.78999996
   16.88777733  164.74000549    0.81999999    2.80999994
   16.88861084  161.02900696    0.80000001    2.78999996
   16.89166641  164.18499756    0.80000001    2.80999994
   16.89472198  167.76400757    0.80000001    2.82999992
   16.89805603  167.10099792    0.80000001    2.80999994
   16.90416718  167.10099792    0.80000001    2.80999994
   16.90833282  164.05299377    0.79000002    2.80999994
   16.91138840  172.38400269    0.79000002    2.80999994
   16.91472244  168.51100159    0.79000002    2.80999994
   16.91805458  188.57400513    0.79000002    2.80999994
   16.92111015  168.40400696    0.79000002    2.80999994
   16.92194366  159.49299622    0.79000002    2.80999994
   16.92499924  165.23500061    0.79000002    2.82999992
   16.92805481  169.21600342    0.76999998    2.80999994
   16.93138885  172.83299255    0.79000002    2.78999996
   16.93472099  177.12600708    0.76999998    2.80999994
   16.93777657  163.21000671    0.76999998    2.80999994
   16.94111061  178.22799683    0.76999998    2.80999994
   16.94694328  178.22799683    0.80000001    2.80999994
   16.95083427  152.55400085    0.80000001    2.80999994
   16.95416832  174.27699280    0.81999999    2.80999994
   16.95527840  164.67399597    0.80000001    2.80999994
   16.95777893  177.41499329    0.80000001    2.80999994
   16.96083450  160.60000610    0.80000001    2.80999994
   16.96416664  158.80299377    0.81999999    2.80999994
   16.96750069  160.58399963    0.81999999    2.80999994
   16.97055626  162.50999451    0.83999997    2.78999996
   16.97389030  176.83299255    0.83999997    2.80999994
   16.97694588  151.41999817    0.86000001    2.82999992
   16.98027802  164.48100281    0.83999997    2.82999992
   16.98361206  170.14399719    0.86000001    2.80999994
   16.98972321  170.14399719    0.83999997    2.80999994
   16.99388885  163.69200134    0.83999997    2.78999996
   16.99694443  170.41400146    0.83999997    2.80999994
   17.00027847  165.12100220    0.83999997    2.80999994
   17.00361061  174.80900574    0.83999997    2.80999994
   17.00666618  180.31300354    0.81999999    2.80999994
   17.01000023  168.72099304    0.81999999    2.80999994
   17.01305580  150.61599731    0.81999999    2.80999994
   17.01638794  156.65199280    0.83999997    2.82999992
   17.01972198  169.13400269    0.83999997    2.80999994
   17.02194405  165.21699524    0.81999999    2.80999994
   17.02333260  170.69099426    0.81999999    2.80999994
   17.02638817  191.11000061    0.81999999    2.80999994
   17.03249931  191.11000061    0.80000001    2.80999994
   17.03666687  143.93699646    0.80000001    2.80999994
   17.03999901  186.36199951    0.80000001    2.80999994
   17.04305458  178.69799805    0.80000001    2.78999996
   17.04638863  180.30799866    0.80000001    2.82999992
   17.04944420  157.76400757    0.83999997    2.80999994
   17.05277634  162.74200439    0.83999997    2.82999992
   17.05555534  176.31100464    0.86000001    2.80999994
   17.05694389  176.84800720    0.86000001    2.80999994
   17.05999947  177.15199280    0.86000001    2.80999994
   17.06333351  169.76899719    0.83999997    2.80999994
   17.06666756  170.40899658    0.83999997    2.80999994
   17.06972313  155.86500549    0.83999997    2.80999994
   17.07527924  155.86500549    0.86000001    2.80999994
   17.07944489  149.78399658    0.86000001    2.78999996
   17.08277893  169.96400452    0.86000001    2.80999994
   17.08583450  162.49699402    0.86000001    2.80999994
   17.08861160  165.21400452    0.92000002    2.80999994
   17.08972359  175.11700439    0.92000002    2.80999994
   17.09277916  164.46400452    0.92000002    2.80999994
   17.09611130  173.12199402    0.92000002    2.78999996
   17.09916687  166.99400330    0.92000002    2.80999994
   17.10250092  166.69799805    0.92000002    2.80999994
   17.10583305  161.84100342    0.92000002    2.80999994
   17.10916710  161.86599731    0.92000002    2.78999996
   17.11222267  168.83299255    0.92000002    2.80999994
   17.11833382  168.83299255    0.92000002    2.80999994
   17.12222290  162.05400085    0.92000002    2.80999994
   17.12555504  156.24800110    0.89999998    2.80999994
   17.12888908  157.90499878    0.89999998    2.80999994
   17.13194466  161.94700623    0.89999998    2.80999994
   17.13527679  152.59399414    0.89999998    2.80999994
   17.13833237  159.93299866    0.89999998    2.80999994
   17.14166641  166.64599609    0.89999998    2.80999994
   17.14500046  171.24699402    0.89999998    2.80999994
   17.14805603  156.60099792    0.89999998    2.80999994
   17.15138817  160.66000366    0.89999998    2.80999994
   17.15472221  148.97500610    0.89999998    2.80999994
   17.15527725  153.51199341    0.89999998    2.80999994
   17.16110992  153.51199341    0.89999998    2.78999996
   17.16527748  146.91999817    0.89999998    2.80999994
   17.16833305  155.71200562    0.89999998    2.80999994
   17.17166519  150.67199707    0.89999998    2.80999994
   17.17472076  145.01899719    0.89999998    2.80999994
   17.17805481  154.24099731    0.89999998    2.80999994
   17.18138885  162.69599915    0.89999998    2.78999996
   17.18444443  161.50100708    0.89999998    2.80999994
   17.18777657  167.91299438    0.88000000    2.80999994
   17.18861008  177.91099548    0.88000000    2.80999994
   17.19138718  165.83000183    0.88000000    2.80999994
   17.19444275  158.65400696    0.88000000    2.78999996
   17.19777679  160.80799866    0.88000000    2.78999996
   17.20388985  160.80799866    0.88000000    2.80999994
   17.20805550  159.59300232    0.89999998    2.80999994
   17.21111107  163.13699341    0.88000000    2.80999994
   17.21444511  159.76300049    0.88000000    2.80999994
   17.21777916  167.04699707    0.88000000    2.80999994
   17.22111130  165.96499634    0.88000000    2.80999994
   17.22194481  171.13299561    0.88000000    2.80999994
   17.22472191  168.90100098    0.88000000    2.80999994
   17.22777748  171.27999878    0.86000001    2.80999994
   17.23111153  160.21499634    0.86000001    2.80999994
   17.23444557  158.66700745    0.86000001    2.78999996
   17.23750114  166.91600037    0.86000001    2.78999996
   17.24083328  150.61700439    0.86000001    2.80999994
   17.24666786  150.61700439    0.86000001    2.80999994
   17.25083351  155.38600159    0.86000001    2.80999994
   17.25416756  167.04200745    0.83999997    2.78999996
   17.25527763  159.53500366    0.83999997    2.80999994
   17.25777817  174.73899841    0.83999997    2.80999994
   17.26111031  166.17999268    0.83999997    2.78999996
   17.26416588  167.39799500    0.86000001    2.80999994
   17.26749992  168.28500366    0.83999997    2.78999996
   17.27055550  166.32299805    0.83999997    2.80999994
   17.27388954  166.10099792    0.83999997    2.80999994
   17.27722168  158.43200684    0.83999997    2.80999994
   17.28027725  151.82099915    0.83999997    2.80999994
   17.28361130  177.07800293    0.83999997    2.80999994
   17.28944397  177.07800293    0.83999997    2.80999994
   17.29361153  159.75100708    0.83999997    2.82999992
   17.29694366  164.89300537    0.83999997    2.82999992
   17.30027771  164.42599487    0.83999997    2.78999996
   17.30333328  168.03999329    0.83999997    2.80999994
   17.30666542  165.02200317    0.83999997    2.80999994
   17.30999947  165.14599609    0.83999997    2.80999994
   17.31305504  169.34500122    0.81999999    2.80999994
   17.31638718  157.05099487    0.81999999    2.80999994
   17.31944466  153.20799255    0.83999997    2.80999994
   17.32194519  166.57099915    0.81999999    2.78999996
   17.32333374  160.51600647    0.81999999    2.78999996
   17.32638931  169.44200134    0.81999999    2.80999994
   17.33250046  169.44200134    0.81999999    2.80999994
   17.33666801  190.13200378    0.83999997    2.80999994
   17.33972359  177.07600403    0.83999997    2.80999994
   17.34305573  174.49800110    0.81999999    2.78999996
   17.34611130  167.77099609    0.81999999    2.80999994
   17.34944534  169.33700562    0.81999999    2.78999996
   17.35277748  168.16799927    0.81999999    2.80999994
   17.35527802  156.53399658    0.83999997    2.80999994
   17.35639000  150.24200439    0.81999999    2.80999994
   17.35972214   -1.00000000    0.83999997    2.80999994
   17.36277771   -1.00000000    0.83999997    2.80999994
   17.36611176  150.97300720    0.81999999    2.82999992
   17.36916733  160.15800476    0.80000001    2.80999994
   17.37527847  160.15800476    0.81999999    2.80999994
   17.37944412  165.99800110    0.80000001    2.80999994
   17.38249969  172.93800354    0.80000001    2.80999994
   17.38583374  164.55499268    0.81999999    2.80999994
   17.38861084  169.96699524    0.81999999    2.80999994
   17.38944435  160.34300232    0.81999999    2.80999994
   17.39249992  159.06799316    0.81999999    2.80999994
   17.39583397  159.48699951    0.81999999    2.80999994
   17.39916611  150.36199951    0.81999999    2.80999994
   17.40222168  151.93800354    0.81999999    2.80999994
   17.40555573   -1.00000000    0.81999999    2.80999994
   17.40888786  303.89801025    0.80000001    2.80999994
   17.41083336  165.43600464    0.81999999    2.80999994
   17.41083336  164.55499268    0.81999999    2.80999994
   17.41110992  160.34300232    0.81999999    2.80999994
   17.41110992  159.06799316    0.81999999    2.80999994
   17.41110992  159.48699951    0.81999999    2.80999994
   17.41138840  150.36199951    0.81999999    2.80999994
   17.41138840  151.93800354    0.81999999    2.80999994
   17.41138840   -1.00000000    0.81999999    2.80999994
   17.41166687  303.89801025    0.80000001    2.80999994
   17.41166687  172.93800354    0.80000001    2.80999994
   17.41361046  165.57699585    0.80000001    2.80999994
   17.41694450  165.92300415    0.80000001    2.80999994
   17.42000008  162.97599792    0.81999999    2.80999994
   17.42333221  160.98100281    0.81999999    2.80999994
   17.42638779  173.79400635    0.81999999    2.82999992
   17.43166542  173.79400635    0.81999999    2.80999994
   17.43583298  157.48599243    0.81999999    2.80999994
   17.43888855  165.03100586    0.81999999    2.80999994
   17.44222069  153.15100098    0.80000001    2.80999994
   17.44472122  162.36799622    0.80000001    2.80999994
   17.44583321  156.82200623    0.80000001    2.80999994
   17.44916534   -1.00000000    0.81999999    2.80999994
   17.45250130   -1.00000000    0.81999999    2.82999992
   17.45555687  154.44900513    0.81999999    2.78999996
   17.45888901  165.89100647    0.81999999    2.80999994
   17.46222305  163.06500244    0.80000001    2.80999994
   17.46527863  171.43800354    0.80000001    2.82999992
   17.46861076  168.05000305    0.80000001    2.80999994
   17.47444534  168.05000305    0.81999999    2.80999994
   17.47861099  169.23500061    0.83999997    2.80999994
   17.48194504   -1.00000000    0.83999997    2.80999994
   17.48500061   -1.00000000    0.86000001    2.80999994
   17.48833275  167.58000183    0.86000001    2.78999996
   17.49138832  165.00199890    0.83999997    2.80999994
   17.49472237  170.13900757    0.83999997    2.80999994
   17.49805641  172.03799438    0.83999997    2.80999994
   17.50111198  161.90600586    0.83999997    2.80999994
   17.50444412  164.57699585    0.83999997    2.82999992
   17.50777817  170.19400024    0.83999997    2.80999994
   17.51083374  165.85899353    0.83999997    2.80999994
   17.51138878  168.62899780    0.83999997    2.78999996
   17.51722145  168.62899780    0.86000001    2.80999994
   17.52138901  168.13699341    0.86000001    2.80999994
   17.52472115  173.50500488    0.86000001    2.80999994
   17.52777672  166.80400085    0.86000001    2.78999996
   17.53111076  180.63900757    0.86000001    2.80999994
   17.53444481  181.11700439    0.86000001    2.80999994
   17.53750038  176.81799316    0.86000001    2.80999994
   17.54083252  171.42300415    0.86000001    2.80999994
   17.54416656  175.18800354    0.86000001    2.80999994
   17.54472160  174.19500732    0.86000001    2.80999994
   17.54777718   -1.00000000    0.86000001    2.78999996
   17.55111122   -1.00000000    0.83999997    2.80999994
   17.55416679  362.51501465    0.83999997    2.78999996
   17.55638885  367.40301514    0.83999997    2.80999994
   17.55749893  455.54800415    0.83999997    2.80999994
   17.55888748  170.15299988    0.83999997    2.80999994
   17.55916595   -1.00000000    0.83999997    2.80999994
   17.55916595  362.51501465    0.83999997    2.78999996
   17.55916595  166.80400085    0.86000001    2.78999996
   17.55944443  180.63900757    0.86000001    2.80999994
   17.55944443  181.11700439    0.86000001    2.80999994
   17.55944443  176.81799316    0.86000001    2.80999994
   17.55972099  171.42300415    0.86000001    2.80999994
   17.55972099  175.18800354    0.86000001    2.80999994
   17.55972099   -1.00000000    0.86000001    2.78999996
   17.56027794  160.74400330    0.83999997    2.80999994
   17.56361008  173.00000000    0.83999997    2.78999996
   17.56694603  160.47099304    0.83999997    2.80999994
   17.57000160  172.04400635    0.86000001    2.80999994
   17.57333374  168.40299988    0.86000001    2.80999994
   17.57972336  168.40299988    0.86000001    2.78999996
   17.58388901   -1.00000000    0.88000000    2.80999994
   17.58722305   -1.00000000    0.88000000    2.78999996
   17.59027863   -1.00000000    0.88000000    2.78999996
   17.59277916  152.17500305    0.88000000    2.80999994
   17.59416771  176.22200012    0.88000000    2.78999996
   17.59722328  191.40600586    0.89999998    2.78999996
   17.60055542  173.27799988    0.88000000    2.80999994
   17.60388947  182.67100525    0.88000000    2.80999994
   17.60694504  167.48399353    0.88000000    2.80999994
   17.61027908  181.40699768    0.89999998    2.80999994
   17.61361122  173.65600586    0.88000000    2.80999994
   17.61666679  171.93699646    0.89999998    2.80999994
   17.62249947  171.93699646    0.89999998    2.78999996
   17.62666702  179.60600281    0.89999998    2.80999994
   17.63000107  183.50799561    0.89999998    2.78999996
   17.63333321  173.82499695    0.89999998    2.80999994
   17.63638878  178.82400513    0.89999998    2.80999994
   17.63972282  170.06500244    0.92000002    2.78999996
   17.64305496   -1.00000000    0.89999998    2.80999994
   17.64611053   -1.00000000    0.92000002    2.78999996
   17.64944458   -1.00000000    0.94000000    2.78999996
   17.65250015   -1.00000000    0.94000000    2.80999994
   17.65583229   -1.00000000    0.94000000    2.78999996
   17.65888786   -1.00000000    0.94000000    2.78999996
   17.66555595   -1.00000000    0.94000000    2.80999994
   17.66944313  169.16700745    0.95999998    2.78999996
   17.67333221  170.24099731    0.95999998    2.78999996
   17.67638779  163.44200134    0.95999998    2.78999996
   17.67972183  170.05700684    0.95999998    2.78999996
   17.68277740  158.01499939    0.95999998    2.78999996
   17.68610954  177.14199829    0.95999998    2.78999996
   17.68944359  164.24899292    0.95999998    2.78999996
   17.69249916  161.91200256    0.95999998    2.80999994
   17.69305420  155.60099792    0.98000002    2.78999996
   17.69638824  159.46899414    0.98000002    2.78999996
   17.69944382  155.40699768    0.98000002    2.78999996
   17.70277786  151.43600464    0.95999998    2.78999996
   17.70833397  151.43600464    0.95999998    2.78999996
   17.71250153  154.73699951    0.95999998    2.78999996
   17.71555710  162.62600708    0.95999998    2.78999996
   17.71888924  150.58700562    0.95999998    2.78999996
   17.72194481  157.56500244    0.95999998    2.78999996
   17.72527885  136.05499268    0.95999998    2.78999996
   17.72638893  150.02299500    0.95999998    2.78999996
   17.72888947  147.56799316    0.98000002    2.78999996
   17.73194504  163.00999451    1.00000000    2.78999996
   17.73527718  153.83999634    1.00000000    2.78999996
   17.73833275  158.44599915    1.00000000    2.78999996
   17.74166679  151.61000061    1.00000000    2.78999996
   17.74500084  161.20899963    1.00000000    2.80999994
   17.75111198  161.20899963    0.98000002    2.78999996
   17.75527763  160.83299255    0.98000002    2.78999996
   17.75833321  149.35000610    0.98000002    2.78999996
   17.75972176  149.66499329    0.98000002    2.78999996
   17.76222229  150.78500366    0.98000002    2.80999994
   17.76527786  142.78399658    0.98000002    2.78999996
   17.76861000  140.66299438    1.00000000    2.78999996
   17.77166557  149.97700500    0.98000002    2.78999996
   17.79416656  149.97700500    0.98000002    2.78999996
   17.79833221  151.56399536    0.95999998    2.78999996
   17.80166626  146.89900208    0.95999998    2.78999996
   17.80472183  158.86799622    0.95999998    2.78999996
   17.80805397  153.27900696    0.95999998    2.78999996
   17.81138802  143.93299866    0.95999998    2.78999996
   17.81444359  144.70100403    0.95999998    2.78999996
   17.81777954  156.11999512    0.95999998    2.78999996
   17.82083511  152.89300537    0.95999998    2.78999996
   17.82416725  140.19599915    0.95999998    2.78999996
   17.82666779  134.31700134    0.95999998    2.78999996
   17.82777786  158.04499817    0.95999998    2.78999996
   17.83111191  145.42100525    0.95999998    2.78999996
   17.83694458  145.42100525    0.95999998    2.78999996
   17.84111214  163.94099426    0.95999998    2.78999996
   17.84444427  161.94000244    0.95999998    2.78999996
   17.84749985  147.49600220    0.94000000    2.78999996
   17.85083389  155.09599304    0.94000000    2.78999996
   17.85388947  154.75799561    0.94000000    2.78999996
   17.85722351  147.37800598    0.94000000    2.78999996
   17.86000061  160.06500244    0.94000000    2.78999996
   17.86083412  154.20500183    0.94000000    2.78999996
   17.86416626  148.54600525    0.92000002    2.78999996
   17.86722183  154.33200073    0.92000002    2.78999996
   17.87055588  155.48699951    0.92000002    2.78999996
   17.87388992  147.95799255    0.92000002    2.80999994
   17.88000107  147.95799255    0.92000002    2.78999996
   17.88388824  158.07899475    0.92000002    2.78999996
   17.88722229  167.37699890    0.92000002    2.78999996
   17.89055634  161.93499756    0.94000000    2.78999996
   17.89333344  149.27799988    0.94000000    2.78999996
   17.89416695  158.48300171    0.94000000    2.78999996
   17.89749908  139.63699341    0.94000000    2.78999996
   17.90083313  166.96600342    0.94000000    2.78999996
   17.90416718  165.06199646    0.95999998    2.78999996
   17.90722275  151.36900330    0.94000000    2.78999996
   17.91055489  164.28399658    0.95999998    2.78999996
   17.91388893  159.36700439    0.94000000    2.78999996
   17.91694450  154.10499573    0.95999998    2.78999996
   17.92277718  154.10499573    0.95999998    2.78999996
   17.92694473  148.51100159    0.98000002    2.78999996
   17.93000031  159.14100647    0.95999998    2.78999996
   17.93333244  160.98699951    0.95999998    2.78999996
   17.93666649  151.12500000    0.95999998    2.78999996
   17.93999863  149.31799316    0.98000002    2.78999996
   17.94305420  149.58700562    0.98000002    2.78999996
   17.94638824  137.53300476    0.98000002    2.78999996
   17.94944382  153.29200745    0.98000002    2.78999996
   17.95277786  146.59700012    0.98000002    2.76999998
   17.95611191  149.03500366    0.98000002    2.78999996
   17.95916748  153.44599915    0.98000002    2.78999996
   17.96000099  160.46400452    0.98000002    2.78999996
   17.96611214  160.46400452    0.98000002    2.78999996
   17.97027779  149.33099365    0.98000002    2.78999996
   17.97333336  146.87899780    0.98000002    2.76999998
   17.97666740  154.28900146    0.98000002    2.78999996
   17.98000145  158.32400513    0.98000002    2.78999996
   17.98305511  148.18600464    0.98000002    2.78999996
   17.98638916  141.48399353    0.98000002    2.78999996
   17.98944473  150.82499695    0.98000002    2.78999996
   17.99277878  144.04299927    0.98000002    2.76999998
   17.99333382  146.05499268    0.98000002    2.78999996
   17.99638939  151.29200745    0.98000002    2.78999996
   17.99944496  154.90299988    0.98000002    2.78999996
   18.00277710  163.40100098    0.98000002    2.78999996
   18.00833321  163.40100098    0.95999998    2.78999996
   18.01250076  149.19900513    0.95999998    2.78999996
   18.01583290  155.93800354    0.95999998    2.76999998
   18.01916695  151.24299622    0.94000000    2.78999996
   18.02222252  150.99000549    0.95999998    2.78999996
   18.02555466  139.86700439    0.94000000    2.78999996
   18.02666664  151.05700684    0.94000000    2.78999996
   18.02916718  147.88999939    0.95999998    2.78999996
   18.03222275  164.72700500    0.95999998    2.78999996
   18.03555489  151.34800720    0.95999998    2.78999996
   18.03888893  148.14599609    0.95999998    2.78999996
   18.04194450  138.14300537    0.98000002    2.78999996
   18.04527664  150.01300049    0.98000002    2.76999998
   18.05138779  150.01300049    0.98000002    2.78999996
   18.05555534  151.08900452    0.98000002    2.78999996
   18.05861092  164.09100342    0.98000002    2.78999996
   18.05999947  152.18099976    0.98000002    2.78999996
   18.06250000  151.81300354    0.98000002    2.78999996
   18.06555557  155.03700256    0.98000002    2.78999996
   18.06888962  150.59700012    0.95999998    2.78999996
   18.07222366  148.81500244    0.95999998    2.78999996
   18.07527924  146.85400391    1.00000000    2.78999996
   18.07861137  141.36399841    1.00000000    2.76999998
   18.08166695  147.80700684    1.01999998    2.78999996
   18.08500099  147.98800659    1.01999998    2.76999998
   18.08833313  140.24899292    1.00000000    2.78999996
   18.09416771  140.24899292    1.00000000    2.78999996
   18.09833336  152.52099609    0.98000002    2.78999996
   18.10138893  157.39599609    0.98000002    2.78999996
   18.10472298  154.62899780    0.95999998    2.78999996
   18.10805511  145.85800171    0.95999998    2.78999996
   18.11111069  153.16000366    0.94000000    2.78999996
   18.11444473  137.94000244    0.94000000    2.78999996
   18.11777878  152.40800476    0.94000000    2.78999996
   18.12083435  151.11900330    0.94000000    2.78999996
   18.12416649  149.34599304    0.94000000    2.78999996
   18.12666702  161.02499390    0.92000002    2.78999996
   18.12777710  161.41200256    0.92000002    2.78999996
   18.13083267  157.40199280    0.92000002    2.78999996
   18.13694382  157.40199280    0.92000002    2.78999996
   18.14111137  139.18600464    0.92000002    2.78999996
   18.14444351  137.53799438    0.92000002    2.78999996
   18.14749908  141.17199707    0.92000002    2.78999996
   18.15083313  142.95100403    0.89999998    2.76999998
   18.15416718  145.88099670    0.88000000    2.78999996
   18.15722275  140.76899719    0.88000000    2.78999996
   18.15999985  146.15600586    0.86000001    2.78999996
   18.16110992  147.48199463    0.88000000    2.78999996
   18.16416550  146.35000610    0.88000000    2.78999996
   18.16749954  158.07600403    0.86000001    2.78999996
   18.17083359  141.69000244    0.86000001    2.78999996
   18.17388916  150.81799316    0.86000001    2.78999996
   18.17972183  150.81799316    0.86000001    2.78999996
   18.18388748  149.81100464    0.86000001    2.78999996
   18.18722153  152.47300720    0.88000000    2.78999996
   18.19055557  146.07800293    0.86000001    2.78999996
   18.19333267  153.88000488    0.86000001    2.78999996
   18.19416618  151.63200378    0.86000001    2.78999996
   18.19722176  148.60400391    0.86000001    2.78999996
   18.20055580  142.33399963    0.86000001    2.78999996
   18.20388985  149.12399292    0.88000000    2.78999996
   18.20694542  149.22500610    0.88000000    2.78999996
   18.21027946  131.82200623    0.89999998    2.78999996
   18.21333504  147.18499756    0.89999998    2.78999996
   18.21666718  141.24200439    0.89999998    2.76999998
   18.22277832  141.24200439    0.92000002    2.78999996
   18.22694588  138.20100403    0.92000002    2.78999996
   18.23000145  147.68800354    0.94000000    2.78999996
   18.23333359  142.38800049    0.92000002    2.78999996
   18.23638916  133.32200623    0.92000002    2.78999996
   18.23972321  141.89999390    0.94000000    2.78999996
   18.24305534  144.63999939    0.94000000    2.76999998
   18.24611092  131.10400391    0.94000000    2.76999998
   18.24944496  146.15199280    0.94000000    2.78999996
   18.25277710  146.17799377    0.94000000    2.76999998
   18.25583267  142.28399658    0.95999998    2.76999998
   18.25916672  158.84300232    0.95999998    2.76999998
   18.26000023  140.10400391    0.95999998    2.76999998
   18.26555634  140.10400391    0.98000002    2.78999996
   18.26972198  156.18200684    0.95999998    2.78999996
   18.27277756  158.13299561    0.95999998    2.78999996
   18.27611160  147.52799988    0.95999998    2.78999996
   18.27944374  142.89700317    0.95999998    2.76999998
   18.28249931  147.89500427    0.95999998    2.76999998
   18.28583336  147.05400085    0.95999998    2.78999996
   18.28916550  160.13200378    0.98000002    2.76999998
   18.29222107  151.94900513    0.98000002    2.78999996
   18.29333305  160.03399658    0.98000002    2.76999998
   18.29583359  147.98699951    0.98000002    2.76999998
   18.29888916  153.53700256    1.00000000    2.76999998
   18.30222130  157.75500488    1.00000000    2.78999996
   18.30833244  157.75500488    1.01999998    2.76999998
   18.31250000  139.83500671    1.01999998    2.76999998
   18.31611061  151.84399414    1.00000000    2.76999998
   18.31916809  155.31500244    1.00000000    2.76999998
   18.32250023  154.29200745    1.01999998    2.76999998
   18.32583427  166.79800415    1.01999998    2.76999998
   18.32666779  153.35899353    1.01999998    2.76999998
   18.32944489  155.36599731    1.01999998    2.78999996
   18.33250046  158.10200500    1.01999998    2.78999996
   18.33583450  145.53199768    1.01999998    2.76999998
   18.33916664  139.77699280    1.01999998    2.76999998
   18.34222221  153.88200378    1.01999998    2.76999998
   18.34555626  145.75999451    1.01999998    2.76999998
   18.35111237  145.75999451    1.01999998    2.76999998
   18.35527802  158.28199768    1.01999998    2.76999998
   18.35861206  156.47500610    1.01999998    2.76999998
   18.36000061  162.06300354    1.00000000    2.76999998
   18.36222267  149.46400452    1.00000000    2.76999998
   18.36527824  153.91600037    1.00000000    2.76999998
   18.36861038  150.24000549    1.01999998    2.76999998
   18.37194443  161.47300720    1.01999998    2.76999998
   18.37500000  144.72200012    1.01999998    2.78999996
   18.37833405  142.05799866    1.01999998    2.78999996
   18.38166618  139.85899353    1.01999998    2.76999998
   18.38472176  147.04100037    1.03999996    2.76999998
   18.38805580  147.99200439    1.03999996    2.76999998
   18.39416695  147.99200439    1.01999998    2.76999998
   18.39833260  148.58999634    1.01999998    2.76999998
   18.40138817  115.80899811    1.01999998    2.78999996
   18.40472221  134.88400269    1.01999998    2.76999998
   18.40777779  131.95100403    1.00000000    2.76999998
   18.41110992  135.92700195    1.00000000    2.76999998
   18.41444397  129.24899292    1.00000000    2.76999998
   18.41749954  137.11700439    1.00000000    2.76999998
   18.42083359  148.11000061    1.00000000    2.76999998
   18.42416573  144.66600037    0.98000002    2.76999998
   18.42666626  143.35600281    1.00000000    2.76999998
   18.42777634  130.75999451    0.98000002    2.76999998
   18.43083191  136.98300171    0.98000002    2.76999998
   18.43694305  136.98300171    1.00000000    2.76999998
   18.44111061  139.53100586    1.00000000    2.76999998
   18.44444275  129.17300415    1.00000000    2.76999998
   18.44749832  125.59300232    1.03999996    2.78999996
   18.45083427  136.92300415    1.03999996    2.76999998
   18.45388985  135.45899963    1.03999996    2.76999998
   18.45722389  143.16099548    1.03999996    2.76999998
   18.46000099  138.02499390    1.03999996    2.76999998
   18.46083450  128.49600220    1.03999996    2.76999998
   18.46389008  137.18299866    1.05999994    2.76999998
   18.46722221  133.78300476    1.03999996    2.75000000
   18.47055626  144.29299927    1.05999994    2.76999998
   18.47361183  153.74299622    1.03999996    2.76999998
   18.47972298  153.74299622    1.03999996    2.76999998
   18.48388863  135.94299316    1.07000005    2.76999998
   18.48722267  134.76899719    1.05999994    2.76999998
   18.49027824  152.04899597    1.05999994    2.75000000
   18.49333382  141.20100403    1.03999996    2.76999998
   18.49444389  143.93400574    1.03999996    2.76999998
   18.49777794  141.73800659    1.01999998    2.76999998
   18.50083351  137.12500000    1.01999998    2.76999998
   18.50416756  141.57400513    1.01999998    2.76999998
   18.50722313  139.66099548    1.03999996    2.76999998
   18.51055527  145.67199707    1.01999998    2.76999998
   18.51388931  140.05000305    1.03999996    2.76999998
   18.51694489  154.16299438    1.03999996    2.75000000
   18.52249908  154.16299438    1.05999994    2.76999998
   18.52666664  149.56399536    1.05999994    2.76999998
   18.53000069  146.11000061    1.07000005    2.75000000
   18.53333282  137.64100647    1.07000005    2.75000000
   18.53666687  150.03599548    1.05999994    2.76999998
   18.53999901  151.87100220    1.05999994    2.76999998
   18.54333305  129.03199768    1.05999994    2.76999998
   18.54638863  147.98300171    1.05999994    2.76999998
   18.54972076  139.85400391    1.07000005    2.76999998
   18.55277634  140.97099304    1.05999994    2.76999998
   18.55611038  133.17700195    1.05999994    2.75000000
   18.55944443  139.81799316    1.05999994    2.76999998
   18.55999947  145.91900635    1.05999994    2.76999998
   18.56555557  145.91900635    1.05999994    2.75000000
   18.56972313  134.17599487    1.07000005    2.75000000
   18.57277870  125.91500092    1.07000005    2.75000000
   18.57611275  144.78399658    1.07000005    2.75000000
   18.57916832  156.14700317    1.07000005    2.75000000
   18.58250046  144.42999268    1.05999994    2.76999998
   18.58583450  147.47900391    1.05999994    2.76999998
   18.58889008  144.55900574    1.05999994    2.76999998
   18.59222221  141.47900391    1.07000005    2.75000000
   18.59333420  142.05499268    1.09000003    2.75000000
   18.59583473  147.83799744    1.09000003    2.75000000
   18.59916687  133.15400696    1.11000001    2.76999998
   18.60222244  137.76699829    1.11000001    2.76999998
   18.60833359  137.76699829    1.11000001    2.76999998
   18.61250114  151.04200745    1.09000003    2.76999998
   18.61583328  154.01199341    1.09000003    2.75000000
   18.61888885  157.97300720    1.09000003    2.76999998
   18.62222290  152.92900085    1.07000005    2.75000000
   18.62527847  148.95199585    1.07000005    2.75000000
   18.62666702  144.31799316    1.05999994    2.75000000
   18.62916756  158.71400452    1.05999994    2.75000000
   18.63249969  171.36000061    1.05999994    2.76999998
   18.63555527  145.76400757    1.05999994    2.76999998
   18.63888931  144.11399841    1.03999996    2.76999998
   18.64194489  156.52000427    1.01999998    2.76999998
   18.64527702  147.62699890    1.01999998    2.76999998
   18.65111160  147.62699890    1.05999994    2.76999998
   18.65527725  146.20899963    1.07000005    2.76999998
   18.65861130  142.94900513    1.09000003    2.75000000
   18.65999985  154.93899536    1.09000003    2.75000000
   18.66222191  151.89100647    1.09000003    2.75000000
   18.66555595  143.01300049    1.09000003    2.75000000
   18.66860962  152.26499939    1.09000003    2.75000000
   18.67194366  144.08000183    1.09000003    2.75000000
   18.67499924  155.00300598    1.09000003    2.75000000
   18.67833328  154.03900146    1.09000003    2.75000000
   18.68166542  149.76699829    1.09000003    2.75000000
   18.68472099  152.91799927    1.09000003    2.76999998
   18.68805504  151.52000427    1.09000003    2.75000000
   18.69388771  151.52000427    1.11000001    2.75000000
   18.69805527  153.99299622    1.11000001    2.75000000
   18.70138931  145.40100098    1.11000001    2.75000000
   18.70472336  148.41400146    1.11000001    2.75000000
   18.70777893  152.73399353    1.11000001    2.75000000
   18.71111107  137.07299805    1.11000001    2.75000000
   18.71444511  139.88200378    1.11000001    2.75000000
   18.71750069  139.62699890    1.09000003    2.75000000
   18.72083473  150.86500549    1.09000003    2.76999998
   18.72416687  147.09199524    1.09000003    2.75000000
   18.72666740  148.10699463    1.09000003    2.75000000
   18.72777748  145.02299500    1.09000003    2.75000000
   18.73111153  144.60200500    1.09000003    2.76999998
   18.73694420  144.60200500    1.09000003    2.75000000
   18.74111176  145.27499390    1.09000003    2.76999998
   18.74416733  143.29100037    1.07000005    2.75000000
   18.74749947  143.24699402    1.07000005    2.75000000
   18.75055504  144.58000183    1.07000005    2.75000000
   18.75388908  145.72300720    1.07000005    2.75000000
   18.75722313  143.87500000    1.03999996    2.76999998
   18.76000023  135.00599670    1.01999998    2.75000000
   18.76083374  132.81599426    1.01999998    2.76999998
   18.76416588  143.22000122    1.01999998    2.75000000
   18.76722145  144.15600586    1.01999998    2.75000000
   18.77055550  149.49299622    1.01999998    2.76999998
   18.77361107  151.24699402    1.03999996    2.75000000
   18.77972221  151.24699402    1.05999994    2.75000000
   18.78388786  152.80700684    1.05999994    2.75000000
   18.78694344  143.43699646    1.07000005    2.75000000
   18.80583191  143.38299561    1.09000003    2.75000000
   18.80694389  143.86500549    1.09000003    2.75000000
   18.81027794  143.08999634    1.09000003    2.75000000
   18.81361008  136.95599365    1.09000003    2.75000000
   18.81666756  140.82699585    1.09000003    2.75000000
   18.82277870  140.82699585    1.09000003    2.75000000
   18.82694626  146.73699951    1.09000003    2.75000000
   18.83027840  145.19000244    1.09000003    2.75000000
   18.83333397  141.11199951    1.09000003    2.75000000
   18.83666801  136.92199707    1.09000003    2.75000000
   18.83916664  142.02200317    1.11000001    2.75000000
   18.84027863  139.48699951    1.09000003    2.73000002
   18.84361267  158.70899963    1.11000001    2.75000000
   18.84666824  149.08200073    1.11000001    2.75000000
   18.85000038  141.38299561    1.11000001    2.75000000
   18.85333443  143.42599487    1.13000000    2.75000000
   18.85639000  134.11099243    1.11000001    2.75000000
   18.85972214  126.24199677    1.13000000    2.75000000
   18.86555672  126.24199677    1.11000001    2.75000000
   18.86972237  160.34500122    1.13000000    2.75000000
   18.87249947  157.09300232    1.13000000    2.75000000
   18.87333298  147.85499573    1.11000001    2.75000000
   18.87666702  142.37100220    1.11000001    2.75000000
   18.87972260  141.05599976    1.09000003    2.75000000
   18.88305473  137.24200439    1.09000003    2.75000000
   18.88638878  143.26800537    1.07000005    2.75000000
   18.88944435  161.64100647    1.07000005    2.75000000
   18.89277840  144.60299683    1.07000005    2.75000000
   18.89611053  151.31599426    1.07000005    2.75000000
   18.89944458  142.18600464    1.07000005    2.75000000
   18.90250015  151.13999939    1.07000005    2.75000000
   18.90861130  151.13999939    1.11000001    2.75000000
   18.91250038  150.08500671    1.14999998    2.75000000
   18.91583252  136.26199341    1.16999996    2.75000000
   18.91916656  153.13000488    1.19000006    2.75000000
   18.92222214  133.88400269    1.16999996    2.75000000
   18.92555428  146.95199585    1.19000006    2.73000002
   18.92888832  150.21499634    1.19000006    2.75000000
   18.93194389  142.77299500    1.19000006    2.73000002
   18.93527603  148.27099609    1.23000002    2.73000002
   18.93833160  158.62399292    1.19000006    2.75000000
   18.93944359  148.72099304    1.16999996    2.73000002
   18.94222069  163.37199402    1.16999996    2.73000002
   18.94527626  165.77799988    1.16999996    2.73000002
   18.95138931  165.77799988    1.16999996    2.75000000
   18.95555687  145.95100403    1.16999996    2.73000002
   18.95861244  143.41999817    1.16999996    2.73000002
   18.96194458  151.39399719    1.16999996    2.73000002
   18.96527863  143.70300293    1.19000006    0.03000000
   18.96833420  147.86999512    1.19000006    2.73000002
   18.97166634  155.13999939    1.16999996    2.73000002
   18.97277832  158.24000549    1.19000006    2.73000002
   18.97527885  158.12199402    1.16999996    2.73000002
   18.97833443  141.76199341    1.16999996    2.73000002
   18.98166656  141.19599915    1.16999996    2.73000002
   18.98500061  146.58799744    1.16999996    2.73000002
   18.98805618  151.59599304    1.16999996    2.73000002
   18.99416733  151.59599304    1.16999996    2.73000002
   18.99833298  165.78100586    1.14999998    2.75000000
   19.00166702  149.65400696    1.14999998    2.73000002
   19.00472260  154.13099670    1.14999998    2.75000000
   19.00638962  154.65199280    1.14999998    2.75000000
   19.00833321  149.85499573    1.13000000    2.75000000
   19.01166725  149.83200073    1.13000000    2.73000002
   19.01472282  153.33999634    1.13000000    2.73000002
   19.01805496  166.35499573    1.13000000    2.73000002
   19.02138901  147.19000244    1.13000000    2.73000002
   19.02444458  160.50700378    1.11000001    2.73000002
   19.02777672  162.20399475    1.11000001    2.75000000
   19.03111076  146.08299255    1.09000003    2.73000002
   19.03694344  146.08299255    1.09000003    2.75000000
   19.04111099  163.73199463    1.11000001    2.75000000
   19.04444313  157.79400635    1.13000000    2.73000002
   19.04749870  153.21000671    1.14999998    2.73000002
   19.05083275  158.58900452    1.13000000    2.75000000
   19.05416679  158.55599976    1.13000000    2.73000002
   19.05722237  148.29100037    1.13000000    2.75000000
   19.06055450  163.30599976    1.11000001    2.75000000
   19.06388855  162.52099609    1.09000003    2.73000002
   19.06694603  154.06700134    1.09000003    2.73000002
   19.07027817  151.26699829    1.11000001    2.75000000
   19.07305717  156.79299927    1.11000001    2.75000000
   19.07389069  164.95100403    1.11000001    2.75000000
   19.08000183  164.95100403    1.09000003    2.73000002
   19.08388901  141.32499695    1.11000001    2.73000002
   19.08722305  158.25100708    1.11000001    2.73000002
   19.09055710  151.40600586    1.13000000    2.73000002
   19.09361267  159.79200745    1.14999998    2.75000000
   19.09694481  157.72900391    1.13000000    2.73000002
   19.10027885  143.64999390    1.13000000    2.73000002
   19.10333443  146.50999451    1.13000000    2.75000000
   19.10639000  151.15899658    1.13000000    2.73000002
   19.10694504  162.99400330    1.13000000    2.73000002
   19.11027908  145.41099548    1.13000000    2.73000002
   19.11333466  154.69500732    1.14999998    2.73000002
   19.11666679  161.54100037    1.14999998    2.73000002
   19.12277794  161.54100037    1.19000006    2.73000002
   19.12694550  151.02400208    1.19000006    2.73000002
   19.13000107  143.20399475    1.19000006    2.73000002
   19.13333321  148.97000122    1.21000004    2.73000002
   19.13666725  152.61199951    1.19000006    2.73000002
   19.13972282  156.61999512    1.19000006    2.73000002
   19.13999939  154.58799744    1.19000006    2.73000002
   19.14333344  138.58000183    1.14999998    2.73000002
   19.14666748  144.35800171    1.13000000    2.73000002
   19.14972115  161.57600403    1.13000000    2.73000002
   19.15305519  154.10600281    1.11000001    2.73000002
   19.15611076  153.39900208    1.11000001    2.73000002
   19.15944481  156.91600037    1.11000001    2.73000002
   19.16555595  156.91600037    1.09000003    2.73000002
   19.16972160  147.25399780    1.07000005    2.73000002
   19.17305565  146.55700684    1.07000005    2.73000002
   19.17333221  140.19999695    1.07000005    2.73000002
   19.17666626  155.57699585    1.05999994    2.75000000
   19.18000031  150.19700623    1.05999994    2.73000002
   19.18305397  150.40499878    1.05999994    2.75000000
   19.18638802  138.31900024    1.05999994    2.73000002
   19.18944359  158.48500061    1.05999994    2.73000002
   19.19277763  146.40299988    1.05999994    2.73000002
   19.19610977  143.16700745    1.07000005    2.73000002
   19.19916534  143.54899597    1.11000001    2.73000002
   19.20250130  141.62899780    1.11000001    2.73000002
   19.20833397  141.62899780    1.14999998    2.73000002
   19.21250153  148.53300476    1.14999998    2.71000004
   19.21583366  155.07499695    1.16999996    2.73000002
   19.21888924  140.44599915    1.16999996    2.73000002
   19.22222328  139.86799622    1.16999996    2.71000004
   19.22555542  143.49600220    1.16999996    2.71000004
   19.22861099  141.83799744    1.19000006    2.71000004
   19.23194504  147.30499268    1.19000006    2.73000002
   19.23527718  145.30499268    1.16999996    2.73000002
   19.23833275  144.40299988    1.16999996    2.71000004
   19.23972321  158.92700195    1.16999996    2.71000004
   19.24194527  146.14700317    1.16999996    2.73000002
   19.24527740  150.48199463    1.16999996    2.71000004
   19.25138855  150.48199463    1.26999998    2.71000004
   19.25527763  150.28799438    1.34000003    2.73000002
   19.25861168  151.07699585    1.30999994    2.71000004
   19.26194382  146.30099487    1.19000006    2.73000002
   19.26499939  153.63600159    1.09000003    2.73000002
   19.26833344  152.13600159    1.09000003    2.73000002
   19.27166557  164.65699768    1.11000001    2.73000002
   19.27305603  149.21699524    1.09000003    2.71000004
   19.27499962  159.57400513    1.09000003    2.73000002
   19.27833366  155.62899780    1.09000003    2.73000002
   19.28166580  144.74899292    1.09000003    2.73000002
   19.28472137  149.96099854    1.05999994    2.73000002
   19.28805542  153.32200623    1.07000005    2.71000004
   19.29416656  153.32200623    1.07000005    2.71000004
   19.29833221  143.19999695    1.07000005    2.71000004
   19.30138779  143.42999268    1.07000005    2.71000004
   19.30472183  143.01499939    1.09000003    2.73000002
   19.30638885  151.17599487    1.11000001    2.71000004
   19.30833244  150.07699585    1.11000001    2.71000004
   19.31166649  139.32600403    1.13000000    2.73000002
   19.31472206  138.92199707    1.11000001    2.71000004
   19.31805611  124.75599670    1.11000001    2.71000004
   19.32139015  140.46000671    1.09000003    2.71000004
   19.32444572  150.31700134    1.11000001    2.71000004
   19.32777786  149.05400085    1.09000003    2.71000004
   19.33083344  144.13299561    1.09000003    2.73000002
   19.33694458  144.13299561    1.09000003    2.71000004
   19.34111214  141.41600037    1.11000001    2.71000004
   19.34444427  150.08000183    1.09000003    2.73000002
   19.34749985  138.17700195    1.09000003    2.73000002
   19.35083389  140.45899963    1.09000003    2.71000004
   19.35388947  143.44700623    1.05999994    2.71000004
   19.35722351  143.98699951    1.07000005    2.71000004
   19.36055565  143.79699707    1.07000005    2.71000004
   19.36361122  141.90499878    1.09000003    2.71000004
   19.36694527  140.97700500    1.13000000    2.71000004
   19.37027740  144.23199463    1.13000000    2.71000004
   19.37333298  145.21000671    1.16999996    2.71000004
   19.37388992  144.84599304    1.14999998    2.71000004
   19.37972260  144.84599304    1.21000004    2.71000004
   19.38388824  145.05900574    1.25000000    2.69000006
   19.38722229  144.73899841    1.25000000    2.71000004
   19.39027786  145.50799561    1.25000000    2.71000004
   19.39361191  147.54899597    1.26999998    2.71000004
   19.39694405  149.59700012    1.28999996    2.71000004
   19.39999962  141.05499268    1.30999994    2.71000004
   19.40333366  147.54600525    1.51999998    2.71000004
   19.40666580  142.99000549    1.75000000    2.71000004
   19.40694427  145.16900635    1.75000000    2.71000004
   19.41027832  142.82299805    2.15000010    2.66000009
   19.41333389  139.52200317    2.80999994    2.71000004
   19.41666603  147.05799866    2.71000004    2.71000004
   19.42277718  147.05799866    2.75000000    2.69000006
   19.42666626  151.16299438    2.75000000    2.67000008
   19.43000031  146.11599731    2.42000008    2.69000006
   19.43333244  156.96699524    1.94000006    2.69000006
   19.43638802  142.98599243    1.76999998    2.71000004
   19.43972206  141.58500671    1.71000004    2.69000006
   19.44027710  143.82299805    1.66999996    2.69000006
   19.44333267  143.42599487    1.88000000    2.69000006
   19.44666672  140.17100525    2.21000004    2.67000008
   19.45000076  132.95799255    2.39000010    2.67000008
   19.45305634  154.80499268    3.32999992    2.66000009
   19.45639038  145.01199341    4.38999987    2.64000010
   19.45972252  141.02699280    4.55999994    2.66000009
   19.46555710  141.02699280    4.21999979    2.66000009
   19.46972275  141.68800354    3.20000005    2.67000008
   19.47277832  139.93400574    2.76999998    2.66000009
   19.47361183  140.87500000    2.67000008    2.69000006
   19.47638893  145.63099670    2.36999989    2.66000009
   19.47972298  134.02600098    2.09999990    2.69000006
   19.48444557   -1.00000000   -1.00000000   -1.00000000
   19.62166595   -1.00000000   -1.00000000   -1.00000000
   19.64388847  145.08399963    1.25000000    2.67000008
   19.64722252  150.81500244    1.23000002    2.69000006
   19.65027809  126.18000031    1.23000002    2.69000006
   19.65361023  150.05799866    1.21000004    2.67000008
   19.65694427  151.69500732    1.25000000    2.69000006
   19.65999985  143.26300049    1.25000000    2.69000006
   19.66416550  143.26300049    1.25000000    2.67000008
   19.66833305  154.33799744    1.25000000    2.69000006
   19.67166519  136.61300659    1.26999998    2.67000008
   19.67472076  146.38099670    1.28999996    2.67000008
   19.67694473  142.06300354    1.28999996    2.69000006
   19.67833328  143.31100464    1.28999996    2.67000008
   19.68166542  144.08500671    1.30999994    2.67000008
   19.68472099  150.98500061    1.26999998    2.67000008
   19.68805504  146.78900146    1.23000002    2.67000008
   19.69111061  147.35099792    1.21000004    2.69000006
   19.69444275  139.51199341    1.21000004    2.67000008
   19.69777679  147.92500305    1.23000002    2.69000006
   19.70083427  152.75799561    1.21000004    2.69000006
   19.70694542  152.75799561    1.21000004    2.67000008
   19.71111107  149.16099548    1.16999996    2.69000006
   19.71444511  158.98399353    1.13000000    2.69000006
   19.71750069  148.26300049    1.13000000    2.69000006
   19.72083473  161.83799744    1.13000000    2.69000006
   19.72416687  151.69599915    1.13000000    2.67000008
   19.72750092  150.69700623    1.11000001    2.69000006
   19.73055649  152.51199341    1.11000001    2.69000006
   19.73388863  138.27499390    1.11000001    2.69000006
   19.73694420  159.11900330    1.09000003    2.69000006
   19.74027824  148.22399902    1.09000003    2.69000006
   19.74361229  158.96699524    1.07000005    2.69000006
   19.74416733  144.25100708    1.07000005    2.69000006
   19.75000000  144.25100708    1.07000005    2.69000006
   19.75388908  148.87500000    1.07000005    2.69000006
   19.75722313  141.78100586    1.07000005    2.69000006
   19.76055527  163.07899475    1.03999996    2.69000006
   19.76361084  158.19900513    1.05999994    2.69000006
   19.76694489  159.51499939    1.07000005    2.69000006
   19.77027702  152.84800720    1.07000005    2.69000006
   19.77333260  159.55000305    1.07000005    2.67000008
   19.77666664  156.86900330    1.09000003    2.67000008
   19.77750015  163.74800110    1.09000003    2.67000008
   19.78027725  154.11900330    1.09000003    2.67000008
   19.78361130  160.77299500    1.11000001    2.67000008
   19.78694344  159.66799927    1.14999998    2.67000008
   19.79277802  159.66799927    1.13000000    2.67000008
   19.79694366  149.34899902    1.14999998    2.67000008
   19.79999924  160.89399719    1.16999996    2.66000009
   19.80333328  148.11700439    1.19000006    2.67000008
   19.80666542  156.18899536    1.19000006    2.67000008
   19.80972099  153.88200378    1.19000006    2.67000008
   19.81083298  143.77900696    1.19000006    2.67000008
   19.81333351  158.66999817    1.19000006    2.67000008
   19.81666756  157.21899414    1.21000004    2.67000008
   19.82000160  150.24499512    1.19000006    2.66000009
   19.82305717  161.23199463    1.21000004    2.67000008
   19.82638931  152.33700562    1.21000004    2.67000008
   19.82944489  157.09399414    1.21000004    2.66000009
   19.83555603  157.09399414    1.28999996    2.67000008
   19.83972359  139.84899902    1.23000002    2.67000008
   19.84305573  149.48500061    1.30999994    2.67000008
   19.84416771  143.97599792    1.30999994    2.67000008
   19.84638977  143.09899902    1.30999994    2.67000008
   19.84972191  139.66099548    1.33000004    2.67000008
   19.85305595  149.25500488    1.34000003    2.67000008
   19.85611153  149.75900269    1.36000001    2.67000008
   19.85944557  148.79100037    1.44000006    2.66000009
   19.86250114  151.84300232    1.51999998    2.66000009
   19.86583328  156.97099304    1.61000001    2.66000009
   19.86916733  160.11599731    1.71000004    2.66000009
   19.87222290  143.78399658    1.73000002    2.66000009
   19.87833405  143.78399658    1.33000004    2.66000009
   19.88249969  149.46899414    1.33000004    2.66000009
   19.88583374  151.46099854    1.33000004    2.66000009
   19.88888931  160.51800537    1.33000004    2.66000009
   19.89222145  151.56300354    1.33000004    2.67000008
   19.89555550  159.43899536    1.36000001    2.66000009
   19.89861107  167.49099731    1.38000000    2.66000009
   19.90194321  154.21400452    1.38000000    2.66000009
   19.90527725  158.74400330    1.34000003    2.67000008
   19.90833282  153.30599976    1.30999994    2.67000008
   19.91083336  139.77200317    1.28999996    2.66000009
   19.91194344  155.14100647    1.28999996    2.66000009
   19.91527748  145.04600525    1.26999998    2.66000009
   19.92138863  145.04600525    1.26999998    2.66000009
   19.92527771  149.56799316    1.26999998    2.66000009
   19.92860985  157.92999268    1.26999998    2.66000009
   19.93194389  153.93499756    1.26999998    2.66000009
   19.93499947  145.86099243    1.25000000    2.66000009
   19.93833160  157.94700623    1.21000004    2.66000009
   19.94166565  156.28100586    1.19000006    2.66000009
   19.94416618  144.77799988    1.19000006    2.66000009
   19.94499969  160.23100281    1.19000006    2.66000009
   19.94833183  158.08799744    1.19000006    2.67000008
   19.95166779  155.64999390    1.16999996    2.66000009
   19.95472336  162.02200317    1.26999998    2.66000009
   19.95805550  154.02499390    1.26999998    2.66000009
   19.96416664  154.02499390    1.28999996    2.66000009
   19.96833420  162.04499817    1.26999998    2.66000009
   19.97138977  154.56199646    1.26999998    2.66000009
   19.97472191  157.53100586    1.26999998    2.66000009
   19.97750092  146.52699280    1.21000004    2.66000009
   19.97833443  159.87899780    1.23000002    2.66000009
   19.98166656  155.04299927    1.28999996    2.66000009
   19.98500061  150.80599976    1.33000004    2.66000009
   19.98805618  150.63900757    1.28999996    2.66000009
   19.99138832  147.52099609    1.25000000    2.66000009
   19.99472237  159.18899536    1.23000002    2.66000009
   19.99777794  158.47599792    1.19000006    2.66000009
   20.00111198  160.65800476    1.13000000    2.66000009
   20.00694466  160.65800476    1.13000000    2.66000009
   20.01111031  165.91400146    1.13000000    2.66000009
   20.01444435  158.01899719    1.09000003    2.67000008
   20.01749992  158.50399780    1.09000003    2.67000008
   20.02083397  150.25300598    1.09000003    2.67000008
   20.02388954  153.69500732    1.09000003    2.66000009
   20.02722168  160.08799744    1.09000003    2.66000009
   20.03055573  158.92399597    1.09000003    2.66000009
   20.03361130  155.45300293    1.13000000    2.66000009
   20.03694344  147.21400452    1.16999996    2.66000009
   20.04027748  155.78799438    1.16999996    2.66000009
   20.04333305  167.19099426    1.16999996    2.66000009
   20.04416656  166.32099915    1.16999996    2.66000009
   20.04972076  166.32099915    1.16999996    2.66000009
   20.05388832  161.88000488    1.21000004    2.64000010
   20.05722237  161.07200623    1.23000002    2.64000010
   20.06055450  163.46200562    1.25000000    2.64000010
   20.06361008  156.07600403    1.26999998    2.64000010
   20.06694603  158.70100403    1.26999998    2.64000010
   20.07000160  154.19099426    1.26999998    2.64000010
   20.07333374  152.43699646    1.28999996    2.64000010
   20.07666779  161.31399536    1.26999998    2.64000010
   20.07750130  162.67500305    1.28999996    2.64000010
   20.08000183  156.08099365    1.28999996    2.64000010
   20.08333397  152.32200623    1.25000000    2.64000010
   20.08666801  156.68299866    1.25000000    2.64000010
   20.09277916  156.68299866    1.25000000    2.64000010
   20.09666824  154.66999817    1.21000004    2.66000009
   20.10000038  156.58399963    1.23000002    2.64000010
   20.10333443  165.85200500    1.25000000    2.64000010
   20.10639000  162.29899597    1.25000000    2.64000010
   20.10972214  166.83500671    1.26999998    2.61999989
   20.11083412  167.87199402    1.26999998    2.64000010
   20.11333466  166.20799255    1.28999996    2.64000010
   20.11666679  165.03300476    1.30999994    2.64000010
   20.12000084  169.38299561    1.55999994    2.64000010
   20.12305641  170.17199707    1.63000000    2.64000010
   20.12638855  157.71600342    2.36999989    2.64000010
   20.12972260  175.33999634    2.80999994    2.61999989
   20.13555527  175.33999634    4.90999985    2.55999994
   20.13972282  182.85400391    4.90999985    2.34999990
   20.14277840  171.94999695    4.90999985    2.46000004
   20.14416695  176.98599243    4.90999985    2.50000000
   20.14638901  186.29400635    4.90999985    2.57999992
   20.14972115  167.58700562    4.61999989    2.61999989
   20.15305519  172.69799805    3.51999998    2.61999989
   20.15611076  180.58900452    2.75000000    2.61999989
   20.15944481  174.21899414    2.40000010    2.61999989
   20.16277695  171.23699951    2.19000006    2.64000010
   20.16583252  166.90400696    1.96000004    2.64000010
   20.16916656  154.52200317    2.01999998    2.64000010
   20.17222214  165.77499390    2.57999992    2.64000010
   20.17833328  165.77499390    2.66000009    2.64000010
   20.18249893  171.93699646    2.66000009    2.64000010
   20.18583298  152.58999634    4.90999985    2.51999998
   20.18888855  164.46400452    4.90999985    2.55999994
   20.19222069  167.86099243    4.90999985    2.57999992
   20.19527626  175.14799500    4.90999985    2.57999992
   20.19861031  170.89799500    4.90999985    2.55999994
   20.20194435  148.56300354    4.90999985    2.55999994
   20.20499992  147.28399658    4.90999985    2.55999994
   20.20833397  177.89300537    4.90999985    2.55999994
   20.21083450  139.69500732    4.90999985    2.50000000
   20.21194458  346.50100708    4.90999985    2.50000000
   20.21416664  395.42599487    4.90999985    2.50000000
   20.21527863  344.59600830    4.90999985    2.50000000
   20.21666718  536.33300781    4.90999985    2.50000000
   20.21805573  451.29299927    4.90999985    2.50000000
   20.21944427  380.61199951    4.90999985    2.50000000
   20.22083473  313.93600464    4.90999985    2.50000000
   20.22222328  232.50599670    4.90999985    2.50000000
   20.22249985  147.28399658    4.90999985    2.55999994
   20.22249985  177.89300537    4.90999985    2.55999994
   20.22249985  346.50100708    4.90999985    2.50000000
   20.22277832  152.58999634    4.90999985    2.51999998
   20.22277832  164.46400452    4.90999985    2.55999994
   20.22277832  167.86099243    4.90999985    2.57999992
   20.22305679  175.14799500    4.90999985    2.57999992
   20.22305679  170.89799500    4.90999985    2.55999994
   20.22305679  148.56300354    4.90999985    2.55999994
   20.22361183  238.37899780    4.90999985    2.50000000
   20.22694588  201.96499634    4.90999985    2.50000000
   20.23027802  181.03100586    4.90999985    2.50000000
   20.23333359  172.82899475    4.90999985    2.50000000
   20.23666763  191.68800354    4.90999985    2.36999989
   20.24305534  191.68800354    4.90999985    2.00000000
   20.24722290  191.74899292    4.90999985    2.00000000
   20.25055504  185.58799744    4.90999985    2.00000000
   20.25361061  177.72999573    4.90999985    2.00000000
   20.25611115  180.97500610    4.90999985    2.00000000
   20.25749969  181.37899780    4.90999985    2.00000000
   20.26083374  189.31300354    4.90999985    2.00000000
   20.26388931  194.69000244    4.90999985    2.57999992
   20.26722145  182.24899292    4.90999985    2.51999998
   20.27027702  173.05999756    4.90999985    2.50000000
   20.27361107  171.83099365    4.90999985    2.51999998
   20.27694511  182.60499573    4.90999985    2.51999998
   20.28000069  186.76800537    4.90999985    2.50000000
   20.28610992  186.76800537    4.90999985    2.50000000
   20.28999901  196.21400452    4.90999985    2.32999992
   20.29333305  167.86099243    4.90999985    2.32999992
   20.29666710  168.90199280    4.90999985    2.42000008
   20.29972076  194.73699951    4.90999985    2.42000008
   20.30305481  162.07699585    4.90999985    2.42000008
   20.30638885  169.55099487    4.90999985    2.42000008
   20.30944443  168.45899963    4.90999985    2.48000002
   20.31277657  188.86000061    4.90999985    2.48000002
   20.31583214  168.23699951    4.90999985    2.48000002
   20.31916809  172.58099365    4.90999985    2.51999998
   20.32250023  186.84500122    4.90999985    2.51999998
   20.32305717  179.11599731    4.90999985    2.51999998
   20.32888985  179.11599731    4.90999985    2.55999994
   20.33305550  177.69299316    4.90999985    2.55999994
   20.33611107  160.19599915    4.90999985    2.55999994
   20.33944511  175.47200012    4.90999985    2.55999994
   20.34277916  166.34500122    4.90999985    2.51999998
   20.34583473  172.50599670    4.90999985    2.50000000
   20.34916687  175.64900208    4.90999985    2.50000000
   20.35222244  178.36700439    4.90999985    2.50000000
   20.35555649  174.39799500    4.90999985    2.50000000
   20.35639000  174.11500549    4.90999985    2.50000000
   20.35916710  175.15100098    4.90999985    2.50000000
   20.36250114  170.24699402    4.90999985    2.50000000
   20.36583328  172.24299622    4.90999985    2.50000000
   20.37166595  172.24299622    4.90999985    2.50000000
   20.37583351  170.63800049    4.90999985    2.50000000
   20.37916756  153.73899841    4.90999985    2.50000000
   20.38222313  174.32200623    4.90999985    2.50000000
   20.38555527  159.94299316    4.90999985    2.50000000
   20.38861084  160.60800171    4.90999985    2.50000000
   20.38972282  171.11500549    4.90999985    2.50000000
   20.39222145  169.86599731    4.90999985    2.50000000
   20.39555550  163.05099487    4.90999985    2.50000000
   20.39888954  142.92399597    4.90999985    2.50000000
   20.40194321  139.90699768    4.90999985    2.50000000
   20.40527725  116.88800049    4.90999985    2.50000000
   20.40833282  125.30599976    4.90999985    2.50000000
   20.41444397  125.30599976    4.90999985    2.50000000
   20.41860962  149.57499695    3.43000007    2.55999994
   20.42194366  164.11500549    3.43000007    2.55999994
