    HOUR (UT)   FLARE FACTOR    SKY TESTER    SUN TESTER
   11.58444405   -1.00000000   -1.00000000   -1.00000000
   11.62055588  145.14100647    0.13000000    0.03000000
   11.62361145  143.02299500    0.13000000    0.01000000
   11.62694454  134.38800049    0.13000000    0.01000000
   11.63000011  145.43499756    0.13000000    0.01000000
   11.63333321  147.66099548    0.13000000    0.01000000
   11.63666630  136.41700745    0.13000000    0.03000000
   11.64083290  136.41700745    0.13000000    0.03000000
   11.64472198  140.01800537    0.13000000    0.01000000
   11.64805508  140.89399719    0.13000000    0.01000000
   11.65138817  145.99499512    0.13000000    0.01000000
   11.65361118  139.77299500    0.13000000    0.01000000
   11.65499973  141.53199768    0.13000000    0.03000000
   11.65833282  143.74299622    0.13000000    0.01000000
   11.66138840  143.98899841    0.13000000    0.03000000
   11.66472149  150.09199524    0.13000000    0.03000000
   11.66805553  145.18600464    0.13000000    0.03000000
   11.67111111  144.16900635    0.13000000    0.01000000
   11.67444515  141.83900452    0.13000000    0.03000000
   11.67750072  133.47000122    0.13000000    0.01000000
   11.68361092  133.47000122    0.17000000    0.03000000
   11.68777752  132.63299561    0.61000001    2.69000006
   11.69083309  140.64700317    4.90999985    2.66000009
   11.69416714  137.57699585    0.51999998    2.61999989
   11.69750023  132.57400513    0.50000000    2.61999989
   11.70055580  149.78300476    0.50000000    2.59999990
   11.70388889  148.65100098    0.50000000    2.59999990
   11.70694447  142.14900208    0.51999998    2.59999990
   11.71027756  143.77099609    0.51999998    2.61999989
   11.71361065  136.77900696    0.51999998    2.59999990
   11.71666622  136.03500366    0.51999998    2.61999989
   11.71999931  135.64700317    0.51999998    2.61999989
   11.72055531  134.58299255    0.51999998    2.61999989
   11.72638798  134.58299255    0.51999998    2.61999989
   11.73055553  138.30299377    0.51999998    2.61999989
   11.73388958  143.85899353    0.51999998    2.61999989
   11.73694515  138.78700256    0.51999998    2.61999989
   11.74027824  140.16299438    0.52999997    2.61999989
   11.74333382  140.75599670    0.51999998    2.61999989
   11.74666691  136.52799988    0.51999998    2.61999989
   11.75000000  147.56500244    0.51999998    2.61999989
   11.75305557  135.79200745    0.51999998    2.61999989
   11.75388908  142.80299377    0.52999997    2.61999989
   11.75694466  139.44200134    0.52999997    2.61999989
   11.76000023  129.12600708    0.52999997    2.61999989
   11.76333332  140.75000000    0.52999997    2.64000010
   11.76916599  140.75000000    0.51999998    2.61999989
   11.77333355  133.16000366    0.52999997    2.61999989
   11.77666664  137.78599548    0.52999997    2.61999989
   11.77999973  130.33200073    0.51999998    2.61999989
   11.78305531  132.77200317    0.52999997    2.64000010
   11.78638935  130.36099243    0.52999997    2.61999989
   11.78722286  132.31599426    0.52999997    2.61999989
   11.79027843  131.66200256    0.51999998    2.61999989
   11.79333401  139.36799622    0.52999997    2.64000010
   11.79666710  138.29699707    0.51999998    2.64000010
   11.79972267  139.97399902    0.51999998    2.64000010
   11.80305576  137.49299622    0.52999997    2.64000010
   11.80638885  135.04699707    0.52999997    2.64000010
   11.81194496  135.04699707    0.51999998    2.64000010
   11.81611156  137.96699524    0.50000000    2.64000010
   11.81944466  131.06199646    0.50000000    2.64000010
   11.82055569  138.43600464    0.51999998    2.64000010
   11.82305527  127.66699982    0.51999998    2.64000010
   11.82638836  128.20599365    0.51999998    2.64000010
   11.82972240  120.87300110    0.50000000    2.64000010
   11.83277798  132.55400085    0.50000000    2.64000010
   11.83611107  135.49099731    0.50000000    2.64000010
   11.83944416  134.47799683    0.50000000    2.64000010
   11.84249973  135.35699463    0.50000000    2.64000010
   11.84583282  131.58900452    0.50000000    2.64000010
   11.84888840  132.28700256    0.50000000    2.64000010
   11.85500050  132.28700256    0.50000000    2.64000010
   11.85916710  132.35000610    0.50000000    2.64000010
   11.86222267  137.09300232    0.50000000    2.64000010
   11.86555576  137.58399963    0.50000000    2.66000009
   11.86861134  134.95399475    0.51999998    2.66000009
   11.87194443  131.10800171    0.51999998    2.66000009
   11.87527752  133.66400146    0.51999998    2.66000009
   11.87861156  136.07299805    0.50000000    2.66000009
   11.88166714  137.25900269    0.51999998    2.66000009
   11.88500023  145.61199951    0.50000000    2.66000009
   11.88722229  138.34800720    0.50000000    2.66000009
   11.88833332  132.77699280    0.50000000    2.66000009
   11.89166641  135.35200500    0.50000000    2.66000009
   11.89777756  135.35200500    0.50000000    2.66000009
   11.90194416  134.83700562    0.50000000    2.66000009
   11.90499973  124.02700043    0.51999998    2.67000008
   11.90833282  135.91600037    0.50000000    2.67000008
   11.91166592  129.76100159    0.50000000    2.66000009
   11.91472149  127.50900269    0.50000000    2.67000008
   11.91805553  125.80999756    0.47999999    2.67000008
   11.92055607  132.78399658    0.47999999    2.66000009
   11.92166710  135.70199585    0.47999999    2.66000009
   11.92500019  128.10400391    0.47999999    2.66000009
   11.92833328  129.84300232    0.47999999    2.67000008
   11.93138885  126.94000244    0.47999999    2.67000008
   11.93472195  127.98600006    0.47999999    2.66000009
   11.94055557  127.98600006    0.50000000    2.67000008
   11.94472218  138.06799316    0.47999999    2.66000009
   11.94805527  134.16499329    0.47999999    2.66000009
   11.95111084  126.17500305    0.47999999    2.66000009
   11.95388889  127.95099640    0.50000000    2.67000008
   11.95472240  113.28199768    0.50000000    2.66000009
   11.95805550  124.96800232    0.50000000    2.66000009
   11.96138859  130.86199951    0.50000000    2.66000009
   11.96444416  121.41799927    0.47999999    2.67000008
   11.96777725  121.57900238    0.50000000    2.67000008
   11.97111034  127.88899994    0.50000000    2.67000008
   11.97416592  132.07200623    0.50000000    2.66000009
   11.97749996  133.15100098    0.50000000    2.67000008
   11.98333359  133.15100098    0.50000000    2.66000009
   11.98750019  136.32699585    0.51999998    2.67000008
   11.99083328  122.24500275    0.51999998    2.67000008
   11.99416733  128.09100342    0.51999998    2.67000008
   11.99722290  125.80200195    0.51999998    2.67000008
   12.00055599  124.65000153    0.50000000    2.67000008
   12.00388908  128.92300415    0.50000000    2.66000009
   12.00694466  123.94300079    0.51999998    2.67000008
   12.01027775  116.60900116    0.50000000    2.69000006
   12.01333332  130.13999939    0.50000000    2.69000006
   12.01666641  127.67500305    0.50000000    2.67000008
   12.01999950  122.62699890    0.51999998    2.69000006
   12.02055550  125.46499634    0.50000000    2.69000006
   12.02638817  125.46499634    0.50000000    2.69000006
   12.03055573  129.44700623    0.50000000    2.67000008
   12.03361130  125.76200104    0.50000000    2.69000006
   12.03694534  127.09999847    0.51999998    2.67000008
   12.04000092  122.57199860    0.52999997    2.67000008
   12.04333401  129.66900635    0.56999999    2.67000008
   12.04666710  127.91799927    0.75000000    2.67000008
   12.04972267  127.53500366    0.76999998    2.69000006
   12.05305576  120.04900360    1.00000000    2.67000008
   12.05388927  127.18499756    1.00000000    2.67000008
   12.05666733  126.01799774    1.09000003    2.69000006
   12.05972195  129.88200378    1.11000001    2.67000008
   12.06305599  127.53500366    1.25000000    2.69000006
   12.06916618  127.53500366    1.83000004    2.69000006
   12.07333374  125.87300110    2.30999994    2.69000006
   12.07638836  128.79499817    2.44000006    2.69000006
   12.07972240  127.94799805    2.30999994    2.69000006
   12.08305550  120.23799896    2.23000002    2.67000008
   12.08611107  122.31500244    2.23000002    2.67000008
   12.08722210  127.47699738    2.26999998    2.69000006
   12.09000015  130.63299561    2.44000006    2.69000006
   12.09305477  128.75700378    2.61999989    2.69000006
   12.09638882  123.36900330    2.59999990    2.67000008
   12.09944439  129.42300415    2.32999992    2.69000006
   12.10277843  120.66100311    2.34999990    2.67000008
   12.10611153  123.86799622    2.66000009    2.67000008
   12.11194515  123.86799622    3.25000000    2.66000009
   12.11611176  129.68099976    3.16000009    2.66000009
   12.11944485  132.17700195    3.11999989    2.66000009
   12.12055588  122.61699677    3.16000009    2.66000009
   12.12305546  133.00500488    3.34999990    2.67000008
   12.12611103  130.23399353    3.99000001    2.67000008
   12.12944412  126.19200134    4.90999985    2.67000008
   12.13277817  121.63800049    4.90999985    2.69000006
   12.13583279  128.20799255    4.90999985    2.67000008
   12.13916683  124.44999695    4.90999985    2.64000010
   12.14249992  126.01100159    4.90999985    2.61999989
   12.14555550  124.40499878    4.90999985    2.66000009
   12.14888859  132.63400269    4.90999985    2.71000004
   12.15499973  132.63400269    4.90999985    2.66000009
   12.15888882  135.13099670    4.90999985    2.64000010
   12.16222191  125.56400299    4.90999985    2.64000010
   12.16555500  130.30299377    4.90999985    2.59999990
   12.16861153  147.10000610    4.90999985    2.55999994
   12.17194462  157.81599426    4.90999985    2.51999998
   12.17500019  173.72999573    4.90999985    2.55999994
   12.17833328  182.62699890    4.90999985    2.61999989
   12.18166733  178.51100159    4.90999985    2.66000009
   12.18472195  193.69500732    4.90999985    2.61999989
   12.18722248  194.53500366    4.80999994    2.59999990
   12.18861103  204.71299744    4.19999981    2.59999990
   12.19166660  163.46000671    3.16000009    2.71000004
   12.19777775  163.46000671    1.76999998    2.71000004
   12.20194435  146.68200684    4.90999985    2.78999996
   12.20499992  188.50700378    4.90999985    2.76999998
   12.20833302  163.23599243    4.90999985    2.75000000
   12.21138859  168.69700623    4.90999985    2.76999998
   12.21472168  167.78300476    4.90999985    2.78999996
   12.21805477  168.59800720    4.90999985    2.76999998
   12.22055531  172.01499939    4.90999985    2.76999998
   12.22166634  182.15199280    4.90999985    2.78999996
   12.22472191  146.12500000    4.90999985    2.78999996
   12.22805500  163.10299683    4.90999985    2.78999996
   12.23111057  180.59800720    4.90999985    2.78999996
   12.23444462  203.51300049    4.90999985    2.76999998
   12.24055576  203.51300049    4.90999985    2.76999998
   12.24472237  205.82400513    4.90999985    2.76999998
   12.24777794  229.00799561    4.90999985    2.76999998
   12.25111103  191.50000000    4.90999985    2.78999996
   12.25388908  221.77799988    4.90999985    2.76999998
   12.25500011  208.74699402    4.90999985    2.78999996
   12.25805569  215.53700256    4.90999985    2.78999996
   12.26138878  213.41999817    4.90999985    2.78999996
   12.26472187  207.51199341    4.90999985    2.78999996
   12.26777744  210.76100159    4.90999985    2.78999996
   12.27111053  223.37800598    4.90999985    2.76999998
   12.27416611  208.22900391    4.90999985    2.78999996
   12.27750015  207.74800110    4.90999985    2.78999996
   12.28333378  207.74800110    4.90999985    2.78999996
   12.28750038  187.74699402    4.90999985    2.78999996
   12.29083347  169.34199524    4.90999985    2.78999996
   12.29388905  196.58799744    4.90999985    2.78999996
   12.29722309  189.16700745    4.90999985    2.78999996
   12.30055618  221.41000366    4.90999985    2.78999996
   12.30361176  199.11399841    4.90999985    2.78999996
   12.30694485  178.66900635    4.90999985    2.78999996
   12.31000042  218.81700134    4.90999985    2.78999996
   12.31333351  207.25700378    4.90999985    2.78999996
   12.31666660  165.14500427    4.90999985    2.78999996
   12.31972218  182.43600464    4.90999985    2.78999996
   12.32055569  182.19400024    4.90999985    2.78999996
   12.32611084  182.19400024    4.90999985    2.78999996
   12.33027744  187.86500549    4.90999985    2.78999996
   12.33361053  169.32699585    4.90999985    2.78999996
   12.33694458  209.91400146    4.90999985    2.78999996
   12.34000015  159.71299744    4.90999985    2.78999996
   12.34333324  173.39399719    4.90999985    2.78999996
   12.34638882  173.16900635    4.90999985    2.80999994
   12.34972191  194.72099304    4.90999985    2.78999996
   12.35305595  206.58500671    4.90999985    2.78999996
   12.35388947  178.33799744    4.90999985    2.78999996
   12.35666752  154.36300659    4.90999985    2.80999994
   12.35972214  179.16499329    4.90999985    2.78999996
   12.36305618  163.94000244    4.90999985    2.78999996
   12.36916637  163.94000244    4.90999985    2.78999996
   12.37333393  178.61399841    4.90999985    2.80999994
   12.37638855  203.36300659    4.90999985    2.78999996
   12.37972260  163.16999817    4.90999985    2.78999996
   12.38277817  184.72599792    4.90999985    2.78999996
   12.38611126  186.28999329    4.90999985    2.78999996
   12.38722229  169.71000671    4.90999985    2.80999994
   12.38972187  183.57899475    4.90999985    2.78999996
   12.39277744  161.14500427    4.90999985    2.78999996
   12.39611053  190.17300415    4.90999985    2.80999994
   12.39944458  198.60600281    4.90999985    2.80999994
   12.40249920  170.67399597    4.90999985    2.80999994
   12.40583324  146.02099609    4.90999985    2.80999994
   12.41194439  146.02099609    4.90999985    2.80999994
   12.41611099  142.59899902    4.90999985    2.80999994
   12.41944504  147.60099792    4.90999985    2.80999994
   12.42055607  161.08599854    4.90999985    2.78999996
   12.42305565  161.80400085    4.90999985    2.80999994
   12.42611122  162.65499878    4.90999985    2.80999994
   12.42944431  167.40100098    4.90999985    2.80999994
   12.43277836  156.79299927    4.90999985    2.80999994
   12.43583298  162.64500427    4.90999985    2.80999994
   12.43916702  171.05000305    4.90999985    2.80999994
   12.44222260  160.63099670    4.90999985    2.80999994
   12.44555569  149.35600281    4.90999985    2.80999994
   12.44888878  159.64700317    4.90999985    2.80999994
   12.45472240  159.64700317    4.90999985    2.82999992
   12.45888901  143.07099915    4.90999985    2.80999994
   12.46222210  131.68899536    4.90999985    2.82999992
   12.46527767  143.26400757    4.90999985    2.80999994
   12.46861076  150.81399536    4.90999985    2.82999992
   12.47194386  135.45599365    4.90999985    2.80999994
   12.47499943  126.38200378    4.90999985    2.80999994
   12.47833252  146.86900330    4.90999985    2.80999994
   12.48138809  125.27300262    4.90999985    2.80999994
   12.48472214  132.71099854    4.90999985    2.80999994
   12.48722267  120.90799713    4.90999985    2.80999994
   12.48833370  143.27600098    4.90999985    2.80999994
   12.49138927  125.36199951    4.90999985    2.80999994
   12.49777794  125.36199951    4.90999985    2.80999994
   12.50166702  112.27899933    4.90999985    2.82999992
   12.50500011  137.44900513    4.90999985    2.80999994
   12.50833321  140.98300171    4.90999985    2.82999992
   12.51138878  138.17700195    4.90999985    2.82999992
   12.51472187  137.18200684    4.90999985    2.80999994
   12.51805496  122.37599945    4.90999985    2.82999992
   12.52055550  135.52900696    4.90999985    2.80999994
   12.52166653  137.07899475    4.90999985    2.82999992
   12.52472210  127.04100037    4.90999985    2.82999992
   12.52805519  130.60099792    4.90999985    2.80999994
   12.53138828  134.57200623    4.90999985    2.82999992
   12.53444481  127.92400360    4.90999985    2.82999992
   12.54055595  127.92400360    4.90999985    2.82999992
   12.54472256  141.21699524    4.90999985    2.80999994
   12.54777813  138.26300049    4.90999985    2.84999990
   12.55111122  122.79000092    4.90999985    2.82999992
   12.55388927  132.62500000    4.90999985    2.82999992
   12.55472279  135.51899719    4.90999985    2.82999992
   12.55777836  127.31500244    4.90999985    2.82999992
   12.56111145  127.13999939    4.90999985    2.82999992
   12.56444454  138.85800171    4.90999985    2.82999992
   12.56750011  130.12600708    4.90999985    2.82999992
   12.57083321  130.11399841    4.90999985    2.82999992
   12.57388878  125.32299805    4.90999985    2.84999990
   12.57722187  131.20100403    4.90999985    2.84999990
   12.58361053  131.20100403    4.90999985    2.82999992
   12.58805561  139.78700256    4.90999985    2.82999992
   12.59138870  127.49099731    4.90999985    2.82999992
   12.59472179  130.30400085    4.90999985    2.82999992
   12.59777737  125.85900116    0.41999999    2.76999998
   12.60111141  130.91299438    0.41999999    2.76999998
   12.60444450  132.07699585    0.44000000    2.76999998
   12.60777855  132.50799561    0.46000001    2.76999998
   12.61083412  132.12600708    0.44000000    2.76999998
   12.61416721  138.78700256    0.46000001    2.76999998
   12.61722279  128.46299744    0.44000000    2.76999998
   12.62055588  132.87199402    0.46000001    2.76999998
   12.62111092  128.15499878    0.46000001    2.76999998
   12.64166641  128.15499878    0.46000001    2.76999998
   12.64583302  133.53700256    0.46000001    2.78999996
   12.64916611  131.60200500    0.46000001    2.76999998
   12.65222168  140.00000000    0.46000001    2.78999996
   12.65416622  134.37399292    0.46000001    2.78999996
   12.65638828  130.21600342    0.46000001    2.78999996
   12.65944386  132.28599548    0.44000000    2.78999996
   12.66277695  134.44299316    0.46000001    2.76999998
   12.66611099  130.08000183    0.44000000    2.76999998
   12.66916656  127.93699646    0.44000000    2.76999998
   12.67250061  131.66299438    0.44000000    2.76999998
   12.67555618  131.80200195    0.44000000    2.78999996
   12.67888927  133.48699951    0.46000001    2.78999996
   12.68444443  133.48699951    0.44000000    2.78999996
   12.68861103  139.69900513    0.46000001    2.76999998
   12.69194412  139.21200562    0.44000000    2.78999996
   12.69499969  133.96200562    0.44000000    2.76999998
   12.69833374  128.12199402    0.44000000    2.78999996
   12.70166683  134.44999695    0.44000000    2.78999996
   12.70472240  135.49200439    0.44000000    2.76999998
   12.70805550  129.98399353    0.44000000    2.76999998
   12.71111107  130.25199890    0.44000000    2.76999998
   12.71444416  127.98500061    0.46000001    2.78999996
   12.71777725  119.83699799    0.44000000    2.78999996
   12.72083282  134.54899597    0.44000000    2.78999996
   12.72138882  129.15299988    0.44000000    2.78999996
   12.72722149  129.15299988    0.44000000    2.76999998
   12.73138809  135.91099548    0.46000001    2.78999996
   12.73472214  127.48300171    0.46000001    2.78999996
   12.73805618  126.93199921    0.46000001    2.78999996
   12.74111176  132.34899902    0.44000000    2.76999998
   12.74444485  125.06099701    0.44000000    2.78999996
   12.74777794  138.00100708    0.44000000    2.76999998
   12.75111103  136.27799988    0.44000000    2.76999998
   12.75416660  145.08200073    0.44000000    2.78999996
   12.75472260  145.46699524    0.44000000    2.78999996
   12.75805569  150.30599976    0.44000000    2.78999996
   12.76138878  155.20899963    0.46000001    2.78999996
   12.76444435  152.76199341    0.46000001    2.78999996
   12.77027798  152.76199341    0.44000000    2.78999996
   12.77444458  147.24499512    0.44000000    2.78999996
   12.77750015  147.17999268    0.44000000    2.78999996
   12.78083324  142.19099426    0.44000000    2.78999996
   12.78416729  145.06700134    0.44000000    2.78999996
   12.78750038  141.73699951    0.44000000    2.80999994
   12.78777790  141.46600342    0.41999999    2.78999996
   12.79111195  140.62300110    0.41999999    2.78999996
   12.79444504  145.13000488    0.41999999    2.78999996
   12.79750061  135.43299866    0.41999999    2.78999996
   12.80083370  138.90400696    0.41999999    2.78999996
   12.80416679  145.43299866    0.41999999    2.78999996
   12.80722237  143.45899963    0.41999999    2.80999994
   12.81305599  143.45899963    0.41999999    2.78999996
   12.81722260  147.71800232    0.41999999    2.78999996
   12.82055569  166.04899597    0.41999999    2.80999994
   12.82111073  164.04600525    0.41999999    2.78999996
   12.82416630  160.18600464    0.41999999    2.78999996
   12.82750034  171.97799683    0.41999999    2.78999996
   12.83083344  159.45700073    0.41999999    2.78999996
   12.83388901  157.81500244    0.44000000    2.78999996
   12.83722210  159.01699829    0.41999999    2.78999996
   12.84055519  157.97200012    0.41999999    2.80999994
   12.84361076  158.15600586    0.41999999    2.80999994
   12.84694386  153.03999329    0.41999999    2.80999994
   12.85027790  145.36900330    0.44000000    2.78999996
   12.85583401  145.36900330    0.44000000    2.80999994
   12.86000061  165.78300476    0.44000000    2.80999994
   12.86333370  138.91200256    0.44000000    2.78999996
   12.86638927  154.38900757    0.44000000    2.78999996
   12.86972237  151.44799805    0.44000000    2.78999996
   12.87305546  146.49499512    0.44000000    2.80999994
   12.87611103  172.38800049    0.44000000    2.78999996
   12.87944412  179.41299438    0.44000000    2.80999994
   12.88249969  175.04200745    0.44000000    2.80999994
   12.88583279  166.31900024    0.44000000    2.80999994
   12.88749981  156.65199280    0.44000000    2.80999994
   12.88944435  168.81300354    0.44000000    2.78999996
   12.89277744  153.06900024    0.44000000    2.80999994
   12.89861107  153.06900024    0.44000000    2.80999994
   12.90277767  143.95399475    0.44000000    2.80999994
   12.90611076  154.15299988    0.44000000    2.80999994
   12.90916634  142.32200623    0.44000000    2.78999996
   12.91249943  156.90299988    0.44000000    2.82999992
   12.91583252  156.94799805    0.44000000    2.80999994
   12.91888905  144.00900269    0.44000000    2.80999994
   12.92083359  149.48800659    0.44000000    2.80999994
   12.92250061  150.81900024    0.44000000    2.80999994
   12.92583370  149.32400513    0.44000000    2.80999994
   12.92888927  132.26400757    0.41999999    2.80999994
   12.93222237  157.54100037    0.41999999    2.80999994
   12.93555546  142.08000183    0.44000000    2.80999994
   12.94166660  142.08000183    0.44000000    2.80999994
   12.94555569  140.01899719    0.44000000    2.80999994
   12.94888878  152.36099243    0.44000000    2.80999994
   12.95222187  141.82400513    0.44000000    2.80999994
   12.95416641  140.80499268    0.44000000    2.80999994
   12.95583344  141.70799255    0.44000000    2.80999994
   12.95916653  136.33599854    0.44000000    2.80999994
   12.96222210  146.34300232    0.44000000    2.80999994
   12.96555519  151.15899658    0.41999999    2.82999992
   12.96888828  152.64799500    0.41999999    2.80999994
   12.97194386  145.10099792    0.41999999    2.82999992
   12.97527695  149.77499390    0.41999999    2.82999992
   12.97861099  138.51400757    0.41999999    2.80999994
   12.98444462  138.51400757    0.41999999    2.80999994
   12.98861122  141.05900574    0.41999999    2.80999994
   12.99166679  149.90600586    0.41999999    2.82999992
   12.99499989  142.56199646    0.44000000    2.80999994
   12.99833393  141.93299866    0.44000000    2.80999994
   13.00138855  151.91200256    0.44000000    2.82999992
   13.00472260  143.29899597    0.44000000    2.82999992
   13.00777817  171.93200684    0.44000000    2.82999992
   13.01111126  156.51499939    0.44000000    2.80999994
   13.01444435  133.12600708    0.44000000    2.82999992
   13.01749992  132.72999573    0.44000000    2.82999992
   13.02083302  147.87899780    0.44000000    2.82999992
   13.02138901  144.52999878    0.44000000    2.82999992
   13.02722168  144.52999878    0.44000000    2.80999994
   13.03138828  147.05499268    0.46000001    2.80999994
   13.03472233  154.22099304    0.46000001    2.80999994
   13.03777790  139.71299744    0.46000001    2.82999992
   13.04111195  138.09100342    0.46000001    2.82999992
   13.04416752  143.48399353    0.46000001    2.82999992
   13.04750061  144.17599487    0.44000000    2.80999994
   13.05083370  135.54899597    0.44000000    2.82999992
   13.05388927  136.39900208    0.44000000    2.82999992
   13.05472279  140.18699646    0.44000000    2.82999992
   13.05777836  132.15899658    0.44000000    2.82999992
   13.06083393  130.81199646    0.44000000    2.82999992
   13.06416702  121.70800018    0.46000001    2.80999994
   13.06999969  121.70800018    0.44000000    2.82999992
   13.07416630  137.08399963    0.44000000    2.82999992
   13.07750034  147.05200195    0.44000000    2.82999992
   13.08055592  137.96200562    0.44000000    2.82999992
   13.08388901  142.30900574    0.44000000    2.82999992
   13.08722210  135.48699951    0.44000000    2.82999992
   13.08833313  134.81700134    0.44000000    2.82999992
   13.09111118  134.68099976    0.41999999    2.82999992
   13.09416676  130.23500061    0.41999999    2.80999994
   13.09749985  147.23800659    0.41999999    2.82999992
   13.10083389  133.88299561    0.41999999    2.82999992
   13.10388947  137.74600220    0.44000000    2.82999992
   13.10722256  142.73100281    0.41999999    2.82999992
   13.11305618  142.73100281    0.41999999    2.82999992
   13.11694431  128.67100525    0.41999999    2.82999992
   13.12027836  134.71000671    0.41999999    2.82999992
   13.12138939  141.72799683    0.41999999    2.82999992
   13.12416649  143.66400146    0.41999999    2.82999992
   13.12722206  147.88800049    0.44000000    2.84999990
   13.13055611  151.55400085    0.41999999    2.82999992
   13.13361073  146.32899475    0.44000000    2.82999992
   13.13694477  140.42100525    0.44000000    2.82999992
   13.14027786  142.27799988    0.44000000    2.80999994
   13.14333344  144.44799805    0.41999999    2.82999992
   13.14666653  154.16099548    0.44000000    2.82999992
   13.14999962  149.15499878    0.44000000    2.82999992
   13.15583324  149.15499878    0.44000000    2.82999992
   13.15999985  146.86900330    0.44000000    2.82999992
   13.16305542  161.19700623    0.44000000    2.82999992
   13.16638851  145.84500122    0.44000000    2.82999992
   13.16972256  147.11500549    0.41999999    2.84999990
   13.17277813  146.36799622    0.41999999    2.82999992
   13.17611122  161.83099365    0.40000001    2.82999992
   13.17916679  153.80099487    0.40000001    2.82999992
   13.18249989  152.74899292    0.40000001    2.82999992
   13.18583298  141.27900696    0.40000001    2.82999992
   13.18805599  138.35499573    0.40000001    2.82999992
   13.19000053  134.82099915    0.41999999    2.84999990
   13.19333363  147.95799255    0.40000001    2.82999992
   13.19861126  147.95799255    0.40000001    2.82999992
   13.20277786  138.70799255    0.40000001    2.82999992
   13.20611095  138.64399719    0.40000001    2.82999992
   13.20916653  144.61000061    0.40000001    2.82999992
   13.21249962  132.06199646    0.41999999    2.84999990
   13.21555519  155.43800354    0.41999999    2.84999990
   13.21888828  150.36500549    0.50000000    2.82999992
   13.22138882  137.84500122    0.51999998    2.84999990
   13.22277737  151.83599854    0.51999998    2.84999990
   13.22583294  154.52299500    0.51999998    2.82999992
   13.22916603  156.63499451    0.51999998    2.82999992
   13.23222160  150.64399719    0.75000000    2.84999990
   13.23555565  136.76699829    0.79000002    2.84999990
   13.24138927  136.76699829    0.79000002    2.82999992
   13.24555588  166.98599243    0.79000002    2.84999990
   13.24888897  152.24800110    1.05999994    2.84999990
   13.25194454  161.28399658    1.11000001    2.82999992
   13.25472260  174.01899719    1.13000000    2.82999992
   13.25583363  168.16900635    1.23000002    2.84999990
   13.25888920  171.04699707    1.25000000    2.84999990
   13.26222229  154.35299683    1.53999996    2.82999992
   13.26527786  158.86000061    1.63000000    2.82999992
   13.26861095  178.80299377    2.01999998    2.82999992
   13.27194405  165.28100586    2.11999989    2.82999992
   13.27499962  169.57099915    2.51999998    2.80999994
   13.27833271  164.53100586    2.76999998    2.80999994
   13.28444481  164.53100586    2.75000000    2.80999994
   13.28833389  160.38800049    3.01999998    2.82999992
   13.29166698  160.68699646    3.21000004    2.80999994
   13.29500008  162.00399780    3.41000009    2.78999996
   13.29805565  168.49699402    3.57999992    2.80999994
   13.30138874  170.75399780    3.45000005    2.82999992
   13.30472279  152.29699707    2.96000004    2.80999994
   13.30777836  164.54800415    2.71000004    2.80999994
   13.31111145  171.98800659    2.71000004    2.84999990
   13.31416702  160.30400085    2.86999989    2.84999990
   13.31750011  169.47700500    3.05999994    2.80999994
   13.32083321  166.42900085    3.45000005    2.80999994
   13.32138920  172.23899841    3.45000005    2.80999994
   13.32722187  172.23899841    3.25000000    2.80999994
   13.33138847  185.98500061    2.73000002    2.82999992
   13.33444405  182.80999756    2.23000002    2.82999992
   13.33777714  181.83099365    1.86000001    2.84999990
   13.34083271  184.48100281    1.34000003    2.84999990
   13.34416676  185.01400757    1.21000004    2.84999990
   13.34749985  223.79200745    1.19000006    2.84999990
   13.35083389  224.68200684    1.41999996    2.84999990
   13.35388947  271.34799194    1.89999998    2.82999992
   13.35472298  252.70300293    2.07999992    2.80999994
   13.35777855  275.65100098    2.66000009    2.80999994
   13.36083412  265.04800415    3.14000010    2.78999996
   13.36416721  265.68701172    3.18000007    2.82999992
   13.36999989  265.68701172    1.51999998    2.84999990
   13.37416649  381.66000366    1.00000000    2.84999990
   13.37611103  331.73199463    0.98000002    2.84999990
   13.37750053  394.11300659    0.98000002    2.82999992
   13.37888908  371.33099365    1.01999998    2.82999992
   13.38027763  329.98599243    1.05999994    2.84999990
   13.38166714  278.33499146    1.09000003    2.84999990
   13.38305569  345.69100952    1.11000001    2.84999990
   13.38444424  373.66699219    1.14999998    2.82999992
   13.38583279  335.07998657    1.21000004    2.82999992
   13.38722229  332.42999268    1.23000002    2.84999990
   13.38861084  379.05700684    1.26999998    2.84999990
   13.39000034  352.88900757    1.28999996    2.82999992
   13.39138889  358.75000000    1.28999996    2.82999992
   13.39277744  407.30700684    1.28999996    2.82999992
   13.39416695  401.64099121    1.33000004    2.80999994
   13.39555550  343.04998779    1.33000004    2.80999994
   13.39694405  358.85501099    1.33000004    2.84999990
   13.39833355  345.67700195    1.23000002    2.82999992
   13.39972210  342.05899048    1.23000002    2.82999992
   13.40111065  347.01098633    1.19000006    2.84999990
   13.40249920  370.75299072    0.94000000    2.84999990
   13.40388870  349.26501465    0.86000001    2.86999989
   13.40527725  360.52499390    0.76999998    2.84999990
   13.40666676  364.44500732    0.70999998    2.84999990
   13.40805531  321.17700195    0.67000002    2.84999990
   13.40944386  369.18301392    0.61000001    2.84999990
   13.41083336  338.20599365    0.55000001    2.84999990
   13.41222191  391.26199341    0.50000000    2.84999990
   13.41361046  363.25399780    0.50000000    2.84999990
   13.41499996  351.20800781    0.47999999    2.84999990
   13.41638851  366.48599243    0.46000001    2.84999990
   13.41777802  284.23199463    0.41999999    2.84999990
   13.41916656  397.70800781    0.44000000    2.84999990
   13.42055607  317.10501099    0.46000001    2.84999990
   13.42194462  302.55499268    0.50000000    2.84999990
   13.42333412  326.76098633    0.51999998    2.84999990
   13.42472267  332.14700317    0.52999997    2.84999990
   13.42611122  362.69400024    0.55000001    2.84999990
   13.42750072  377.80099487    0.55000001    2.84999990
   13.42888927  349.79699707    0.55000001    2.84999990
   13.43027782  385.87399292    0.55000001    2.84999990
   13.43166733  378.63900757    0.55000001    2.84999990
   13.43305588  342.19100952    0.79000002    2.86999989
   13.43444443  296.27899170    0.80000001    2.84999990
   13.43583298  348.78799438    0.79000002    2.84999990
   13.43722248  348.06500244    0.76999998    2.84999990
   13.43861103  305.61999512    0.76999998    2.84999990
   13.44000053  344.47900391    0.76999998    2.84999990
   13.44138908  342.45901489    0.70999998    2.86999989
   13.44277763  370.40600586    0.70999998    2.86999989
   13.44416714  383.63198853    0.67000002    2.86999989
   13.44555569  357.04501343    0.44000000    2.84999990
   13.44694424  348.89199829    0.40000001    2.84999990
   13.44833374  325.92401123    0.40000001    2.84999990
   13.44972229  327.30599976    0.38000000    2.84999990
   13.45111084  274.75799561    0.38000000    2.84999990
   13.45249939  315.67700195    0.38000000    2.84999990
   13.45388889  280.32400513    0.38000000    2.86999989
   13.45527744  291.13800049    0.38000000    2.84999990
   13.45666695  307.55398560    0.38000000    2.84999990
   13.45805550  307.90600586    0.38000000    2.86999989
   13.45944405  327.81201172    0.38000000    2.84999990
   13.46083355  306.01000977    0.38000000    2.84999990
   13.46222210  301.80499268    0.38000000    2.84999990
   13.46361065  315.39700317    0.38000000    2.84999990
   13.46500015  315.77200317    0.38000000    2.86999989
   13.46638870  281.33700562    0.38000000    2.84999990
   13.46777725  294.88400269    0.38000000    2.84999990
   13.46916580  281.03201294    0.38000000    2.86999989
   13.47055531  257.87100220    0.36000001    2.84999990
   13.47194386  278.71899414    0.36000001    2.84999990
   13.47333336  285.20300293    0.38000000    2.84999990
   13.47472191  301.24700928    0.38000000    2.84999990
   13.47611046  287.57000732    0.38000000    2.86999989
   13.47749996  279.28500366    0.38000000    2.86999989
   13.47888851  291.00000000    0.38000000    2.86999989
   13.48027706  309.00500488    0.38000000    2.86999989
   13.48166656  283.11099243    0.36000001    2.84999990
   13.48305511  286.51199341    0.34000000    2.84999990
   13.48444462  277.39001465    0.36000001    2.86999989
   13.48583317  286.35000610    0.38000000    2.84999990
   13.48722267  296.80099487    0.36000001    2.84999990
   13.48861122  252.96600342    0.38000000    2.84999990
   13.49000072  287.60101318    0.36000001    2.86999989
   13.49138927  266.20001221    0.38000000    2.86999989
   13.49277782  275.19198608    0.38000000    2.84999990
   13.49416733  290.51098633    0.38000000    2.86999989
   13.49555588  269.54598999    0.36000001    2.84999990
   13.49694443  272.48800659    0.36000001    2.84999990
   13.49833393  250.95399475    0.36000001    2.84999990
   13.49972248  287.92498779    0.36000001    2.84999990
   13.50111103  237.46600342    0.36000001    2.84999990
   13.50111103  271.34799194    1.89999998    2.82999992
   13.50138855  275.65100098    2.66000009    2.80999994
   13.50138855  265.04800415    3.14000010    2.78999996
   13.50138855  265.68701172    3.18000007    2.82999992
   13.50166702  381.66000366    1.00000000    2.84999990
   13.50166702  184.48100281    1.34000003    2.84999990
   13.50166702  185.01400757    1.21000004    2.84999990
   13.50194454  223.79200745    1.19000006    2.84999990
   13.50194454  224.68200684    1.41999996    2.84999990
   13.50249958  262.94100952    0.36000001    2.84999990
   13.50583363  248.55499268    0.36000001    2.86999989
   13.50888920  281.40701294    0.36000001    2.86999989
   13.51222229  289.16101074    0.38000000    2.86999989
   13.51555538  234.82699585    0.38000000    2.86999989
   13.52194405  234.82699585    0.38000000    2.84999990
   13.52611065  232.85899353    0.38000000    2.86999989
   13.52944374  215.86700439    0.36000001    2.84999990
   13.53277779  230.28799438    0.36000001    2.89000010
   13.53500080  257.53900146    0.36000001    2.84999990
   13.53638935  247.73399353    0.36000001    2.86999989
   13.53944492  214.24000549    0.38000000    2.86999989
   13.54277802  247.14700317    0.38000000    2.86999989
   13.54583359  229.11300659    0.36000001    2.86999989
   13.54916668  250.54800415    0.36000001    2.86999989
   13.55249977  250.52299500    0.36000001    2.86999989
   13.55555534  223.12500000    0.36000001    2.86999989
   13.55888939  237.68299866    0.36000001    2.84999990
   13.56472206  237.68299866    0.36000001    2.86999989
   13.56888866  216.40400696    0.36000001    2.86999989
   13.57222176  237.63099670    0.36000001    2.86999989
   13.57527733  212.63900757    0.36000001    2.84999990
   13.57861137  201.86000061    0.36000001    2.86999989
   13.58166695  215.53100586    0.34000000    2.86999989
   13.58500004  216.12800598    0.38000000    2.86999989
   13.58833313  207.49600220    0.38000000    2.84999990
   13.69666672   -1.00000000   -1.00000000   -1.00000000
   13.89305496   -1.00000000   -1.00000000   -1.00000000
   13.99388885   -1.00000000   -1.00000000   -1.00000000
   14.02111053   75.99690247    4.90999985    2.73000002
   14.02416611  169.48800659    4.90999985    2.67000008
   14.02750015  163.88200378    4.90999985    2.67000008
   14.03083324  180.33999634    4.90999985    2.67000008
   14.03388977  181.82000732    4.90999985    2.64000010
   14.03722286  160.56199646    4.90999985    2.59999990
   14.04138947  160.56199646    4.90999985    2.55999994
   14.04555607  179.84300232    4.90999985    2.61999989
   14.04861164  211.25900269    4.90999985    2.64000010
   14.05194473  166.53999329    4.90999985    2.53999996
   14.05444431  210.78100586    4.90999985    2.51999998
   14.05555534  239.45599365    4.90999985    2.50000000
   14.05888939  208.58599854    4.90999985    2.50000000
   14.06222248  214.35200500    4.90999985    2.59999990
   14.06527805  176.21200562    4.90999985    2.51999998
   14.06861115  280.96600342    4.90999985    2.39000010
   14.07166672  179.33399963    4.90999985    2.39000010
   14.07499981  179.70799255    4.90999985    2.51999998
   14.07833290  255.17300415    4.90999985    2.44000006
   14.08416653  255.17300415    4.90999985    2.51999998
   14.08833313  237.93600464    4.90999985    2.53999996
   14.09166622  205.67900085    4.90999985    2.44000006
   14.09472179  190.90899658    4.90999985    2.64000010
   14.09805489  184.67300415    4.90999985    2.59999990
   14.10138893  197.57299805    4.90999985    2.61999989
   14.10444450  189.67100525    4.90999985    2.61999989
   14.10777855  170.69000244    4.90999985    2.66000009
   14.11083412  179.43299866    4.90999985    2.67000008
   14.11416721  162.02699280    4.90999985    2.71000004
   14.11750031  175.86799622    4.90999985    2.71000004
   14.12055588  165.35000610    4.90999985    2.76999998
   14.12111092  168.08900452    4.90999985    2.82999992
   14.12694454  168.08900452    4.90999985    2.67000008
   14.13111115  160.26899719    4.90999985    2.69000006
   14.13444424  172.40600586    4.90999985    2.64000010
   14.13777733  173.79899597    4.90999985    2.59999990
   14.14083290  157.41600037    4.90999985    2.55999994
   14.14416695  188.12500000    4.90999985    2.57999992
   14.14722252  174.26300049    4.90999985    2.61999989
   14.15055561  177.97399902    4.90999985    2.64000010
   14.15388870  162.41900635    4.90999985    2.61999989
   14.15444374  179.97000122    4.90999985    2.61999989
   14.15749931  163.71499634    4.90999985    2.67000008
   14.16083336  180.90400696    4.90999985    2.64000010
   14.16388893  163.11000061    4.90999985    2.59999990
   14.17000008  163.11000061    4.90999985    2.66000009
   14.17416668  197.57000732    4.90999985    2.73000002
   14.17722225  184.96000671    4.90999985    2.57999992
   14.18055630  192.33599854    4.90999985    2.61999989
   14.18361092  169.96699524    4.90999985    2.59999990
   14.18694496  205.07400513    4.90999985    2.55999994
   14.18777752  171.38499451    4.90999985    2.61999989
   14.19055557  200.75300598    4.90999985    2.61999989
   14.19388866  193.77000427    4.90999985    2.51999998
   14.19694424  182.22300720    4.90999985    2.50000000
   14.20027733  180.02000427    4.90999985    2.67000008
   14.20361137  211.75900269    4.90999985    2.51999998
   14.20666695  220.81900024    4.90999985    2.66000009
   14.21277714  220.81900024    4.90999985    2.59999990
   14.21694374  176.45799255    4.90999985    2.57999992
   14.21999931  162.21400452    4.90999985    2.61999989
   14.22111034  189.54499817    4.90999985    2.61999989
   14.22388840  185.94299316    4.90999985    2.59999990
   14.22722149  181.02299500    4.90999985    2.67000008
   14.23027706  174.20300293    4.90999985    2.67000008
   14.23361111  183.96000671    4.90999985    2.73000002
   14.23666668  132.99099731    4.90999985    2.73000002
   14.24000072  172.32699585    4.90999985    2.64000010
   14.24333382  208.33599854    4.90999985    2.69000006
   14.24638939  204.81700134    4.90999985    2.50000000
   14.24972248  179.20199585    4.90999985    2.51999998
   14.25555515  179.20199585    4.90999985    2.59999990
   14.25972176  170.06300354    4.90999985    2.73000002
   14.26305580  206.63400269    4.90999985    2.61999989
   14.26611137  224.93099976    4.90999985    2.50000000
   14.26944447  204.31100464    4.90999985    2.46000004
   14.27277756  180.06300354    4.90999985    2.59999990
   14.27583313  194.42199707    4.90999985    2.53999996
   14.27916622  157.59599304    4.90999985    2.67000008
   14.28222179  169.73500061    4.90999985    2.73000002
   14.28555584  161.17999268    4.90999985    2.66000009
   14.28777790  135.91999817    4.90999985    2.67000008
   14.28916740  153.83200073    4.90999985    2.78999996
   14.29250050  171.67399597    4.90999985    2.71000004
   14.29833412  171.67399597    4.90999985    2.67000008
   14.30249977  156.53199768    4.90999985    2.71000004
   14.30583382  164.02000427    4.90999985    2.71000004
   14.30916691  149.88099670    4.90999985    2.69000006
   14.31222248  171.78999329    4.90999985    2.61999989
   14.31555557  160.15800476    4.90999985    2.71000004
   14.31861115  149.15499878    4.90999985    2.64000010
   14.32111073  132.04200745    4.90999985    2.71000004
   14.32250023  148.45799255    4.90999985    2.71000004
   14.32583332  148.33599854    4.90999985    2.71000004
   14.32888889  141.25000000    4.90999985    2.75000000
   14.33222198  151.08099365    4.90999985    2.73000002
   14.33527756  160.89799500    4.90999985    2.75000000
   14.34138870  160.89799500    4.90999985    2.71000004
   14.34555531  151.62600708    4.90999985    2.78999996
   14.34861088  137.16400146    4.90999985    2.78999996
   14.35194492  157.98300171    4.90999985    2.75000000
   14.35444450  146.60099792    4.90999985    2.71000004
   14.35555553  159.37399292    4.90999985    2.73000002
   14.35888958  152.98300171    4.90999985    2.73000002
   14.36194515  150.80799866    4.90999985    2.73000002
   14.36527824  147.80099487    4.90999985    2.76999998
   14.36833382  147.69000244    4.90999985    2.75000000
   14.37166691  138.23300171    4.90999985    2.78999996
   14.37500000  147.29499817    4.90999985    2.76999998
   14.37805557  155.76300049    4.90999985    2.67000008
   14.38416672  155.76300049    4.90999985    2.71000004
   14.38833332  132.11700439    4.90999985    2.75000000
   14.39138889  153.18400574    4.90999985    2.78999996
   14.39472198  129.97399902    4.90999985    2.78999996
   14.39805508  143.76400757    4.90999985    2.78999996
   14.40111065  138.33099365    4.90999985    2.82999992
   14.40444374  138.21699524    4.90999985    2.78999996
   14.40777779  141.45199585    4.90999985    2.80999994
   14.41083336  135.38900757    4.90999985    2.76999998
   14.41416645  140.33099365    4.90999985    2.80999994
   14.41722298  137.95899963    4.90999985    2.80999994
   14.42055607  135.15699768    4.90999985    2.80999994
   14.42111111  128.49000549    4.90999985    2.82999992
   14.42694473  128.49000549    4.90999985    2.82999992
   14.43111134  129.85200500    4.90999985    2.82999992
   14.43444443  129.46000671    4.90999985    2.80999994
   14.43750000  124.56600189    4.90999985    2.84999990
   14.44083309  122.64900208    4.90999985    2.82999992
   14.44416714  136.14500427    4.90999985    2.84999990
   14.44722271  120.85900116    4.90999985    2.82999992
   14.45055580  126.25499725    4.90999985    2.84999990
   14.45361137  120.13500214    4.73999977    2.84999990
   14.45444393  132.25500488    4.59999990    2.82999992
   14.45722198  126.31500244    4.82999992    2.84999990
   14.46055508  122.63099670    3.48000002    2.89000010
   14.46361065  132.19400024    2.73000002    2.89000010
   14.46972179  132.19400024    2.51999998    2.91000009
   14.47388840  133.55400085    2.48000002    2.91000009
   14.47722149  127.54799652    3.01999998    2.89000010
   14.48055553  116.52100372    3.26999998    2.84999990
   14.48361111  114.71600342    2.82999992    2.89000010
   14.48694515  121.36199951    2.59999990    2.89000010
   14.48777771  118.00800323    2.57999992    2.89000010
   14.49055576  119.83599854    2.15000010    2.89000010
   14.49388885  126.31199646    2.26999998    2.89000010
   14.49694443  114.55400085    2.67000008    2.89000010
   14.50027752  116.42199707    3.09999990    2.86999989
   14.50361156  123.87500000    3.48000002    2.84999990
   14.50666714  122.17199707    3.76999998    2.89000010
   14.51277733  122.17199707    4.21999979    2.86999989
   14.51694393  119.39600372    4.48999977    2.82999992
   14.51999950  126.52799988    4.86999989    2.84999990
   14.52111053  129.92999268    4.90999985    2.82999992
   14.52361107  127.21499634    4.90999985    2.84999990
   14.52694416  127.87100220    4.90999985    2.84999990
   14.52999973  120.36599731    4.76000023    2.84999990
   14.53333378  129.79899597    4.67999983    2.84999990
   14.53666687  127.36100006    4.32999992    2.86999989
   14.53972244  112.82399750    3.72000003    2.84999990
   14.54305553  120.27100372    3.91000009    2.86999989
   14.54638958  132.14900208    3.66000009    2.86999989
   14.54944515  117.38300323    3.48000002    2.86999989
   14.55555534  117.38300323    2.98000002    2.86999989
   14.55972195  129.89500427    2.73000002    2.86999989
   14.56277752  117.21600342    2.25000000    2.89000010
   14.56611156  130.02999878    1.98000002    2.89000010
   14.56944466  131.13800049    1.76999998    2.89000010
   14.57250023  122.84799957    1.60000002    2.89000010
   14.57583332  122.81800079    1.58000004    2.91000009
   14.57916641  117.12200165    1.60000002    2.91000009
   14.58222198  129.47200012    1.75000000    2.91000009
   14.58555508  134.24000549    1.91999996    2.89000010
   14.58777714  127.39800262    2.13000011    2.91000009
   14.58916664  123.78199768    2.13000011    2.91000009
   14.59249973  137.56799316    2.19000006    2.89000010
   14.59833336  137.56799316    1.58000004    2.91000009
   14.60249996  130.58099365    1.60000002    2.93000007
   14.60583401  130.82400513    1.63000000    2.91000009
   14.60888958  128.19700623    1.64999998    2.91000009
   14.61222267  128.14799500    1.83000004    2.89000010
   14.61555576  130.10800171    1.91999996    2.91000009
   14.61861134  124.47599792    2.01999998    2.91000009
   14.62111092  128.56599426    2.15000010    2.91000009
   14.62222195  120.08200073    2.19000006    2.91000009
   14.62555599  123.36499786    2.09999990    2.91000009
   14.62861156  117.28399658    2.15000010    2.91000009
   14.63194466  113.63800049    2.11999989    2.91000009
   14.63527775  122.36000061    2.13000011    2.91000009
   14.64111137  122.36000061    2.64000010    2.91000009
   14.64527798  115.06099701    2.94000006    2.89000010
   14.64861107  128.11599731    2.84999990    2.91000009
   14.65194416  120.27799988    2.53999996    2.89000010
   14.65444374  134.50500488    2.44000006    2.91000009
   14.65555477  130.62300110    2.32999992    2.89000010
   14.65888882  129.16200256    2.19000006    2.91000009
   14.66194439  132.17199707    1.86000001    2.91000009
   14.66527748  134.41700745    1.83000004    2.91000009
   14.66861153  123.90699768    1.58000004    2.89000010
   14.67166710  134.40199280    1.39999998    2.91000009
   14.67500019  130.16999817    1.30999994    2.91000009
   14.67805576  127.02100372    1.26999998    2.91000009
   14.68416691  127.02100372    1.26999998    2.89000010
   14.68833351  137.01300049    1.30999994    2.91000009
   14.69138908  129.23199463    1.36000001    2.91000009
   14.69472218  114.60900116    1.51999998    2.89000010
   14.69777775  120.62899780    1.61000001    2.89000010
   14.70111084  129.03399658    1.80999994    2.89000010
   14.70444393  108.29100037    1.78999996    2.89000010
   14.70749950  123.69999695    1.85000002    2.89000010
   14.71083355  133.19799805    1.80999994    2.89000010
   14.71416664  122.73799896    1.73000002    2.89000010
   14.71722221  124.07599640    1.73000002    2.91000009
   14.72055531  122.55999756    1.75000000    2.89000010
   14.72111034  120.64399719    1.75000000    2.89000010
   14.72694397  120.64399719    1.86000001    2.91000009
   14.73111057  127.48699951    1.86000001    2.89000010
   14.73416710  130.02499390    1.88000000    2.89000010
   14.73750019  131.11199951    1.66999996    2.91000009
   14.74083328  123.11199951    1.51999998    2.91000009
   14.74388885  122.73699951    1.30999994    2.91000009
   14.74722290  124.97499847    1.30999994    2.89000010
   14.75055599  125.02100372    1.28999996    2.89000010
   14.75361156  126.40200043    1.13000000    2.93000007
   14.75444412  119.48100281    1.13000000    2.93000007
   14.75722218  114.05599976    1.14999998    2.91000009
   14.76055527  129.73699951    1.14999998    2.91000009
   14.76361084  123.18000031    1.14999998    2.91000009
   14.76972198  123.18000031    1.38000000    2.91000009
   14.77388859  127.63400269    1.33000004    2.91000009
   14.77722168  129.89199829    1.39999998    2.89000010
   14.78027725  118.02200317    1.39999998    2.89000010
   14.78361130  124.69200134    1.41999996    2.91000009
   14.78694534  124.46700287    1.51999998    2.91000009
   14.78805637  132.80099487    1.51999998    2.91000009
   14.79027843  118.82499695    1.53999996    2.91000009
   14.79361153  126.20300293    1.66999996    2.91000009
   14.79694462  122.85099792    2.13000011    2.91000009
   14.80000019  120.74700165    2.51999998    2.91000009
   14.80333328  110.65499878    2.71000004    2.91000009
   14.80638885  112.95999908    2.94000006    2.91000009
   14.81250000  112.95999908    3.57999992    2.91000009
   14.81666660  121.47899628    4.44999981    2.91000009
   14.81999969  119.95999908    4.42999983    2.91000009
   14.82138920  119.59300232    4.23999977    2.93000007
   14.82361126  120.02600098    4.03999996    2.93000007
   14.82694435  130.45500183    3.51999998    2.91000009
   14.82999992  120.07199860    3.25000000    2.93000007
   14.83333302  118.07199860    3.51999998    2.93000007
   14.83666611  125.57800293    3.51999998    2.93000007
   14.83972168  127.53800201    3.16000009    2.93000007
   14.84305477  114.49800110    2.82999992    2.93000007
   14.84638882  121.81099701    2.40000010    2.93000007
   14.84944439  118.48799896    2.23000002    2.93000007
   14.85555553  118.48799896    2.19000006    2.91000009
   14.85972214  126.08699799    2.46000004    2.93000007
   14.86277771  127.09600067    2.78999996    2.93000007
   14.86611176  117.11100006    2.64000010    2.93000007
   14.86916637  115.21800232    2.40000010    2.93000007
   14.87250042  115.02700043    2.61999989    2.93000007
   14.87583351  111.65200043    3.00000000    2.93000007
   14.87888908  113.83999634    3.82999992    2.93000007
   14.88222218  124.72799683    3.57999992    2.93000007
   14.88555527  125.23899841    3.59999990    2.93000007
   14.88805580  121.90299988    3.25000000    2.93000007
   14.88916683  127.52799988    3.41000009    2.91000009
   14.89249992  118.28199768    3.30999994    2.93000007
   14.89833355  118.28199768    4.90999985    2.94000006
   14.90249920  124.29599762    4.90999985    2.93000007
   14.90555477  116.53099823    4.90999985    2.94000006
   14.90888882  126.40499878    4.90999985    2.94000006
   14.91222191  117.07700348    4.90999985    2.94000006
   14.91527748  130.43400574    4.90999985    2.94000006
   14.91861153  124.40100098    4.90999985    2.94000006
   14.92138958  110.41100311    4.90999985    2.93000007
   14.92222214  118.60299683    4.90999985    2.94000006
   14.92555618  115.98999786    4.90999985    2.94000006
   14.92861176  127.62000275    4.90999985    2.94000006
   14.93194485  138.29299927    4.90999985    2.94000006
   14.93527794  131.02299500    4.90999985    2.94000006
   14.94111156  131.02299500    4.90999985    2.94000006
   14.94527817  127.12599945    4.90999985    2.96000004
   14.94861126  127.48600006    4.90999985    2.96000004
   14.95166683  129.71699524    4.90999985    2.94000006
   14.95472240  123.07199860    4.90999985    2.94000006
   14.95527744  126.51699829    4.90999985    2.94000006
   14.95861053  122.71199799    4.90999985    2.94000006
   14.96194458  123.82399750    4.90999985    2.93000007
   14.96500015  109.15299988    3.72000003    2.94000006
   14.96833324  125.57599640    2.82999992    2.93000007
   14.97166634  123.79399872    3.99000001    2.93000007
   14.97472191  121.80100250    4.59999990    2.94000006
   14.97805500  128.44299316    4.48999977    2.94000006
   14.98388958  128.44299316    2.89000010    2.93000007
   14.98805618  118.12200165    4.11999989    2.94000006
   14.99138927  119.59700012    4.36999989    2.93000007
   14.99472237  121.48500061    3.50000000    2.93000007
   14.99777794  131.25900269    1.88000000    2.93000007
   15.00111103  123.79599762    2.23000002    2.93000007
   15.00416660  122.80699921    2.44000006    2.91000009
   15.00749969  124.82399750    2.80999994    2.91000009
   15.01083374  125.05799866    3.01999998    2.93000007
   15.01388931  129.14700317    3.00000000    2.91000009
   15.01722240  132.29400635    3.84999990    2.89000010
   15.02055550  123.54399872    4.55999994    2.86999989
   15.02138901  126.80999756    4.73999977    2.86999989
   15.04194450  126.80999756    4.90999985    2.84999990
   15.04611111  127.98400116    4.90999985    2.84999990
   15.04916668  134.41400146    4.90999985    2.84999990
   15.05249977  115.62100220    4.90999985    2.86999989
   15.05472279  134.36900330    4.90999985    2.89000010
   15.05611134  131.71600342    4.90999985    2.89000010
   15.05944443  132.30900574    4.90999985    2.84999990
   15.06277752  130.94299316    4.90999985    2.82999992
   15.06583309  130.01600647    4.90999985    2.86999989
   15.06916618  132.34100342    4.90999985    2.86999989
   15.07250023  126.18099976    4.90999985    2.86999989
   15.07555580  128.25599670    4.90999985    2.86999989
   15.07888889  126.33300018    4.90999985    2.86999989
   15.08472157  126.33300018    4.90999985    2.86999989
   15.08888817  122.27100372    4.80999994    2.89000010
   15.09194374  126.89099884    4.26999998    2.89000010
   15.09527779  123.69999695    4.40999985    2.86999989
   15.09861088  124.90699768    4.76000023    2.89000010
   15.10166740  126.42199707    3.91000009    2.91000009
   15.10500050  126.19899750    3.07999992    2.86999989
   15.10805607  126.99099731    3.09999990    2.91000009
   15.11138916  124.98899841    3.16000009    2.91000009
   15.11472225  129.75300598    3.50000000    2.91000009
   15.11777782  125.41300201    4.90999985    2.91000009
   15.12111092  129.74299622    4.90999985    2.93000007
   15.12166691  139.55900574    4.90999985    2.93000007
   15.12750053  139.55900574    4.90999985    2.91000009
   15.13166714  120.94999695    4.90999985    2.93000007
   15.13500023  128.53500366    4.90999985    2.93000007
   15.13805580  117.85600281    4.90999985    2.91000009
   15.14138889  128.31300354    4.90999985    2.91000009
   15.14444447  127.69799805    4.90999985    2.89000010
   15.14777756  108.75000000    4.90999985    2.86999989
   15.15111065  119.88700104    4.90999985    2.80999994
   15.15416622  120.67700195    4.90999985    2.82999992
   15.15499973  122.93599701    4.90999985    2.82999992
   15.15805531  136.45700073    4.90999985    2.80999994
   15.16111088  134.50100708    4.90999985    2.78999996
   15.16444397  138.36900330    4.90999985    2.84999990
   15.17027855  138.36900330    4.90999985    2.84999990
   15.17444515  135.49699402    4.90999985    2.82999992
   15.17777824  136.42300415    4.90999985    2.84999990
   15.18083382  112.79199982    4.90999985    2.84999990
   15.18416691  136.77699280    4.90999985    2.84999990
   15.18750000  114.41500092    4.90999985    2.86999989
   15.18833351  129.30299377    4.90999985    2.86999989
   15.19111156  121.41699982    4.90999985    2.84999990
   15.19416714  127.90699768    4.90999985    2.82999992
   15.19750023  113.98000336    4.90999985    2.82999992
   15.20055580  111.68699646    4.90999985    2.82999992
   15.20388889  133.88499451    4.90999985    2.84999990
   15.20722198  125.73899841    4.90999985    2.84999990
   15.21333313  125.73899841    4.90999985    2.80999994
   15.21722221  128.17300415    4.90999985    2.75000000
   15.22055531  134.04600525    4.90999985    2.82999992
   15.22166634  144.16999817    4.90999985    2.82999992
   15.22444439  125.06300354    4.90999985    2.78999996
   15.22749996  131.70799255    4.90999985    2.80999994
   15.23083305  137.91200256    4.90999985    2.80999994
   15.23388958  112.89099884    4.90999985    2.76999998
   15.23722267  112.79699707    4.90999985    2.86999989
   15.24055576  126.32800293    4.90999985    2.84999990
   15.24361134  113.16799927    4.90999985    2.84999990
   15.24694443  128.32899475    4.90999985    2.82999992
   15.25027752  132.41299438    4.90999985    2.84999990
   15.25611115  132.41299438    4.90999985    2.78999996
   15.26027775  122.06300354    4.90999985    2.75000000
   15.26333332  143.98599243    4.90999985    2.82999992
   15.26666641  125.17299652    4.90999985    2.78999996
   15.26999950  139.16999817    4.90999985    2.75000000
   15.27305508  136.39700317    4.90999985    2.76999998
   15.27638817  131.10000610    4.90999985    2.76999998
   15.27944374  146.94200134    4.90999985    2.78999996
   15.28277779  130.31900024    4.90999985    2.75000000
   15.28611183  128.84899902    4.90999985    2.73000002
   15.28833389  137.74400330    4.90999985    2.73000002
   15.28972244  129.32800293    4.90999985    2.75000000
   15.29277802  122.13200378    4.90999985    2.82999992
   15.29888916  122.13200378    4.90999985    2.86999989
   15.30305576  123.86000061    4.90999985    2.84999990
   15.30638885  124.22599792    4.90999985    2.86999989
   15.30944443  131.70199585    3.43000007    2.89000010
   15.31277752  123.12799835    2.34999990    2.93000007
   15.31583309  114.19899750    1.26999998    2.93000007
   15.31916618  126.47000122    0.89999998    2.94000006
   15.32166672  119.37200165    0.63000000    2.94000006
   15.32305527  111.88400269    0.63000000    2.94000006
   15.32611084  109.17199707    0.46000001    2.93000007
   15.32944393  119.62899780    0.40000001    2.93000007
   15.33249950  124.15399933    0.36000001    2.94000006
   15.33583260  113.46600342    0.38000000    2.94000006
   15.34166622  113.46600342    0.36000001    2.93000007
   15.34583282  119.11399841    0.36000001    2.94000006
   15.34916592  118.88099670    0.36000001    2.93000007
   15.35222244  109.13200378    0.36000001    2.94000006
   15.35500050  112.17400360    0.36000001    2.93000007
   15.35611153  121.43399811    0.36000001    2.93000007
   15.35916710  120.90599823    0.36000001    2.93000007
   15.36250019  130.16600037    0.36000001    2.94000006
   15.36555576  122.53700256    0.36000001    2.93000007
   15.36888885  128.91999817    0.38000000    2.93000007
   15.37222195  123.99800110    0.38000000    2.93000007
   15.37527752  121.94999695    0.36000001    2.93000007
   15.37861156  121.83599854    0.36000001    2.93000007
   15.38444424  121.83599854    0.38000000    2.93000007
   15.38861084  119.13099670    0.38000000    2.93000007
   15.39194393  120.96499634    0.40000001    2.93000007
   15.39527798  129.27000427    0.40000001    2.93000007
   15.39833355  117.43900299    0.40000001    2.93000007
   15.40166664  127.63400269    0.40000001    2.94000006
   15.40499973  108.66100311    0.40000001    2.93000007
   15.40805531  119.56800079    0.40000001    2.93000007
   15.41138840  126.11299896    0.40000001    2.94000006
   15.41444397  120.68399811    0.41999999    2.93000007
   15.41777802  116.98799896    0.40000001    2.93000007
   15.42111111  122.11199951    0.40000001    2.93000007
   15.42166710  122.37799835    0.40000001    2.93000007
   15.42750072  122.37799835    0.38000000    2.93000007
   15.43166733  118.63800049    0.40000001    2.93000007
   15.43472195  118.65100098    0.38000000    2.93000007
   15.43805599  129.79200745    0.40000001    2.93000007
   15.44138908  115.18800354    0.38000000    2.93000007
   15.44444466  127.30000305    0.38000000    2.94000006
   15.44777775  113.31800079    0.40000001    2.93000007
   15.45083332  122.51399994    0.38000000    2.93000007
   15.45416641  125.56999969    0.40000001    2.93000007
   15.45499992  112.98100281    0.38000000    2.93000007
   15.45777798  117.36900330    0.38000000    2.93000007
   15.46083355  124.06600189    0.38000000    2.93000007
   15.46416664  126.11100006    0.38000000    2.93000007
   15.47027779  126.11100006    0.40000001    2.93000007
   15.47444439  120.45700073    0.40000001    2.93000007
   15.47777748  118.36499786    0.40000001    2.93000007
   15.48083305  116.08000183    0.40000001    2.93000007
   15.48416710  124.42900085    0.40000001    2.93000007
   15.48750019  128.52600098    0.41999999    2.93000007
   15.48833370  116.25599670    0.41999999    2.93000007
   15.49111176  124.88300323    0.41999999    2.93000007
   15.49416733  116.83899689    0.38000000    2.93000007
   15.49750042  125.20899963    0.38000000    2.93000007
   15.50083351  125.21700287    0.38000000    2.93000007
   15.50388908  114.45400238    0.38000000    2.93000007
   15.50722218  106.94599915    0.38000000    2.93000007
   15.51305580  106.94599915    0.36000001    2.93000007
   15.51722240  117.16999817    0.38000000    2.94000006
   15.52055550  117.34999847    0.38000000    2.94000006
   15.52166653  121.73899841    0.38000000    2.93000007
   15.52416611  116.34700012    0.38000000    2.93000007
   15.52722168  112.43699646    0.38000000    2.93000007
   15.53055573  104.68599701    0.38000000    2.94000006
   15.53388977  117.29799652    0.36000001    2.93000007
   15.53694534  127.55400085    0.38000000    2.93000007
   15.54027843  121.76100159    0.36000001    2.93000007
   15.54333401  130.55900574    0.38000000    2.94000006
   15.54666710  127.14600372    0.38000000    2.93000007
   15.55000019  107.91500092    0.36000001    2.94000006
   15.55611134  107.91500092    0.38000000    2.94000006
   15.56000042  121.67099762    0.38000000    2.94000006
   15.56333351  120.59799957    0.36000001    2.93000007
   15.56666660  113.26599884    0.36000001    2.94000006
   15.56972218  117.29299927    0.36000001    2.93000007
   15.57305527  108.37000275    0.36000001    2.93000007
   15.57638836  109.15000153    0.36000001    2.93000007
   15.57944393  119.56300354    0.36000001    2.94000006
   15.58277798  109.71499634    0.38000000    2.93000007
   15.58583260  100.49500275    0.36000001    2.94000006
   15.58861065  110.19899750    0.38000000    2.91000009
   15.58972168  116.93399811    0.38000000    2.91000009
   15.59305477  101.38899994    0.38000000    2.93000007
   15.59888840  101.38899994    0.40000001    2.93000007
   15.60305595  117.86299896    0.38000000    2.93000007
   15.60611153  109.38700104    0.38000000    2.93000007
   15.60944462  115.76899719    0.40000001    2.93000007
   15.61277771  125.80300140    0.40000001    2.93000007
   15.61583328  113.82499695    0.40000001    2.93000007
   15.61916637  101.85299683    0.40000001    2.93000007
   15.62166691  122.79699707    0.41999999    2.93000007
   15.62277794  106.33200073    0.41999999    2.93000007
   15.62583351  116.64099884    0.41999999    2.93000007
   15.62916660  117.75399780    0.41999999    2.93000007
   15.63249969  109.33799744    0.41999999    2.93000007
   15.63555527  120.03500366    0.44000000    2.93000007
   15.64166641  120.03500366    0.41999999    2.93000007
   15.64583302  108.07599640    0.44000000    2.93000007
   15.64916611  102.34300232    0.44000000    2.93000007
   15.65222168  112.47499847    0.41999999    2.94000006
   15.65499973  118.83799744    0.44000000    2.93000007
   15.65611076  108.12699890    0.44000000    2.93000007
   15.65916634   99.69300079    0.41999999    2.94000006
   15.66249943   98.45480347    0.41999999    2.93000007
   15.66583252  115.51000214    0.44000000    2.93000007
   15.66888905  119.09500122    0.44000000    2.93000007
   15.67222214  127.42800140    0.44000000    2.93000007
   15.67527771  110.34799957    0.44000000    2.93000007
   15.67861176  108.13800049    0.41999999    2.93000007
   15.68444443  108.13800049    0.41999999    2.93000007
   15.68861103  115.79599762    0.44000000    2.93000007
   15.69194412  115.14600372    0.40000001    2.94000006
   15.69499969  103.54299927    0.40000001    2.93000007
   15.69833374  106.78600311    0.41999999    2.94000006
   15.70166683  109.05899811    0.41999999    2.93000007
   15.70472240  117.03800201    0.41999999    2.93000007
   15.70805550  103.22100067    0.41999999    2.94000006
   15.71138859  108.35099792    0.41999999    2.93000007
   15.71444416  101.32599640    0.40000001    2.93000007
   15.71777725  113.13200378    0.40000001    2.93000007
   15.72083282  110.61799622    0.40000001    2.93000007
   15.72166634  110.17500305    0.40000001    2.93000007
   15.72749996  110.17500305    0.40000001    2.93000007
   15.73138809  108.85600281    0.40000001    2.93000007
   15.73472214  109.81099701    0.40000001    2.94000006
   15.73805618  107.23799896    0.40000001    2.93000007
   15.74111176  106.93499756    0.40000001    2.93000007
   15.74444485  110.37599945    0.38000000    2.93000007
   15.74777794  106.07099915    0.40000001    2.94000006
   15.75083351   97.04720306    0.40000001    2.93000007
   15.75416660   97.18270111    0.38000000    2.93000007
   15.75500011  110.87400055    0.38000000    2.93000007
   15.75777817  109.76399994    0.40000001    2.93000007
   15.76083374  107.27400208    0.40000001    2.93000007
   15.76416683  110.79199982    0.40000001    2.94000006
   15.77027798  110.79199982    0.38000000    2.93000007
   15.77444458   95.47509766    0.40000001    2.93000007
   15.77750015  116.83599854    0.38000000    2.93000007
   15.78083324  104.40200043    0.40000001    2.93000007
   15.78416729  115.31500244    0.38000000    2.93000007
   15.78722286  117.08599854    0.38000000    2.94000006
   15.78833389  110.97499847    0.38000000    2.94000006
   15.79083347  115.37500000    0.36000001    2.94000006
   15.79416752  110.19999695    0.38000000    2.93000007
   15.79722309  120.23799896    0.40000001    2.94000006
   15.80055618  108.59700012    0.38000000    2.94000006
   15.80361176  106.91100311    0.41999999    2.94000006
   15.80694485  108.61399841    0.40000001    2.93000007
   15.81305599  108.61399841    0.40000001    2.93000007
   15.81722260  105.88700104    0.40000001    2.93000007
   15.82055569  109.45800018    0.40000001    2.93000007
   15.82166672  115.31700134    0.40000001    2.93000007
   15.82416630  114.75299835    0.40000001    2.93000007
   15.82750034  119.57800293    0.36000001    2.93000007
   15.83055592  115.12000275    0.38000000    2.93000007
   15.83388901  111.37899780    0.40000001    2.93000007
   15.83694458  121.17400360    0.40000001    2.93000007
   15.84027767  116.76499939    0.40000001    2.93000007
   15.84361076  110.65000153    0.40000001    2.93000007
   15.84666634  115.32900238    0.40000001    2.93000007
   15.85000038  124.48100281    0.40000001    2.93000007
   15.85583401  124.48100281    0.38000000    2.93000007
   15.86000061  122.93099976    0.38000000    2.93000007
   15.86333370  118.46700287    0.36000001    2.93000007
   15.86638927  113.42199707    0.38000000    2.93000007
   15.86972237  111.97899628    0.38000000    2.93000007
   15.87305546  111.66699982    0.36000001    2.94000006
   15.87611103  116.48300171    0.40000001    2.94000006
   15.87944412  105.54299927    0.36000001    2.93000007
   15.88277817  113.78299713    0.36000001    2.93000007
   15.88583279  106.57599640    0.36000001    2.93000007
   15.88833332  119.41200256    0.38000000    2.93000007
   15.88944435  111.22699738    0.36000001    2.93000007
   15.89249992  122.41500092    0.36000001    2.94000006
   15.89888859  122.41500092    0.36000001    2.93000007
   15.90277767  112.87400055    0.38000000    2.94000006
   15.90611076  115.22699738    0.38000000    2.93000007
   15.90944386  121.34200287    0.36000001    2.94000006
   15.91249943  111.44100189    0.38000000    2.93000007
   15.91583252  111.17800140    0.36000001    2.94000006
   15.91888905  121.53600311    0.38000000    2.93000007
   15.92166710  133.04699707    0.36000001    2.93000007
   15.92277813  122.59899902    0.38000000    2.93000007
   15.92583370  121.36399841    0.34000000    2.93000007
   15.92916679  117.02100372    0.38000000    2.93000007
   15.93249989  123.15699768    0.38000000    2.93000007
   15.93555546  121.31300354    0.36000001    2.93000007
   15.94166660  121.31300354    0.36000001    2.93000007
   15.94583321  127.37799835    0.36000001    2.93000007
   15.94888878  120.12999725    0.38000000    2.93000007
   15.95222187  133.66299438    0.38000000    2.93000007
   15.95499992  131.12100220    0.38000000    2.93000007
   15.95583344  127.61199951    0.36000001    2.93000007
   15.95888901  118.71800232    0.36000001    2.93000007
   15.96222210  119.71700287    0.36000001    2.93000007
   15.96555519  126.53500366    0.34000000    2.93000007
   15.96861076  127.33899689    0.38000000    2.93000007
   15.97194386  122.19499969    0.36000001    2.94000006
   15.97499943  116.01899719    0.36000001    2.93000007
   15.97833252  107.78500366    0.36000001    2.93000007
   15.98444462  107.78500366    0.36000001    2.93000007
   15.98861122  125.10299683    0.36000001    2.93000007
   15.99166679  130.36700439    0.31999999    2.93000007
   15.99499989  116.75399780    0.36000001    2.93000007
   15.99833393  123.81500244    0.38000000    2.93000007
   16.00138855  130.58500671    0.34000000    2.93000007
   16.00472260  129.05400085    0.36000001    2.93000007
   16.00805473  121.60600281    0.36000001    2.93000007
   16.01111031  116.58799744    0.36000001    2.91000009
   16.01444435  118.38700104    0.36000001    2.93000007
   16.01749992  127.57900238    0.36000001    2.93000007
   16.02083397  121.46099854    0.36000001    2.93000007
   16.02166557  123.38099670    0.38000000    2.94000006
   16.02722168  123.38099670    0.36000001    2.93000007
   16.03138924  118.45700073    0.36000001    2.93000007
   16.03472137  128.17399597    0.36000001    2.93000007
   16.03777695  115.18000031    0.36000001    2.93000007
   16.05555534  139.89799500    0.38000000    2.93000007
   16.05777740  136.97900391    0.34000000    2.93000007
   16.06110954  132.63900757    0.36000001    2.93000007
   16.06416512  131.56100464    0.36000001    2.93000007
   16.07027817  131.56100464    0.36000001    2.93000007
   16.07444572  134.20700073    0.38000000    2.93000007
   16.07777786  127.12100220    0.38000000    2.93000007
   16.08083344  136.17300415    0.38000000    2.93000007
   16.08416748  131.22700500    0.40000001    2.93000007
   16.08750153  122.73100281    0.38000000    2.94000006
   16.08861160  135.42700195    0.38000000    2.93000007
   16.09111214  133.18499756    0.38000000    2.93000007
   16.09444427  128.74400330    0.40000001    2.93000007
   16.09749985  133.35699463    0.38000000    2.93000007
   16.10083389  126.48300171    0.40000001    2.93000007
   16.10416794  124.35099792    0.40000001    2.93000007
   16.10722351  125.48799896    0.38000000    2.93000007
   16.11333466  125.48799896    0.40000001    2.93000007
   16.11750031  141.27099609    0.38000000    2.93000007
   16.12055588  114.78600311    0.40000001    2.93000007
   16.12194443  111.88800049    0.38000000    2.94000006
   16.12444496  132.60600281    0.40000001    2.93000007
   16.12750053  122.14900208    0.40000001    2.93000007
   16.13083267  117.90499878    0.38000000    2.93000007
   16.13416672  120.89800262    0.36000001    2.93000007
   16.13722229  114.18199921    0.40000001    2.93000007
   16.14055634  118.09300232    0.36000001    2.93000007
   16.14388847  122.58999634    0.36000001    2.93000007
   16.14694405  135.34100342    0.40000001    2.93000007
   16.15027809  131.07499695    0.31999999    2.93000007
   16.15611076  131.07499695    0.36000001    2.93000007
   16.16027832  123.14600372    0.36000001    2.93000007
   16.16333389  133.19700623    0.40000001    2.93000007
   16.16666603  129.66000366    0.36000001    2.93000007
   16.16972160  132.39199829    0.40000001    2.93000007
   16.17305565  121.39099884    0.40000001    2.94000006
   16.17638779  131.01300049    0.40000001    2.93000007
   16.17944336  113.21600342    0.40000001    2.93000007
   16.18277740  135.66600037    0.40000001    2.93000007
   16.18610954  133.67999268    0.40000001    2.93000007
   16.18861008  127.14499664    0.40000001    2.94000006
   16.18972206  123.74700165    0.40000001    2.94000006
   16.19305420  134.36999512    0.40000001    2.93000007
   16.19888878  134.36999512    0.40000001    2.93000007
   16.20305634  135.60699463    0.40000001    2.93000007
   16.20611191  115.61100006    0.38000000    2.93000007
   16.20944595  123.53700256    0.40000001    2.93000007
   16.21277809  124.46600342    0.38000000    2.93000007
   16.21583366  115.26899719    0.40000001    2.93000007
   16.21916771  136.58700562    0.40000001    2.93000007
   16.22194481  121.82800293    0.41999999    2.93000007
   16.22277832  129.12300110    0.41999999    2.93000007
   16.22583389  131.38800049    0.41999999    2.94000006
   16.22916794  123.87599945    0.36000001    2.93000007
   16.23250008  122.41100311    0.38000000    2.93000007
   16.23555565  131.30700684    0.38000000    2.93000007
   16.24166679  131.30700684    0.36000001    2.93000007
   16.24583435  119.33200073    0.41999999    2.93000007
   16.24916649  116.55000305    0.41999999    2.93000007
   16.25222206  132.38600159    0.40000001    2.93000007
   16.25527763  124.42600250    0.40000001    2.93000007
   16.25583267  121.48100281    0.40000001    2.93000007
   16.25916672  115.63500214    0.40000001    2.93000007
   16.26222229  120.59500122    0.40000001    2.93000007
   16.26555634  123.55100250    0.40000001    2.93000007
   16.26888847  115.46299744    0.36000001    2.93000007
   16.27194405  125.94000244    0.38000000    2.93000007
   16.27527809  137.71699524    0.40000001    2.93000007
   16.27833366  138.96899414    0.38000000    2.93000007
   16.28444481  138.96899414    0.40000001    2.93000007
   16.28861046  136.05700684    0.31999999    2.93000007
   16.29194450  131.52600098    0.40000001    2.93000007
   16.29527664  124.48000336    0.40000001    2.93000007
   16.29833221  123.83999634    0.40000001    2.93000007
   16.30166626  132.98399353    0.38000000    2.93000007
   16.30472183  120.88800049    0.40000001    2.93000007
   16.30805397  129.91600037    0.38000000    2.93000007
   16.31138802  130.29800415    0.34000000    2.93000007
   16.31444359  137.46600342    0.34000000    2.93000007
   16.31777954  129.63200378    0.38000000    2.93000007
   16.32111168  128.20300293    0.38000000    2.93000007
   16.32194519  128.02000427    0.38000000    2.91000009
   16.32750130  128.02000427    0.38000000    2.93000007
   16.33166695  127.55300140    0.36000001    2.93000007
   16.33472252  135.80000305    0.40000001    2.93000007
   16.33805656  141.80200195    0.36000001    2.93000007
   16.34111214  145.33799744    0.36000001    2.93000007
   16.34444427  142.77999878    0.38000000    2.93000007
   16.34777832  124.33999634    0.36000001    2.93000007
   16.35083389  128.92900085    0.38000000    2.93000007
   16.35416794  124.01100159    0.36000001    2.93000007
   16.35527802  136.80999756    0.38000000    2.94000006
   16.35777855  136.43600464    0.36000001    2.93000007
   16.36111069  139.86300659    0.38000000    2.94000006
   16.36416626  123.74800110    0.38000000    2.93000007
   16.37027740  123.74800110    0.34000000    2.94000006
   16.37444496  132.20100403    0.36000001    2.94000006
   16.37750053  130.31500244    0.38000000    2.93000007
   16.38083267  120.75800323    0.31999999    2.93000007
   16.38416672  128.21499634    0.36000001    2.94000006
   16.38722229  129.37300110    0.38000000    2.93000007
   16.38861084  126.41100311    0.36000001    2.93000007
   16.39083290  137.42599487    0.40000001    2.93000007
   16.39416695  127.33100128    0.36000001    2.93000007
   16.39722252  133.72300720    0.38000000    2.93000007
   16.40055466  132.13299561    0.40000001    2.93000007
   16.40361023  129.91000366    0.38000000    2.93000007
   16.40694427  136.27299500    0.38000000    2.93000007
   16.41305542  136.27299500    0.40000001    2.93000007
   16.41722107  129.26699829    0.40000001    2.94000006
   16.42055511  143.79400635    0.31999999    2.93000007
   16.42194366  125.73300171    0.31999999    2.93000007
   16.42416573  130.36999512    0.31999999    2.93000007
   16.42749977  139.87800598    0.31999999    2.93000007
   16.43055534  133.70300293    0.31999999    2.93000007
   16.43388748  133.66999817    0.31999999    2.93000007
   16.43722153  138.26899719    0.31999999    2.93000007
   16.44027710  142.59700012    0.31999999    2.93000007
   16.44361115  131.67399597    0.38000000    2.94000006
   16.44694328  132.74800110    0.40000001    2.93000007
   16.45000076  139.61900330    0.40000001    2.93000007
   16.45583344  139.61900330    0.38000000    2.93000007
   16.46000099  136.64399719    0.40000001    2.93000007
   16.46333504  138.74400330    0.38000000    2.94000006
   16.46638870  134.91099548    0.38000000    2.93000007
   16.46972275  137.01699829    0.40000001    2.93000007
   16.47305679  132.80900574    0.38000000    2.93000007
   16.47611237  136.10899353    0.38000000    2.94000006
   16.47944450  133.76699829    0.38000000    2.93000007
   16.48277855  134.81599426    0.38000000    2.93000007
   16.48583412  138.40800476    0.38000000    2.94000006
   16.48861122  134.50599670    0.31999999    2.93000007
   16.48944473  141.02600098    0.34000000    2.93000007
   16.49277878  145.35200500    0.36000001    2.93000007
   16.49888992  145.35200500    0.36000001    2.93000007
   16.50277710  135.10299683    0.36000001    2.93000007
   16.50611115  143.64999390    0.38000000    2.93000007
   16.50944519  143.76199341    0.38000000    2.93000007
   16.51250076  135.48500061    0.38000000    2.93000007
   16.51583290  129.00900269    0.38000000    2.93000007
   16.51916695  135.52499390    0.38000000    2.93000007
   16.52194405  139.97399902    0.38000000    2.93000007
   16.52277756  137.49200439    0.38000000    2.93000007
   16.52611160  133.12800598    0.40000001    2.93000007
   16.52916718  137.97900391    0.40000001    2.93000007
   16.53249931  126.88400269    0.38000000    2.93000007
   16.53583336  117.87899780    0.40000001    2.93000007
   16.54166603  117.87899780    0.40000001    2.93000007
   16.54583359  129.06599426    0.40000001    2.94000006
   16.54888916  142.04100037    0.40000001    2.93000007
   16.55222130  128.81700134    0.40000001    2.93000007
   16.55527687  140.46600342    0.40000001    2.93000007
   16.55583191  141.54100037    0.40000001    2.93000007
   16.55916595  131.84800720    0.40000001    2.93000007
   16.56222153  135.02900696    0.40000001    2.93000007
   16.56555557  136.54200745    0.40000001    2.93000007
   16.56888962  123.56999969    0.40000001    2.93000007
   16.57194519  128.52200317    0.40000001    2.93000007
   16.57527924  124.25199890    0.40000001    2.94000006
   16.57833481  131.80900574    0.40000001    2.94000006
   16.58444595  131.80900574    0.40000001    2.93000007
   16.58861160  130.13499451    0.40000001    2.93000007
   16.58916664  138.83500671    0.40000001    2.93000007
   16.59250069  143.97500610    0.40000001    2.93000007
   16.59555626  119.19999695    0.40000001    2.93000007
   16.59889030  142.75000000    0.41999999    2.93000007
   16.60222244  134.24000549    0.40000001    2.93000007
   16.60527802  142.38800049    0.40000001    2.93000007
   16.60861206  133.02900696    0.40000001    2.93000007
   16.61166763  142.36900330    0.41999999    2.93000007
   16.61499977  125.11900330    0.41999999    2.93000007
   16.61833382  137.31500244    0.41999999    2.93000007
   16.62138939  139.85200500    0.41999999    2.93000007
   16.62249947  143.57499695    0.41999999    2.93000007
   16.62722206  143.57499695    0.41999999    2.93000007
   16.63138962  133.97900391    0.41999999    2.94000006
   16.63472176  142.55700684    0.41999999    2.93000007
   16.63777733  130.85400391    0.41999999    2.94000006
   16.64111137  137.31799316    0.40000001    2.93000007
   16.64444351  132.76899719    0.40000001    2.93000007
   16.64749908  135.87300110    0.38000000    2.93000007
   16.65083313  126.67500305    0.41999999    2.93000007
   16.65416718  119.20500183    0.40000001    2.94000006
   16.65583229  132.42199707    0.40000001    2.94000006
   16.65777779  152.32099915    0.40000001    2.94000006
   16.66083336  133.15699768    0.40000001    2.94000006
   16.66416550  133.55799866    0.38000000    2.93000007
   16.67027664  133.55799866    0.40000001    2.93000007
   16.67416573  134.42199707    0.40000001    2.93000007
   16.67749977  130.22999573    0.40000001    2.93000007
   16.68083191  125.65200043    0.36000001    2.93000007
   16.68388748  144.59800720    0.40000001    2.93000007
   16.68722153  140.47999573    0.40000001    2.93000007
   16.68916512  144.83500671    0.40000001    2.93000007
   16.69083214  137.99200439    0.40000001    2.93000007
   16.69388771  135.01699829    0.40000001    2.93000007
   16.69722176  142.41200256    0.38000000    2.94000006
   16.70027924  136.08000183    0.40000001    2.91000009
   16.70361137  139.34700012    0.40000001    2.93000007
   16.70694542  139.20399475    0.40000001    2.93000007
   16.71305656  139.20399475    0.38000000    2.93000007
   16.71722221  141.91400146    0.40000001    2.93000007
   16.72027779  142.94200134    0.40000001    2.93000007
   16.72249985  138.33700562    0.40000001    2.93000007
   16.72416687  136.83900452    0.36000001    2.93000007
   16.72722244  145.90499878    0.40000001    2.93000007
   16.73055649  149.82699585    0.40000001    2.93000007
   16.73361206  147.23899841    0.41999999    2.94000006
   16.73694420  135.37199402    0.40000001    2.93000007
   16.74027824  137.77900696    0.40000001    2.93000007
   16.74333382  126.55999756    0.38000000    2.93000007
   16.74666786  129.04299927    0.40000001    2.93000007
   16.75000000  140.62399292    0.41999999    2.93000007
   16.75583267  140.62399292    0.44000000    2.93000007
   16.76000023  142.30000305    0.44000000    2.93000007
   16.76333427  153.86099243    0.44000000    2.93000007
   16.76638794  154.17300415    0.44000000    2.93000007
   16.76972198  146.67100525    0.44000000    2.93000007
   16.77277756  152.54600525    0.46000001    2.93000007
   16.77611160  152.83399963    0.47999999    2.93000007
   16.77944374  157.03100586    0.47999999    2.93000007
   16.78249931  142.88499451    0.47999999    2.93000007
   16.78583336  154.51899719    0.47999999    2.93000007
   16.78916550  146.99400330    0.47999999    2.91000009
   16.78972244  131.00399780    0.47999999    2.91000009
   16.79277802  137.97799683    0.46000001    2.93000007
   16.79861069  137.97799683    0.47999999    2.93000007
   16.80277634  138.50700378    0.46000001    2.93000007
   16.80611038  135.55900574    0.46000001    2.94000006
   16.80916595  139.47900391    0.44000000    2.93000007
   16.81250000  143.23800659    0.44000000    2.93000007
   16.81583214  137.30700684    0.46000001    2.93000007
   16.81888962  136.85000610    0.46000001    2.94000006
   16.82222366  140.28599548    0.46000001    2.94000006
   16.82305717  159.43899536    0.46000001    2.93000007
   16.82583427  150.88400269    0.47999999    2.93000007
   16.82916832  153.07699585    0.46000001    2.94000006
   16.83222389  144.80099487    0.50000000    2.93000007
   16.83555603  133.89700317    0.50000000    2.94000006
   16.84166718  133.89700317    0.50000000    2.94000006
   16.84555626  144.13900757    0.46000001    2.93000007
   16.84889030  154.59300232    0.55000001    2.93000007
   16.85222244  143.73100281    0.50000000    2.93000007
   16.85527802  149.93499756    0.47999999    2.93000007
   16.85639000  143.18200684    0.46000001    2.93000007
   16.85888863  148.46699524    0.46000001    2.93000007
   16.86222267  150.46899414    0.47999999    2.93000007
   16.86527824  140.21699524    0.50000000    2.93000007
   16.86861038  139.37699890    0.52999997    2.93000007
   16.87194443  138.46400452    0.50000000    2.94000006
   16.87500000  131.25500488    0.50000000    2.93000007
   16.87833405  135.70700073    0.47999999    2.93000007
   16.88444519  135.70700073    0.56999999    2.93000007
   16.88861084  123.43800354    0.55000001    2.93000007
   16.88972282  137.46400452    0.52999997    2.93000007
   16.89222145  134.11199951    0.51999998    2.91000009
   16.89555550  142.85299683    0.50000000    2.93000007
   16.89861107  137.11300659    0.51999998    2.93000007
   16.90194321  119.23300171    0.46000001    2.93000007
   16.90527725  127.74299622    0.51999998    2.91000009
   16.90833282  111.36799622    0.50000000    2.94000006
   16.91166687  133.52900696    0.47999999    2.93000007
   16.91499901  133.65499878    0.47999999    2.93000007
   16.91805458  131.24699402    0.47999999    2.93000007
   16.92138863  131.67599487    0.47999999    2.93000007
   16.92305565  131.52299500    0.46000001    2.93000007
   16.92722130  131.52299500    0.79000002    2.93000007
   16.93138885  144.33900452    0.69000000    2.91000009
   16.93472099  131.35600281    0.52999997    2.93000007
   16.93777657  139.94099426    0.47999999    2.93000007
   16.94111061  144.86099243    0.47999999    2.93000007
   16.94444275  148.71299744    0.47999999    2.93000007
   16.94749832  139.77400208    0.50000000    2.93000007
   16.95083427  143.40899658    0.52999997    2.93000007
   16.95416832  132.62500000    0.51999998    2.93000007
   16.95639038  150.75100708    0.51999998    2.93000007
   16.95750046  132.19200134    0.51999998    2.93000007
   16.96083450  141.53199768    0.50000000    2.93000007
   16.96389008  124.93900299    0.50000000    2.93000007
   16.97000122  124.93900299    0.50000000    2.93000007
   16.97416687  133.62199402    0.51999998    2.93000007
   16.97750092  128.61000061    0.51999998    2.93000007
   16.98055649  130.50000000    0.56999999    2.93000007
   16.98388863  125.46800232    0.64999998    2.94000006
   16.98722267  137.54100037    0.52999997    2.93000007
   16.98972321  130.72700500    0.52999997    2.93000007
   16.99083328  127.88999939    0.55000001    2.93000007
   16.99416733  127.82099915    0.61000001    2.93000007
   16.99722290  125.37100220    0.56999999    2.94000006
   17.00055504  132.92999268    0.51999998    2.93000007
   17.00388908  147.33900452    0.50000000    2.93000007
   17.00694466  134.59199524    0.50000000    2.93000007
   17.01305580  134.59199524    0.52999997    2.93000007
   17.01722145  151.28500366    0.51999998    2.93000007
   17.02027702  137.84399414    0.55000001    2.94000006
   17.02305603  144.89199829    0.55000001    2.93000007
   17.02388954  136.20199585    0.52999997    2.93000007
   17.02722168  132.05900574    0.47999999    2.93000007
   17.03027725  133.93200684    0.46000001    2.94000006
