    HOUR (UT)   FLARE FACTOR    SKY TESTER    SUN TESTER
   12.25749969   -1.00000000   -1.00000000   -1.00000000
   12.27805519   96.05039978    0.55000001    1.94000006
   12.28361130   94.40100098    0.55000001    1.94000006
   12.28750038  129.04600525    0.55000001    1.94000006
   12.29083347  101.24199677    0.55000001    1.94000006
   12.29388905   89.32219696    0.55000001    1.96000004
   12.29722309  100.26499939    0.55000001    1.96000004
   12.30055618  100.96199799    0.55000001    1.96000004
   12.30361176   93.57620239    0.55000001    1.96000004
   12.30694485   99.14859772    0.55000001    1.96000004
   12.31000042   90.86389923    0.55000001    1.98000002
   12.31138897   84.05229950    0.55000001    1.98000002
   12.31388950   89.32060242    0.56999999    1.98000002
   12.31694412   91.23259735    0.52999997    1.98000002
   12.32027817   93.36740112    0.55000001    1.98000002
   12.32361126   86.05650330    0.52999997    1.96000004
   12.32666683   89.61460114    0.58999997    1.98000002
   12.32999992   95.74140167    0.52999997    1.98000002
   12.33333302   89.63020325    0.52999997    1.98000002
   12.33638859   91.35340118    0.52999997    2.00000000
   12.33972168   91.66819763    0.52999997    1.98000002
   12.34277725   92.06120300    0.52999997    1.98000002
   12.34472179   91.59190369    0.58999997    1.98000002
   12.34666634   86.92310333    0.52999997    2.00000000
   12.35000038   89.89520264    0.52999997    2.01999998
   12.35305595   86.49069977    0.56999999    2.00000000
   12.35638905   90.95510101    0.55000001    2.01999998
   12.35944462   89.72509766    0.55000001    2.00000000
   12.36277771   96.92769623    0.52999997    2.01999998
   12.36611176   93.55850220    0.51999998    2.00000000
   12.36916637   93.48220062    0.51999998    2.01999998
   12.37250042   99.06759644    0.51999998    2.01999998
   12.37583351   92.94539642    0.51999998    2.01999998
   12.37805557   95.15149689    0.51999998    2.01999998
   12.37944412   91.52050018    0.51999998    2.01999998
   12.38277817   92.75070190    0.52999997    2.01999998
   12.38583279   89.22810364    0.52999997    2.01999998
   12.38916683   89.32679749    0.51999998    2.03999996
   12.39222240   89.90129852    0.51999998    2.03999996
   12.39555550   90.99600220    0.51999998    2.01999998
   12.39888859   87.97090149    0.52999997    2.01999998
   12.40194416   86.45919800    0.51999998    2.03999996
   12.40527725   87.43160248    0.51999998    2.03999996
   12.40861034   92.05249786    0.51999998    2.05999994
   12.41138840   95.65039825    0.51999998    2.03999996
   12.41222191   89.24649811    0.55000001    2.03999996
   12.41555500   89.50569916    0.51999998    2.05999994
   12.41861153   90.26399994    0.51999998    2.05999994
   12.42194462   92.90560150    0.51999998    2.05999994
   12.42500019   94.87390137    0.52999997    2.05999994
   12.42833328   88.20850372    0.51999998    2.05999994
   12.43166733  104.34700012    0.51999998    2.05999994
   12.43472195   90.41729736    0.51999998    2.05999994
   12.43805599   90.60279846    0.51999998    2.07999992
   12.44138908   90.18859863    0.51999998    2.07999992
   12.44444466   91.61360168    0.52999997    2.07999992
   12.44499969   91.10250092    0.52999997    2.07999992
   12.44833374   97.50090027    0.51999998    2.07999992
   12.45166683   87.81569672    0.50000000    2.07999992
   12.45472240   87.11389923    0.50000000    2.07999992
   12.45805550   91.68109894    0.50000000    2.07999992
   12.46138859   92.10559845    0.51999998    2.09999990
   12.46444416   93.11920166    0.55000001    2.09999990
   12.46777725   92.18309784    0.51999998    2.09999990
   12.47083282   95.94139862    0.51999998    2.09999990
   12.47416592   87.95330048    0.50000000    2.09999990
   12.47749996   90.40640259    0.50000000    2.09999990
   12.47833252   94.02780151    0.50000000    2.09999990
   12.48111057   90.47200012    0.50000000    2.09999990
   12.48444462   88.64230347    0.50000000    2.09999990
   12.48750019   85.94380188    0.50000000    2.09999990
   12.49083328   95.48030090    0.50000000    2.11999989
   12.49416733   88.44170380    0.50000000    2.09999990
   12.49722290   89.39309692    0.51999998    2.11999989
   12.50055599   86.16480255    0.50000000    2.11999989
   12.50361156   87.24539948    0.50000000    2.11999989
   12.50694466   83.45970154    0.51999998    2.11999989
   12.51027775   87.70410156    0.47999999    2.11999989
   12.51166630   91.86219788    0.50000000    2.11999989
   12.51388931   83.37190247    0.50000000    2.11999989
   12.51722240   93.57489777    0.51999998    2.11999989
   12.52027798   89.31990051    0.50000000    2.11999989
   12.52361107   86.31939697    0.51999998    2.11999989
   12.52694416   88.26309967    0.47999999    2.13000011
   12.52999973   83.19719696    0.47999999    2.13000011
   12.53333378   88.91470337    0.50000000    2.11999989
   12.53666687   90.27439880    0.51999998    2.13000011
   12.53972244   89.06040192    0.51999998    2.13000011
   12.54305553   88.34559631    0.47999999    2.13000011
   12.54500008   87.11640167    0.50000000    2.13000011
   12.54666710   90.89080048    0.47999999    2.13000011
   12.55000019  101.34100342    0.51999998    2.13000011
   12.55305576   88.40799713    0.47999999    2.13000011
   12.55638885   91.67610168    0.47999999    2.13000011
   12.55972195   88.21990204    0.50000000    2.13000011
   12.56277752   94.98680115    0.47999999    2.13000011
   12.56611156   87.88059998    0.47999999    2.15000010
   12.56916618   88.92759705    0.47999999    2.15000010
   12.57250023   89.98629761    0.46000001    2.15000010
   12.57583332   93.29319763    0.47999999    2.15000010
   12.57833290   83.96630096    0.46000001    2.15000010
   12.57944393   91.26170349    0.46000001    2.15000010
   12.58277798   91.26329803    0.46000001    2.17000008
   12.58583260   86.66819763    0.47999999    2.17000008
   12.58916664   87.63880157    0.46000001    2.17000008
   12.59249973   89.28269958    0.46000001    2.17000008
   12.59555531   93.80100250    0.50000000    2.17000008
   12.59888840   87.12920380    0.47999999    2.17000008
   12.60194492   85.26869965    0.46000001    2.17000008
   12.60527802   83.91359711    0.47999999    2.17000008
   12.60861111   93.65609741    0.46000001    2.17000008
   12.61166668   87.31250000    0.46000001    2.17000008
   12.61222267   92.46309662    0.46000001    2.17000008
   12.61555576   92.72119904    0.50000000    2.19000006
   12.61861134   90.67060089    0.46000001    2.17000008
   12.62194443   87.21399689    0.51999998    2.17000008
   12.62527752   92.67369843    0.46000001    2.19000006
   12.62833309   86.09190369    0.46000001    2.19000006
   12.63166714   92.44889832    0.47999999    2.19000006
   12.63472176   84.54160309    0.46000001    2.19000006
   12.63805580   95.01940155    0.46000001    2.21000004
   12.64138889   86.86900330    0.46000001    2.19000006
   12.64444447   90.96209717    0.46000001    2.19000006
   12.64499950   87.37000275    0.46000001    2.19000006
   12.64805508   89.65390015    0.46000001    2.19000006
   12.65138817   88.74949646    0.47999999    2.19000006
   12.65444374   91.87729645    0.47999999    2.21000004
   12.65777779   92.37049866    0.46000001    2.19000006
   12.66111088   94.29959869    0.47999999    2.19000006
   12.66416645   96.61029816    0.44000000    2.21000004
   12.66750050   91.47239685    0.44000000    2.21000004
   12.67055607   88.89649963    0.44000000    2.21000004
   12.67388916   85.22209930    0.51999998    2.21000004
   12.67722225   91.48320007    0.46000001    2.21000004
   12.67833328   87.28659821    0.46000001    2.21000004
   12.68083382   95.95469666    0.50000000    2.21000004
   12.68416691   93.32730103    0.44000000    2.21000004
   12.68722248   89.80010223    0.44000000    2.23000002
   12.69055557   98.40679932    0.44000000    2.23000002
   12.69388866  103.85600281    0.44000000    2.21000004
   12.69694424   95.56169891    0.44000000    2.21000004
   12.70027733   93.06379700    0.44000000    2.23000002
   12.70333290   91.35990143    0.44000000    2.23000002
   12.70666695   84.69080353    0.44000000    2.23000002
   12.71000004   94.11889648    0.44000000    2.23000002
   12.71166611   88.38780212    0.44000000    2.23000002
   12.71361065   85.58480072    0.46000001    2.23000002
   12.71694374   90.18049622    0.44000000    2.25000000
   12.71999931   87.49340057    0.44000000    2.23000002
   12.72333336   88.13680267    0.46000001    2.23000002
   12.72666645   86.57749939    0.44000000    2.25000000
   12.72972202   87.87000275    0.41999999    2.25000000
   12.73305511   84.84349823    0.41999999    2.25000000
   12.73611164   91.74559784    0.44000000    2.25000000
   12.73944473   81.78910065    0.44000000    2.25000000
   12.74277782   85.63189697    0.44000000    2.23000002
   12.74499989   92.38020325    0.41999999    2.25000000
   12.74638939   87.63790131    0.41999999    2.25000000
   12.74972248   92.16100311    0.41999999    2.25000000
   12.75277805   87.60620117    0.44000000    2.25000000
   12.75611115   83.18019867    0.44000000    2.25000000
   12.75944424   85.35189819    0.41999999    2.25000000
   12.76249981   90.14579773    0.41999999    2.25000000
   12.76583290   85.69799805    0.41999999    2.26999998
   12.76916599   97.91609955    0.41999999    2.26999998
   12.77222157   83.31169891    0.44000000    2.25000000
   12.77555561   85.60160065    0.41999999    2.25000000
   12.77833271   87.12419891    0.41999999    2.26999998
   12.77916622   84.26920319    0.41999999    2.26999998
   12.78249931   85.82520294    0.46000001    2.25000000
   12.78555584   82.57689667    0.41999999    2.26999998
   12.78888893   85.93250275    0.46000001    2.26999998
   12.79222298   90.55069733    0.44000000    2.26999998
   12.79527855   88.66179657    0.41999999    2.28999996
   12.79861164   82.23079681    0.44000000    2.26999998
   12.80166721   85.95469666    0.41999999    2.26999998
   12.80500031   87.11170197    0.41999999    2.26999998
   12.80833340   88.03820038    0.41999999    2.28999996
   12.81138897   87.29820251    0.41999999    2.26999998
   12.81194496   86.65460205    0.41999999    2.26999998
   12.81527805   91.52310181    0.44000000    2.28999996
   12.81861115   83.82530212    0.40000001    2.26999998
   12.82166672   79.56809998    0.40000001    2.28999996
   12.82499981   90.64260101    0.40000001    2.28999996
   12.82805538   86.36340332    0.40000001    2.26999998
   12.83138847   85.62460327    0.44000000    2.28999996
   12.83472157   84.80619812    0.40000001    2.28999996
   12.83777714   85.23519897    0.40000001    2.28999996
   12.84111118   81.28279877    0.41999999    2.28999996
   12.84416676   83.91059875    0.40000001    2.28999996
   12.84527779   86.61319733    0.41999999    2.28999996
   12.84805489   84.53880310    0.40000001    2.28999996
   12.85111141   81.11360168    0.41999999    2.28999996
   12.85444450   92.92430115    0.40000001    2.28999996
   12.85777855   83.63659668    0.41999999    2.30999994
   12.86083412   87.42520142    0.44000000    2.30999994
   12.86416721   86.65139771    0.40000001    2.30999994
   12.86750031   79.07250214    0.41999999    2.30999994
   12.87055588   83.34429932    0.40000001    2.30999994
   12.87388897   86.11309814    0.41999999    2.30999994
   12.87694454   95.44439697    0.40000001    2.30999994
   12.87861156   82.69229889    0.40000001    2.30999994
   12.88083363   81.29540253    0.40000001    2.30999994
   12.88416672   88.52600098    0.40000001    2.30999994
   12.88722229   90.90290070    0.44000000    2.30999994
   12.89055538   87.91380310    0.40000001    2.30999994
   12.89361095   95.93190002    0.40000001    2.32999992
   12.89694405   91.82109833    0.40000001    2.32999992
   12.90027714   90.88999939    0.40000001    2.32999992
   12.90361118   96.41280365    0.44000000    2.32999992
   12.90694427   89.68090057    0.40000001    2.32999992
   12.90999985   85.30999756    0.40000001    2.32999992
   12.91194439   86.83380127    0.40000001    2.32999992
   12.91388893   90.14270020    0.40000001    2.32999992
   12.91694450   95.73529816    0.40000001    2.32999992
   12.92027855   85.64959717    0.40000001    2.32999992
   12.92361164   88.26570129    0.40000001    2.32999992
   12.92666721   85.46450043    0.41999999    2.32999992
   12.93000031   88.65920258    0.40000001    2.32999992
   12.93305588   82.03099823    0.40000001    2.32999992
   12.93638897   82.99009705    0.40000001    2.32999992
   12.93944454   87.40460205    0.40000001    2.32999992
   12.94277763   86.39810181    0.40000001    2.32999992
   12.94527817   83.71450043    0.38000000    2.32999992
   12.94638920   90.58139801    0.40000001    2.32999992
   12.94944477   83.75900269    0.40000001    2.34999990
   12.95277786   90.03019714    0.44000000    2.32999992
   12.95611095   88.10250092    0.40000001    2.34999990
   12.95916653   79.24510193    0.40000001    2.34999990
   12.96249962   86.95929718    0.38000000    2.36999989
   12.96555519   86.33519745    0.40000001    2.34999990
   12.96888828   85.87930298    0.40000001    2.34999990
   12.97194386   84.28790283    0.38000000    2.34999990
   12.97527695   88.88760376    0.38000000    2.34999990
   12.97861099   82.80909729    0.40000001    2.34999990
   12.97916603   89.66149902    0.38000000    2.34999990
   12.98222160   83.16919708    0.38000000    2.34999990
   12.98555565   79.55470276    0.38000000    2.34999990
   12.98861122   77.97910309    0.38000000    2.34999990
   12.99194431   86.01210022    0.38000000    2.34999990
   12.99527836   86.90350342    0.40000001    2.36999989
   12.99833393   85.13790131    0.38000000    2.34999990
   13.00166702   81.04280090    0.40000001    2.34999990
   13.00472260   81.38510132    0.40000001    2.34999990
   13.00805569   80.36070251    0.40000001    2.34999990
   13.01138878   90.56770325    0.38000000    2.36999989
   13.01249981   84.62599945    0.38000000    2.36999989
   13.01472187   85.97339630    0.40000001    2.36999989
   13.01805496   81.13339996    0.36000001    2.36999989
   13.02111053   78.53829956    0.36000001    2.36999989
   13.02444458   83.52660370    0.38000000    2.36999989
   13.02777767   88.66030121    0.38000000    2.36999989
   13.03083324   79.80380249    0.36000001    2.36999989
   13.03416729   80.71739960    0.38000000    2.36999989
   13.03750038   80.97530365    0.38000000    2.36999989
   13.04083347   85.16329956    0.36000001    2.36999989
   13.04388905   85.82409668    0.38000000    2.39000010
   13.04583359   87.79850006    0.36000001    2.36999989
   13.04750061   81.76329803    0.38000000    2.36999989
   13.05083370   79.32070160    0.36000001    2.39000010
   13.05388927   80.23860168    0.36000001    2.36999989
   13.05722237   85.18869781    0.38000000    2.36999989
   13.06055546   80.45520020    0.38000000    2.39000010
   13.06361103   79.21320343    0.36000001    2.36999989
   13.06694412   81.67479706    0.36000001    2.39000010
   13.06999969   81.71610260    0.36000001    2.39000010
   13.07333374   81.83589935    0.38000000    2.39000010
   13.07638836   89.14450073    0.36000001    2.39000010
   13.07916641   91.61199951    0.38000000    2.39000010
   13.07999992   86.56890106    0.36000001    2.36999989
   13.08333302   83.02390289    0.36000001    2.39000010
   13.08638859   79.67790222    0.36000001    2.39000010
   13.08972168   78.89689636    0.36000001    2.39000010
   13.09305477   83.15000153    0.36000001    2.39000010
   13.09611034   84.62850189    0.36000001    2.39000010
   13.09944439   82.63919830    0.36000001    2.39000010
   13.10249996   82.89230347    0.34000000    2.39000010
   13.10583401   89.02339935    0.34000000    2.39000010
   13.10916710   82.71119690    0.34000000    2.39000010
   13.11250019   91.72669983    0.34000000    2.39000010
   13.11277771   89.75689697    0.36000001    2.40000010
   13.11611176   87.70400238    0.36000001    2.40000010
   13.11916637   88.56379700    0.36000001    2.40000010
   13.12250042   88.27210236    0.36000001    2.39000010
   13.12583351   83.05410004    0.36000001    2.39000010
   13.12888908   82.79180145    0.36000001    2.40000010
   13.13222218   83.44300079    0.34000000    2.39000010
   13.13611126   85.12560272    0.34000000    2.40000010
   13.13944435   81.33290100    0.34000000    2.40000010
   13.14249992   82.76210022    0.36000001    2.40000010
   13.14583302   82.27359772    0.36000001    2.40000010
   13.14611053   82.23079681    0.36000001    2.40000010
   13.14972210   86.81729889    0.36000001    2.40000010
   13.15277767   86.98490143    0.36000001    2.40000010
   13.15611076   94.41639709    0.36000001    2.40000010
   13.15944386   87.91699982    0.36000001    2.40000010
   13.16277695   87.80879974    0.36000001    2.40000010
   13.16583252   84.99189758    0.36000001    2.40000010
   13.16916656   88.02169800    0.36000001    2.40000010
   13.17250061   89.42220306    0.36000001    2.40000010
   13.17555618   84.18240356    0.36000001    2.40000010
   13.17888927   90.47989655    0.36000001    2.40000010
   13.17972279   89.99859619    0.36000001    2.40000010
   13.18277836   82.95719910    0.36000001    2.40000010
   13.18611145   89.41790009    0.36000001    2.40000010
   13.18944454   87.41230011    0.38000000    2.40000010
   13.19277763   86.64830017    0.36000001    2.40000010
   13.19583321   80.70890045    0.36000001    2.42000008
   13.19916630   84.43460083    0.38000000    2.40000010
   13.20249939   81.44519806    0.36000001    2.42000008
   13.20583344   81.56739807    0.36000001    2.42000008
   13.20916653   81.55999756    0.36000001    2.42000008
   13.21249962   79.15920258    0.36000001    2.42000008
   13.21305561   81.59660339    0.36000001    2.42000008
   13.21583271   81.10890198    0.36000001    2.42000008
   13.21916580   81.70300293    0.36000001    2.42000008
   13.22249985   81.92279816    0.36000001    2.42000008
   13.22555542   90.50009918    0.36000001    2.42000008
   13.22888851   86.39369965    0.38000000    2.42000008
   13.23194408   79.78739929    0.36000001    2.42000008
   13.23527813   85.94020081    0.36000001    2.42000008
   13.23861122   87.70010376    0.34000000    2.42000008
   13.24166679   87.81340027    0.36000001    2.42000008
   13.24499989   84.70020294    0.38000000    2.42000008
   13.24638939   84.14109802    0.36000001    2.42000008
   13.24861145   85.96189880    0.38000000    2.44000006
   13.25194454   87.66770172    0.34000000    2.44000006
   13.25500011   85.06349945    0.38000000    2.44000006
   13.25833321   85.08360291    0.34000000    2.42000008
   13.26166630   91.14360046    0.36000001    2.44000006
   13.26472187   87.81439972    0.34000000    2.44000006
   13.26805496   92.64340210    0.34000000    2.44000006
   13.27111053   84.60590363    0.34000000    2.44000006
   13.27444458   87.95390320    0.34000000    2.44000006
   13.27750015   92.59960175    0.34000000    2.44000006
   13.29472256   84.75599670    0.34000000    2.44000006
   13.29750061   90.01560211    0.34000000    2.44000006
   13.30055618   88.23660278    0.34000000    2.44000006
   13.30388927   87.43070221    0.36000001    2.44000006
   13.30722237   84.76329803    0.34000000    2.46000004
   13.31027794   83.60690308    0.34000000    2.46000004
   13.31361103   83.82319641    0.34000000    2.46000004
   13.31694412   85.50650024    0.36000001    2.44000006
   13.31999969   86.90280151    0.36000001    2.44000006
   13.32333374   83.77290344    0.34000000    2.46000004
   13.32666683   89.43840027    0.34000000    2.46000004
   13.32805538   83.96749878    0.34000000    2.46000004
   13.32999992   82.84079742    0.34000000    2.46000004
   13.33333302   90.37500000    0.34000000    2.46000004
   13.33666611   88.38950348    0.34000000    2.46000004
   13.33972168   84.59980011    0.34000000    2.46000004
   13.34305477   83.38310242    0.34000000    2.46000004
   13.34611034   88.96759796    0.34000000    2.46000004
   13.34944439   83.66220093    0.36000001    2.46000004
   13.35305595   89.22730255    0.34000000    2.46000004
   13.35611153   85.75039673    0.34000000    2.46000004
   13.35944462   89.67279816    0.34000000    2.46000004
   13.36138916   85.10900116    0.34000000    2.46000004
   13.36333370   89.76270294    0.34000000    2.46000004
   13.36638927   85.57119751    0.34000000    2.46000004
   13.36972237   90.84980011    0.34000000    2.46000004
   13.37305546   93.88939667    0.34000000    2.46000004
   13.37611103   91.29180145    0.34000000    2.46000004
   13.37944412   83.34880066    0.36000001    2.46000004
   13.38249969   80.74320221    0.34000000    2.46000004
   13.38583279   80.38349915    0.34000000    2.46000004
   13.38916683   86.30509949    0.31999999    2.46000004
   13.39222240   80.98889923    0.31999999    2.48000002
   13.39472198   78.85579681    0.34000000    2.46000004
   13.39611053   79.32849884    0.34000000    2.46000004
   13.39916611   79.95010376    0.34000000    2.46000004
   13.40249920   86.74160004    0.31999999    2.46000004
   13.40555477   77.64520264    0.31999999    2.48000002
   13.40888882   82.26200104    0.31999999    2.48000002
   13.41222191   81.85859680    0.31999999    2.48000002
   13.41555500   85.51830292    0.31999999    2.46000004
   13.41888905   83.20880127    0.31999999    2.46000004
   13.42194462   82.45729828    0.31999999    2.48000002
   13.42527771   82.42050171    0.31999999    2.48000002
   13.42805576   87.02339935    0.31999999    2.46000004
   13.42888927   86.28600311    0.31999999    2.46000004
   13.43194485   85.98249817    0.31999999    2.46000004
   13.43527794   82.63569641    0.31999999    2.48000002
   13.43861103   82.35569763    0.31999999    2.48000002
   13.44166660   83.30840302    0.31999999    2.48000002
   13.44499969   81.32740021    0.31999999    2.46000004
   13.44833374   81.53919983    0.31999999    2.48000002
   13.45138836   89.65599823    0.31999999    2.48000002
   13.45472240   89.14050293    0.31999999    2.48000002
   13.45777798   87.43710327    0.31999999    2.48000002
   13.46111107   85.70439911    0.31999999    2.48000002
   13.46166611   87.29010010    0.31999999    2.48000002
   13.46500015   88.21600342    0.31999999    2.48000002
   13.46888828   92.56719971    0.31999999    2.48000002
   13.47249985   93.17559814    0.31999999    2.48000002
   13.47555542   89.40390015    0.31999999    2.48000002
   13.47888851   84.84919739    0.31999999    2.48000002
   13.48194408   89.16040039    0.31999999    2.48000002
   13.48527813   90.27649689    0.31999999    2.48000002
   13.48861122   93.90670013    0.31999999    2.50000000
   13.49166679   87.97560120    0.31999999    2.48000002
   13.49499989   80.65309906    0.31999999    2.48000002
   13.49527836   83.86479950    0.31999999    2.48000002
   13.49861145   80.90029907    0.31999999    2.50000000
   13.50194454   86.33439636    0.31999999    2.48000002
   13.50500011   93.21939850    0.31999999    2.48000002
   13.50833321   85.76039886    0.31999999    2.50000000
   13.51166630   92.81950378    0.31999999    2.50000000
   13.51472187   81.43190002    0.31999999    2.48000002
   13.51805496   81.91190338    0.31999999    2.50000000
   13.52111053   80.33190155    0.31999999    2.50000000
   13.52444458   79.36199951    0.31999999    2.50000000
   13.52777767   86.37400055    0.31999999    2.50000000
   13.52833271   79.36219788    0.31999999    2.50000000
   13.53138828   86.94360352    0.31999999    2.50000000
   13.53444481  100.67800140    0.31999999    2.50000000
   13.53777790  108.93000031    0.30000001    2.50000000
   13.54111195   91.53630066    0.34000000    2.50000000
   13.54416752   97.51660156    0.31999999    2.50000000
   13.54750061  100.69599915    0.30000001    2.50000000
   13.55055618   90.14109802    0.30000001    2.50000000
   13.55388927   89.08640289    0.31999999    2.50000000
   13.55722237   92.02040100    0.31999999    2.50000000
   13.56027794   86.90489960    0.30000001    2.50000000
   13.56250000   94.85469818    0.31999999    2.51999998
   13.56527805   95.08499908    0.30000001    2.50000000
   13.56916618   83.67430115    0.31999999    2.51999998
   13.57305527   80.90200043    0.30000001    2.50000000
   13.57611084   85.13899994    0.30000001    2.50000000
   13.57944393   84.19570160    0.31999999    2.50000000
   13.58249950  111.80799866    0.30000001    2.50000000
   13.58583260  105.24199677    0.34000000    2.50000000
   13.58916664   87.26550293    0.34000000    2.50000000
   13.59222221   98.89420319    0.31999999    2.50000000
   13.59499931   96.06839752    0.30000001    2.51999998
   13.59583282   87.41799927    0.31999999    2.50000000
   13.59888840   91.37599945    0.30000001    2.51999998
   13.60222244  108.49299622    0.30000001    2.51999998
   13.60555553  104.18199921    0.30000001    2.50000000
   13.60861111   86.49079895    0.30000001    2.50000000
   13.61194515   98.21099854    0.31999999    2.51999998
   13.61500072   88.25319672    0.31999999    2.50000000
   13.61833382   94.05329895    0.30000001    2.51999998
   13.62166691   92.83200073    0.31999999    2.51999998
   13.62472248  110.95800018    0.30000001    2.51999998
   13.62805557  107.97299957    0.30000001    2.51999998
   13.62861156   89.70069885    0.31999999    2.51999998
   13.63138866   92.42900085    0.30000001    2.51999998
   13.63472176  100.73999786    0.30000001    2.51999998
   13.63805580  109.24299622    0.31999999    2.51999998
   13.64111137   90.13040161    0.30000001    2.51999998
   13.64444447  104.31400299    0.30000001    2.51999998
   13.64750004   91.73750305    0.30000001    2.51999998
   13.65083313  119.33399963    0.30000001    2.51999998
   13.65416622   91.02680206    0.30000001    2.51999998
   13.65722179   83.99590302    0.31999999    2.51999998
   13.66055489   88.41539764    0.30000001    2.51999998
   13.66194439   95.84390259    0.30000001    2.51999998
   13.66388893   83.34639740    0.30000001    2.51999998
   13.66722298   90.25779724    0.31999999    2.51999998
   13.67055607   89.13359833    0.30000001    2.51999998
   13.67361164   99.73429871    0.30000001    2.51999998
   13.67694473   90.70420074    0.30000001    2.51999998
   13.68000031   85.94940186    0.30000001    2.51999998
   13.68333340   89.63559723    0.30000001    2.51999998
   13.68666649   98.60880280    0.30000001    2.51999998
   13.69055557   89.61740112    0.30000001    2.51999998
   13.69444466   91.48419952    0.30000001    2.51999998
   13.69777775   93.52149963    0.30000001    2.53999996
   13.70222187   88.89150238    0.30000001    2.53999996
   13.70555496   84.98100281    0.30000001    2.53999996
   13.70861053   80.89430237    0.30000001    2.53999996
   13.71194458   84.69869995    0.30000001    2.51999998
   13.71527767   85.60269928    0.30000001    2.53999996
   13.71833324   87.73370361    0.30000001    2.53999996
   13.72166634   85.74610138    0.30000001    2.53999996
   13.72472191   92.11640167    0.30000001    2.53999996
   13.72805500   90.75450134    0.30000001    2.53999996
   13.72888851   83.69770050    0.30000001    2.53999996
   13.73166656   85.15499878    0.30000001    2.53999996
   13.73500061   81.04280090    0.30000001    2.53999996
   13.73805618   84.46820068    0.30000001    2.53999996
   13.74138927   88.44470215    0.30000001    2.53999996
   13.98472214   -1.00000000   -1.00000000   -1.00000000
   14.08749962   -1.00000000   -1.00000000   -1.00000000
   14.19055557   -1.00000000   -1.00000000   -1.00000000
   14.22555542   73.69429779    0.28000000    2.61999989
   14.22888851   93.75610352    0.30000001    2.59999990
   14.23222160   90.75820160    0.28000000    2.59999990
   14.23527813   95.38490295    0.28000000    2.61999989
   14.23861122   87.19550323    0.28000000    2.61999989
   14.24166679   84.44290161    0.28000000    2.59999990
   14.24583340   84.44290161    0.28000000    2.61999989
   14.25000000   90.28430176    0.28000000    2.61999989
   14.25333309   90.15630341    0.28000000    2.61999989
   14.25638866   88.26730347    0.28000000    2.61999989
   14.25888920   97.38520050    0.28000000    2.59999990
   14.26027775   85.15859985    0.28000000    2.61999989
   14.26361084   83.13950348    0.28000000    2.61999989
   14.26666641   83.91989899    0.28000000    2.59999990
   14.26999950   87.87840271    0.28000000    2.61999989
   14.27305508   83.12229919    0.28000000    2.59999990
   14.27638817   85.17199707    0.28000000    2.61999989
   14.27972221   86.92099762    0.28000000    2.59999990
   14.28277779   84.64929962    0.28000000    2.61999989
   14.28888893   84.64929962    0.28000000    2.61999989
   14.29277802   86.51409912    0.28000000    2.61999989
   14.29611111   83.81629944    0.28000000    2.61999989
   14.29944515   89.14610291    0.28000000    2.61999989
   14.30249977   75.06529999    0.28000000    2.61999989
   14.30583382   86.11319733    0.28000000    2.61999989
   14.30916691   83.95590210    0.28000000    2.61999989
   14.31222248   90.48989868    0.28000000    2.61999989
   14.31555557   89.65869904    0.28000000    2.59999990
   14.31861115   81.72010040    0.28000000    2.61999989
   14.32194424   83.28119659    0.28000000    2.64000010
   14.32527733   83.27880096    0.28000000    2.61999989
   14.32583332   84.05300140    0.28000000    2.61999989
   14.33166695   84.05300140    0.28000000    2.61999989
   14.33583260   84.69280243    0.30000001    2.61999989
   14.33888817   83.88500214    0.28000000    2.61999989
   14.34222221   84.62449646    0.28000000    2.61999989
   14.34555531   80.10700226    0.28000000    2.61999989
   14.34861088   77.23549652    0.28000000    2.64000010
   14.35194492   79.34040070    0.28000000    2.61999989
   14.35500050   84.59750366    0.28000000    2.64000010
   14.35833359   83.48799896    0.28000000    2.64000010
   14.35916710   84.02850342    0.28000000    2.64000010
   14.36194515   81.61419678    0.28000000    2.61999989
   14.36527824   84.05840302    0.28000000    2.61999989
   14.36861134   86.14320374    0.28000000    2.61999989
   14.37444496   86.14320374    0.28000000    2.61999989
   14.37861156   83.10179901    0.28000000    2.61999989
   14.38194466   82.53569794    0.28000000    2.61999989
   14.38500023   84.76119995    0.28000000    2.61999989
   14.38833332   82.17590332    0.28000000    2.61999989
   14.39138889   83.04070282    0.28000000    2.61999989
   14.39249992   86.63300323    0.28000000    2.64000010
   14.39499950   81.91470337    0.28000000    2.64000010
   14.39833355   80.51110077    0.28000000    2.61999989
   14.40166664   84.64089966    0.28000000    2.61999989
   14.40472221   83.13179779    0.28000000    2.64000010
   14.40805531   84.56240082    0.28000000    2.61999989
   14.41111088   82.19270325    0.28000000    2.61999989
   14.41722298   82.19270325    0.28000000    2.64000010
   14.42138958   80.87290192    0.28000000    2.61999989
   14.42472267   83.21759796    0.28000000    2.61999989
   14.42583370   94.06079865    0.28000000    2.61999989
   14.42833328   80.91919708    0.28000000    2.64000010
   14.43166733   93.26550293    0.28000000    2.64000010
   14.43500042   91.89710236    0.28000000    2.61999989
   14.43805599   94.39559937    0.28000000    2.64000010
   14.44138908   84.35299683    0.28000000    2.64000010
   14.44444466   87.30359650    0.28000000    2.64000010
   14.44777775   81.78639984    0.28000000    2.64000010
   14.45111084   84.57620239    0.25999999    2.64000010
   14.45416641   89.79840088    0.25999999    2.64000010
   14.46027756   89.79840088    0.28000000    2.64000010
   14.46416664   82.78859711    0.28000000    2.64000010
   14.46749973   78.47750092    0.28000000    2.64000010
   14.47083282   75.14060211    0.25999999    2.64000010
   14.47388840   79.63289642    0.28000000    2.64000010
   14.47722149   83.87779999    0.28000000    2.64000010
   14.48055553   77.43229675    0.28000000    2.64000010
   14.48361111   94.65209961    0.28000000    2.64000010
   14.48694515   85.10630035    0.25999999    2.64000010
   14.49000072   84.20069885    0.25999999    2.64000010
   14.49250031   83.47409821    0.28000000    2.64000010
   14.49361134   81.91400146    0.25999999    2.64000010
   14.49694443   85.21869659    0.28000000    2.64000010
   14.50305557   85.21869659    0.28000000    2.64000010
   14.50722218   81.03320313    0.25999999    2.64000010
   14.51027775   80.11550140    0.25999999    2.64000010
   14.51361084   80.92189789    0.25999999    2.64000010
   14.51694393   85.46399689    0.25999999    2.64000010
   14.51999950   85.87909698    0.28000000    2.64000010
   14.52333355   78.51180267    0.28000000    2.64000010
   14.52583313   81.88020325    0.28000000    2.64000010
   14.52694416   80.89689636    0.28000000    2.64000010
   14.53027725   84.59279633    0.28000000    2.64000010
   14.53361130   81.59819794    0.28000000    2.64000010
   14.53666687   87.12210083    0.28000000    2.64000010
   14.54000092   87.58750153    0.28000000    2.64000010
   14.54583359   87.58750153    0.28000000    2.66000009
   14.55000019   81.37629700    0.28000000    2.64000010
   14.55333328   79.18779755    0.28000000    2.64000010
   14.55638885   82.24520111    0.28000000    2.64000010
   14.55916691   79.85929871    0.28000000    2.64000010
   14.56000042   85.26820374    0.28000000    2.64000010
   14.56333351   86.65519714    0.28000000    2.64000010
   14.56666660   84.43659973    0.28000000    2.64000010
   14.56972218   83.46949768    0.25999999    2.64000010
   14.57305527   77.71949768    0.28000000    2.64000010
   14.57611084   78.33940125    0.28000000    2.64000010
   14.57944393   77.88480377    0.28000000    2.66000009
   14.58277798   82.15779877    0.28000000    2.66000009
   14.58861065   82.15779877    0.30000001    2.64000010
   14.59277725   83.54219818    0.28000000    2.66000009
   14.59611034   80.56269836    0.28000000    2.64000010
   14.59916592   83.00240326    0.28000000    2.66000009
   14.60249996   79.43419647    0.28000000    2.64000010
   14.60583401   79.44819641    0.28000000    2.64000010
   14.60888958   82.35890198    0.28000000    2.66000009
   14.61222267   88.08509827    0.28000000    2.64000010
   14.61555576   81.30100250    0.28000000    2.64000010
   14.61861134   85.65239716    0.28000000    2.66000009
   14.62194443   81.59239960    0.28000000    2.66000009
   14.62500000   94.28610229    0.28000000    2.64000010
   14.62583351   87.70899963    0.28000000    2.64000010
   14.63166714   87.70899963    0.28000000    2.66000009
   14.63555527   77.30789948    0.28000000    2.66000009
   14.63888836   87.73850250    0.28000000    2.64000010
   14.64222240   77.89409637    0.28000000    2.64000010
   14.64527798   78.81670380    0.28000000    2.66000009
   14.64861107   85.52400208    0.28000000    2.64000010
   14.65194416   85.42839813    0.28000000    2.66000009
   14.65499973   84.53009796    0.28000000    2.66000009
   14.65833282   85.63110352    0.25999999    2.66000009
   14.65916634   90.02570343    0.28000000    2.66000009
   14.66194439   84.19400024    0.25999999    2.66000009
   14.66527748   80.27490234    0.28000000    2.66000009
   14.66861153   81.88200378    0.25999999    2.66000009
   14.67444515   81.88200378    0.25999999    2.66000009
   14.67861176   81.34570313    0.28000000    2.66000009
   14.68166733   86.51450348    0.25999999    2.66000009
   14.68500042   86.61620331    0.25999999    2.66000009
   14.68833351   81.93049622    0.25999999    2.66000009
   14.69138908   83.77899933    0.25999999    2.66000009
   14.69250011   80.37120056    0.25999999    2.66000009
   14.69527817   82.58689880    0.25999999    2.66000009
   14.69833374   83.85970306    0.25999999    2.66000009
   14.70166683   87.48229980    0.25999999    2.66000009
   14.70472240   89.45359802    0.25999999    2.66000009
   14.70805550   80.60949707    0.25999999    2.66000009
   14.71138859   83.37190247    0.25999999    2.66000009
   14.71722221   83.37190247    0.25999999    2.66000009
   14.72138882   83.90599823    0.25999999    2.66000009
   14.72472191   84.29350281    0.25999999    2.66000009
   14.72583294   84.27929688    0.25999999    2.66000009
   14.72805500   83.24909973    0.30000001    2.66000009
   14.73138809   81.60389709    0.28000000    2.66000009
   14.73472214   78.75170135    0.28000000    2.66000009
   14.73805618   91.61109924    0.25999999    2.66000009
   14.74138927   87.30560303    0.25999999    2.66000009
   14.74472237   91.09639740    0.25999999    2.66000009
   14.74777794   83.22959900    0.25999999    2.66000009
   14.75111103   87.40489960    0.25999999    2.66000009
   14.75444412   82.58969879    0.25999999    2.66000009
   14.76000023   82.58969879    0.28000000    2.66000009
   14.76416683   82.40160370    0.25999999    2.66000009
   14.76749992   79.01010132    0.25999999    2.66000009
   14.77055550   77.86119843    0.25999999    2.67000008
   14.77388859   74.52610016    0.25999999    2.66000009
   14.77722168   80.17359924    0.25999999    2.66000009
   14.78027725   80.40979767    0.25999999    2.66000009
   14.78361130   78.38980103    0.25999999    2.66000009
   14.78666687   79.85320282    0.28000000    2.66000009
   14.79000092   80.96130371    0.28000000    2.66000009
   14.79250050   82.43620300    0.25999999    2.67000008
   14.79388905   79.79969788    0.25999999    2.67000008
   14.79694462   79.49720001    0.25999999    2.66000009
   14.80305576   79.49720001    0.25999999    2.66000009
   14.80722237   80.66639709    0.25999999    2.66000009
   14.81055546   79.13490295    0.25999999    2.66000009
   14.81361103   85.14240265    0.25999999    2.66000009
   14.81694412   85.78700256    0.25999999    2.66000009
   14.82027817   90.61299896    0.25999999    2.66000009
   14.82333374   83.34570313    0.25999999    2.67000008
   14.82583332   83.36509705    0.25999999    2.66000009
   14.82694435   78.25800323    0.25999999    2.67000008
   14.83027744   79.04889679    0.25999999    2.67000008
   14.83361053   81.96839905    0.25999999    2.66000009
   14.83666611   80.26000214    0.25999999    2.66000009
   14.84000015   78.48750305    0.25999999    2.66000009
   14.84583282   78.48750305    0.25999999    2.67000008
   14.85000038   82.85279846    0.25999999    2.66000009
   14.85305595   80.54149628    0.25999999    2.66000009
   14.85638905   82.58499908    0.25999999    2.66000009
   14.85916710   78.73249817    0.25999999    2.66000009
   14.85972214   85.41459656    0.25999999    2.66000009
   14.86305618   77.87200165    0.25999999    2.66000009
   14.86638927   80.89260101    0.25999999    2.66000009
   14.86944485   81.06690216    0.28000000    2.67000008
   14.87277794   88.40280151    0.25999999    2.67000008
   14.87583351   83.78759766    0.28000000    2.67000008
   14.87916660   80.68229675    0.28000000    2.67000008
   14.88249969   78.52829742    0.25999999    2.67000008
   14.88861084   78.52829742    0.25999999    2.67000008
   14.89305496   81.48359680    0.28000000    2.66000009
   14.89611053   84.05149841    0.25999999    2.67000008
   14.89944458   78.84449768    0.28000000    2.67000008
   14.90249920   77.92220306    0.25999999    2.67000008
   14.90583324   78.48110199    0.25999999    2.67000008
   14.90916634   80.98709869    0.28000000    2.67000008
   14.91222191   78.42910004    0.25999999    2.66000009
   14.91555500   79.72570038    0.28000000    2.67000008
   14.91861153   78.15440369    0.28000000    2.66000009
   14.92194462   83.84169769    0.28000000    2.67000008
   14.92500019   79.95970154    0.28000000    2.67000008
   14.92583370   80.11119843    0.28000000    2.67000008
   14.93138885   80.11119843    0.28000000    2.67000008
   14.93555546   77.05699921    0.28000000    2.66000009
   14.93888855   83.91239929    0.28000000    2.67000008
   14.94222260   78.71970367    0.28000000    2.67000008
   14.94527817   85.88439941    0.28000000    2.67000008
   14.94861126   76.44640350    0.28000000    2.67000008
   14.95194435   77.16459656    0.28000000    2.66000009
   14.95499992   78.55310059    0.34000000    2.67000008
   14.95833302   80.04530334    0.28000000    2.67000008
   14.95916653   78.62000275    0.28000000    2.67000008
   14.96194458   76.25630188    0.28000000    2.67000008
   14.96500015   83.83989716    0.28000000    2.67000008
   14.96833324   84.02709961    0.28000000    2.67000008
   14.97444439   84.02709961    0.28000000    2.67000008
   14.97861099   80.40899658    0.25999999    2.67000008
   14.98166656   79.98370361    0.25999999    2.67000008
   14.98500061   83.03459930    0.25999999    2.67000008
   14.98833370   82.27940369    0.25999999    2.67000008
   14.99138927   78.23549652    0.25999999    2.67000008
   14.99250031   78.79319763    0.25999999    2.67000008
   14.99527836   86.49310303    0.25999999    2.66000009
   14.99833393   88.35610199    0.25999999    2.67000008
   15.00166702   90.03669739    0.25999999    2.67000008
   15.00472260   83.48429871    0.25999999    2.67000008
   15.00805569   85.24649811    0.25999999    2.67000008
   15.01138878   84.13420105    0.25000000    2.67000008
   15.01722240   84.13420105    0.25000000    2.67000008
   15.02138901   80.42350006    0.25000000    2.67000008
   15.02444458   84.28739929    0.25999999    2.67000008
   15.02583313   79.81330109    0.25999999    2.67000008
   15.02833271   85.33129883    0.25999999    2.67000008
   15.03138828   82.50890350    0.25999999    2.67000008
   15.03472233   85.04270172    0.25999999    2.67000008
   15.03777790   79.11160278    0.25999999    2.67000008
   15.04111195   81.26300049    0.25999999    2.67000008
   15.04416752   84.96050262    0.25999999    2.67000008
   15.04750061   82.05490112    0.25999999    2.67000008
   15.05083370   82.95870209    0.25999999    2.67000008
   15.05388927   77.63200378    0.25999999    2.67000008
   15.06000042   77.63200378    0.25999999    2.67000008
   15.06416702   84.29920197    0.25999999    2.67000008
   15.06750011   81.50789642    0.25999999    2.67000008
   15.07055569   82.12989807    0.25999999    2.69000006
   15.07388878   85.05130005    0.25999999    2.67000008
   15.07694435   81.82949829    0.25999999    2.67000008
   15.08027744   81.13770294    0.28000000    2.67000008
   15.08333302   78.10659790    0.25999999    2.67000008
   15.08666611   77.75189972    0.25999999    2.67000008
   15.09000015   75.71869659    0.25999999    2.67000008
   15.09249973   84.16860199    0.25999999    2.67000008
   15.09361076   86.54429626    0.25999999    2.67000008
   15.09666634   78.59300232    0.25000000    2.67000008
   15.10277843   78.59300232    0.25000000    2.67000008
   15.10694504   80.04889679    0.25000000    2.67000008
   15.11027813   85.63880157    0.25000000    2.67000008
   15.11361122   78.60540009    0.28000000    2.67000008
   15.11666679   82.32859802    0.28000000    2.67000008
   15.11999989   87.12999725    0.25000000    2.67000008
   15.12305546   82.25559998    0.25000000    2.67000008
   15.12583351   85.23690033    0.30000001    2.67000008
   15.12694454   83.23449707    0.25000000    2.67000008
   15.13000011   84.15480042    0.25000000    2.67000008
   15.13333321   83.81749725    0.28000000    2.67000008
   15.13638878   81.79340363    0.28000000    2.67000008
   15.13972187   86.53079987    0.25000000    2.67000008
   15.14583302   86.53079987    0.25000000    2.67000008
   15.14972210   84.58329773    0.25999999    2.67000008
   15.15305519   80.58319855    0.25000000    2.67000008
   15.15638828   85.20469666    0.28000000    2.67000008
   15.15916634   80.99220276    0.28000000    2.67000008
   15.15999985   80.67230225    0.25999999    2.67000008
   15.16305542   86.62940216    0.25999999    2.67000008
   15.16638851   83.77570343    0.25999999    2.67000008
   15.16944504   78.68240356    0.25999999    2.67000008
   15.17277813   78.40699768    0.25999999    2.67000008
   15.17583370   82.98889923    0.30000001    2.67000008
   15.17916679   79.31649780    0.28000000    2.67000008
   15.18249989   81.81739807    0.25999999    2.67000008
   15.18861103   81.81739807    0.25999999    2.67000008
   15.19277763   83.14689636    0.25999999    2.67000008
   15.19583321   82.98950195    0.25999999    2.69000006
   15.19916630   89.38040161    0.25999999    2.67000008
   15.20249939   81.83020020    0.25999999    2.67000008
   15.20555496   83.23799896    0.25999999    2.67000008
   15.20888901   81.90820313    0.25999999    2.67000008
   15.21222210   85.78569794    0.25999999    2.67000008
   15.21527767   76.62249756    0.25999999    2.67000008
   15.21861076   78.59169769    0.25999999    2.67000008
   15.22166634   79.69869995    0.25999999    2.67000008
   15.22499943   80.21829987    0.25999999    2.69000006
   15.22583294   87.03900146    0.25999999    2.69000006
   15.24666691   87.03900146    0.25999999    2.67000008
   15.25083351   77.86530304    0.25999999    2.67000008
   15.25388908   79.65100098    0.25999999    2.67000008
   15.25722218   84.37359619    0.25999999    2.69000006
   15.25916672   79.28659821    0.28000000    2.69000006
   15.26083374   81.99690247    0.28000000    2.69000006
   15.26416683   77.82730103    0.25999999    2.67000008
   15.26722240   82.39600372    0.28000000    2.67000008
   15.27055550   78.14179993    0.28000000    2.67000008
   15.27388859   76.79299927    0.30000001    2.69000006
   15.27694416   73.48079681    0.31999999    2.67000008
   15.28027725   79.59770203    0.31999999    2.69000006
   15.28361130   78.84660339    0.40000001    2.67000008
   15.28944492   78.84660339    0.36000001    2.67000008
   15.29333401   82.48880005    0.36000001    2.67000008
   15.29666710   76.81849670    0.36000001    2.67000008
   15.30000019   81.12300110    0.38000000    2.69000006
   15.30305576   76.36489868    0.38000000    2.69000006
   15.30638885   76.19850159    0.36000001    2.69000006
   15.30972195   76.90299988    0.34000000    2.67000008
   15.31277752   75.57730103    0.34000000    2.67000008
   15.31611156   77.12840271    0.41999999    2.69000006
   15.31916618   80.16960144    0.38000000    2.67000008
   15.32250023   77.75080109    0.31999999    2.67000008
   15.32583332   78.24600220    0.30000001    2.69000006
   15.32638836   82.60099792    0.30000001    2.69000006
   15.33222198   82.60099792    0.25999999    2.67000008
   15.33638859   76.31939697    0.25999999    2.69000006
   15.33944416   74.71749878    0.25999999    2.69000006
   15.34277725   78.13449860    0.25999999    2.67000008
   15.34611034   82.25620270    0.28000000    2.67000008
   15.34916592   75.20169830    0.25999999    2.69000006
   15.35249996   76.45970154    0.25999999    2.69000006
   15.35555553   78.58499908    0.28000000    2.69000006
   15.35888958   80.55889893    0.25999999    2.69000006
   15.35972214   81.00420380    0.25999999    2.67000008
   15.36250019   78.28600311    0.28000000    2.67000008
   15.36583328   76.86370087    0.30000001    2.69000006
   15.36916637   77.85600281    0.30000001    2.69000006
   15.37500000   77.85600281    0.28000000    2.69000006
   15.37916660   75.58830261    0.28000000    2.69000006
   15.38249969   77.48280334    0.28000000    2.69000006
   15.38555527   75.26850128    0.28000000    2.69000006
   15.38888836   81.46589661    0.28000000    2.69000006
   15.39194393   79.50389862    0.28000000    2.69000006
   15.39305496   84.47339630    0.28000000    2.67000008
   15.39555550   79.19699860    0.28000000    2.69000006
   15.39888859   78.45989990    0.25999999    2.67000008
   15.40222168   81.45989990    0.25999999    2.67000008
   15.40527725   79.49659729    0.28000000    2.69000006
   15.40861034   77.24140167    0.25999999    2.69000006
   15.41194439   81.58370209    0.25999999    2.69000006
   15.41777802   81.58370209    0.25999999    2.69000006
   15.42194462   82.62100220    0.25999999    2.69000006
   15.42527771   78.92350006    0.28000000    2.69000006
   15.42638874   82.25610352    0.25999999    2.67000008
   15.42888927   81.29750061    0.25999999    2.69000006
   15.43222237   85.69689941    0.25999999    2.69000006
   15.43555546   78.89199829    0.25999999    2.69000006
   15.43861103   79.04119873    0.25999999    2.69000006
   15.44194412   83.11250305    0.25999999    2.69000006
   15.44499969   81.35220337    0.25999999    2.69000006
   15.44833374   88.10929871    0.25999999    2.69000006
   15.45166683   83.45179749    0.25999999    2.69000006
   15.45472240   75.66739655    0.25999999    2.69000006
   15.46055508   75.66739655    0.25999999    2.69000006
   15.46472168   81.90350342    0.25999999    2.69000006
   15.46805477   81.22850037    0.25000000    2.69000006
   15.47138882   78.49759674    0.25000000    2.69000006
   15.47444439   78.80860138    0.25000000    2.69000006
   15.47777748   81.08789825    0.25999999    2.69000006
   15.48111057   78.09100342    0.25000000    2.69000006
   15.48416710   74.48149872    0.25000000    2.69000006
   15.48750019   81.16840363    0.25000000    2.69000006
   15.49055576   80.27850342    0.25000000    2.69000006
   15.49305534   79.73529816    0.25000000    2.69000006
   15.49416733   77.60900116    0.25000000    2.69000006
   15.49750042   74.28040314    0.25000000    2.69000006
   15.50361156   74.28040314    0.25999999    2.69000006
   15.50777817   83.47709656    0.25000000    2.69000006
   15.51083374   81.82050323    0.25999999    2.69000006
   15.51416683   82.88179779    0.25999999    2.69000006
   15.51749992   79.48509979    0.25999999    2.69000006
   15.52055550   78.56459808    0.25999999    2.69000006
   15.52388859   80.28060150    0.25999999    2.71000004
   15.52638817   80.20259857    0.28000000    2.69000006
   15.52750015   82.08660126    0.28000000    2.69000006
   15.53083324   81.30960083    0.28000000    2.69000006
   15.53416729   81.35820007    0.30000001    2.69000006
   15.53722286   86.17569733    0.28000000    2.69000006
   15.54055595   83.08329773    0.28000000    2.69000006
   15.54638958   83.08329773    0.25999999    2.69000006
   15.55055618   81.63839722    0.25999999    2.69000006
   15.55388927   83.44480133    0.25999999    2.69000006
   15.55694485   80.73690033    0.28000000    2.69000006
   15.55972195   80.78910065    0.25999999    2.69000006
   15.56055546   75.57700348    0.25999999    2.69000006
   15.56388950   81.27899933    0.25999999    2.69000006
   15.56722260   79.96949768    0.25999999    2.69000006
   15.57027817   75.80549622    0.25000000    2.69000006
   15.57361126   78.62470245    0.25000000    2.69000006
   15.57666683   81.53790283    0.25000000    2.69000006
   15.57999992   79.68560028    0.25000000    2.69000006
   15.58333302   77.51000214    0.25000000    2.69000006
   15.58916664   77.51000214    0.28000000    2.69000006
   15.59333324   86.27500153    0.25000000    2.69000006
   15.59666634   77.64250183    0.25000000    2.69000006
   15.59972191   81.31400299    0.25999999    2.69000006
   15.60305595   88.24320221    0.25000000    2.71000004
   15.60638905   83.58879852    0.25999999    2.69000006
   15.60944462   82.14350128    0.25999999    2.69000006
   15.61277771   84.69660187    0.25999999    2.69000006
   15.61611176   83.36239624    0.25999999    2.69000006
   15.61916637   74.92070007    0.25999999    2.71000004
   15.62250042   82.62030029    0.25999999    2.71000004
   15.62555599   83.47910309    0.25999999    2.69000006
   15.62638855   78.82080078    0.25999999    2.71000004
   15.63194466   78.82080078    0.25999999    2.71000004
   15.63611126   83.15350342    0.30000001    2.69000006
   15.63944435   81.46499634    0.25999999    2.71000004
   15.64277744   81.23699951    0.25999999    2.71000004
   15.64583302   87.17769623    0.28000000    2.69000006
   15.64916611   78.65779877    0.25999999    2.71000004
   15.65222168   86.99790192    0.25999999    2.69000006
   15.65555477   81.75060272    0.25999999    2.71000004
   15.65888882   77.58910370    0.25999999    2.71000004
   15.65972137   88.26619720    0.25999999    2.69000006
   15.66249943   83.14969635    0.25999999    2.69000006
   15.66555500   81.83049774    0.25999999    2.69000006
   15.66888905   81.24289703    0.25999999    2.69000006
   15.67500019   81.24289703    0.25999999    2.69000006
   15.67916679   80.40499878    0.25999999    2.69000006
   15.68222237   85.55349731    0.25999999    2.69000006
   15.68583298   79.94039917    0.25999999    2.69000006
   15.68916702   78.12460327    0.30000001    2.69000006
   15.69222260   83.32319641    0.25999999    2.69000006
   15.69305515   80.34490204    0.25999999    2.69000006
   15.69583321   82.49859619    0.25999999    2.71000004
   15.69916630   77.97989655    0.25999999    2.69000006
   15.70249939   82.67659760    0.25999999    2.69000006
   15.70555496   77.49310303    0.25999999    2.69000006
   15.70888901   77.59639740    0.25999999    2.69000006
   15.71222210   76.86519623    0.25999999    2.69000006
   15.71777725   76.86519623    0.25999999    2.69000006
   15.72194386   77.73179626    0.25999999    2.71000004
   15.72499943   75.35700226    0.25999999    2.71000004
   15.72638798   77.10579681    0.25999999    2.69000006
   15.72861099   79.90149689    0.25999999    2.71000004
   15.73194408   77.14469910    0.25999999    2.71000004
   15.73527813   79.82689667    0.31999999    2.69000006
   15.73833370   80.39679718    0.30000001    2.71000004
   15.74166679   77.87079620    0.30000001    2.69000006
   15.74499989   78.04859924    0.28000000    2.71000004
   15.74833393   80.57180023    0.30000001    2.71000004
   15.75166702   80.85530090    0.30000001    2.71000004
   15.75472260   86.17070007    0.31999999    2.69000006
   15.76055527   86.17070007    0.31999999    2.71000004
   15.76472187   82.75370026    0.36000001    2.71000004
   15.76805496   81.95120239    0.30000001    2.71000004
   15.77111053   86.95400238    0.31999999    2.69000006
   15.77444458   81.74800110    0.30000001    2.71000004
   15.77777767   79.65200043    0.30000001    2.71000004
   15.78083324   75.64620209    0.30000001    2.69000006
   15.78416729   77.74469757    0.30000001    2.71000004
   15.78722286   72.84089661    0.30000001    2.71000004
   15.79055595   78.67089844    0.30000001    2.71000004
   15.79305553   72.98979950    0.30000001    2.71000004
   15.79416752   77.63860321    0.30000001    2.69000006
   15.79750061   76.65260315    0.28000000    2.69000006
   15.80333328   76.65260315    0.28000000    2.71000004
   15.80749989   82.92530060    0.25999999    2.71000004
   15.81083393   77.43979645    0.28000000    2.71000004
   15.81416702   77.51309967    0.28000000    2.71000004
   15.81722260   79.43270111    0.28000000    2.71000004
   15.82055569   77.62059784    0.28000000    2.71000004
   15.82361126   80.92690277    0.28000000    2.71000004
   15.82638836   76.90859985    0.25999999    2.71000004
   15.82722187   78.34980011    0.25999999    2.71000004
   15.83055592   79.58170319    0.25999999    2.71000004
   15.83388901   81.22319794    0.25999999    2.71000004
   15.83722210   86.00630188    0.25999999    2.71000004
   15.84027767   84.42949677    0.25999999    2.71000004
   15.84638882   84.42949677    0.25999999    2.71000004
   15.85055637   82.76750183    0.25999999    2.71000004
   15.85361195   77.30419922    0.25999999    2.71000004
   15.85694504   78.44480133    0.25999999    2.71000004
   15.85972214   77.19309998    0.25999999    2.71000004
   15.86027813   81.36519623    0.25999999    2.71000004
   15.86361122   74.48139954    0.28000000    2.71000004
   15.86694431   82.41510010    0.25999999    2.71000004
   15.86999989   81.39569855    0.25999999    2.71000004
   15.87333393   76.58200073    0.25999999    2.71000004
   15.87666702   81.34100342    0.25999999    2.71000004
   15.87972260   79.04630280    0.25999999    2.71000004
   15.88305569   78.44400024    0.25999999    2.71000004
   15.88916683   78.44400024    0.25999999    2.71000004
   15.89333344   79.33979797    0.25999999    2.69000006
   15.89638901   80.47489929    0.25999999    2.69000006
   15.89972210   78.13899994    0.25999999    2.71000004
   15.90305519   77.48729706    0.25999999    2.71000004
   15.90611076   79.64160156    0.25999999    2.69000006
   15.90944386   79.94319916    0.25999999    2.71000004
   15.91277695   85.24379730    0.25999999    2.71000004
   15.91583252   82.42070007    0.28000000    2.71000004
   15.91916656   79.24359894    0.25999999    2.71000004
   15.92222214   83.17150116    0.25999999    2.71000004
   15.92555618   80.78679657    0.25999999    2.71000004
   15.92638874   79.52030182    0.25999999    2.71000004
   15.93194485   79.52030182    0.25999999    2.69000006
   15.93611145   74.48130035    0.25999999    2.71000004
   15.93944454   79.54830170    0.25999999    2.71000004
   15.94250011   75.95780182    0.25999999    2.71000004
   15.94583321   79.03079987    0.25999999    2.71000004
   15.94888878   81.05169678    0.25999999    2.71000004
   15.95222187   80.43710327    0.25000000    2.71000004
   15.95555496   85.12139893    0.25000000    2.71000004
   15.95861053   81.22799683    0.25000000    2.71000004
   15.95972157   74.89880371    0.25000000    2.71000004
   15.96249962   76.89929962    0.25000000    2.71000004
   15.96555519   80.16790009    0.25000000    2.71000004
   15.96888828   80.35119629    0.25999999    2.71000004
   15.97472191   80.35119629    0.25999999    2.71000004
   15.97888851   76.52960205    0.25999999    2.71000004
   15.98222160   77.06340027    0.25000000    2.71000004
   15.98527813   87.82009888    0.25000000    2.71000004
   15.98861122   75.00039673    0.25000000    2.71000004
   15.99194431   79.20300293    0.25000000    2.71000004
   15.99305534   79.38359833    0.25000000    2.71000004
   15.99555588   79.92620087    0.25000000    2.71000004
   15.99861145   79.45559692    0.25000000    2.71000004
   16.00194359   77.15859985    0.25000000    2.71000004
   16.00499916   75.05750275    0.25000000    2.71000004
   16.00833321   75.95449829    0.25999999    2.71000004
   16.01166725   77.83059692    0.25999999    2.71000004
   16.01777840   77.83059692    0.25000000    2.71000004
   16.02194405   85.42330170    0.25000000    2.71000004
   16.02499962   83.59660339    0.25000000    2.71000004
   16.02638817   78.03089905    0.25000000    2.71000004
   16.02888870   79.61689758    0.25000000    2.71000004
   16.03194427   82.15370178    0.25000000    2.71000004
   16.03527641   77.69660187    0.25000000    2.71000004
   16.03833199   78.14040375    0.28000000    2.71000004
   16.04166603   77.50319672    0.30000001    2.71000004
   16.04500008   77.63629913    0.28000000    2.71000004
   16.04805565   80.12409973    0.28000000    2.71000004
   16.05138779   79.88259888    0.30000001    2.71000004
   16.05472183   71.39109802    0.30000001    2.71000004
   16.06055450   71.39109802    0.31999999    2.71000004
   16.06472206   79.50659943    0.30000001    2.71000004
   16.06777954   77.60610199    0.31999999    2.71000004
   16.07111168   83.94879913    0.31999999    2.71000004
   16.07444572   76.30370331    0.30000001    2.71000004
   16.07750130   75.42009735    0.30000001    2.71000004
   16.08083344   76.73889923    0.30000001    2.71000004
   16.08416748   78.30989838    0.28000000    2.71000004
   16.08722305   75.76930237    0.28000000    2.71000004
   16.09055710   75.78730011    0.25999999    2.71000004
   16.09305573   76.42819977    0.25999999    2.71000004
   16.09416771   74.61699677    0.25999999    2.71000004
   16.09722328   75.27829742    0.25999999    2.71000004
   16.10333443   75.27829742    0.25999999    2.71000004
   16.10750008   76.64730072    0.28000000    2.71000004
   16.11083412   75.44860077    0.28000000    2.71000004
   16.11388969   75.68599701    0.28000000    2.71000004
   16.11722183   73.66549683    0.30000001    2.71000004
   16.12055588   76.29820251    0.30000001    2.71000004
   16.12361145   77.74939728    0.31999999    2.71000004
   16.12638855   77.43890381    0.34000000    2.71000004
   16.12750053   79.29540253    0.31999999    2.71000004
   16.13055611   80.38749695    0.31999999    2.71000004
   16.13388824   76.62100220    0.34000000    2.71000004
   16.13722229   79.87169647    0.31999999    2.71000004
   16.14027786   75.32669830    0.31999999    2.71000004
   16.14611053   75.32669830    0.28000000    2.71000004
   16.15027809   76.55719757    0.30000001    2.71000004
   16.15361023   74.10829926    0.30000001    2.71000004
   16.15694427   78.89350128    0.28000000    2.71000004
   16.15972137   73.85050201    0.28000000    2.71000004
   16.16055489   72.00479889    0.28000000    2.71000004
   16.16361046   74.99079895    0.28000000    2.73000002
   16.16694450   77.39900208    0.25999999    2.71000004
   16.17027664   75.77400208    0.28000000    2.73000002
   16.17333221   82.47389984    0.28000000    2.71000004
   16.17666626   77.53939819    0.25999999    2.71000004
   16.17972183   78.01760101    0.25999999    2.71000004
   16.18305397   75.03540039    0.28000000    2.71000004
   16.18916512   75.03540039    0.25999999    2.71000004
   16.19305420   75.02359772    0.25999999    2.71000004
   16.19638824   75.14089966    0.25999999    2.71000004
   16.19972038   77.89050293    0.25999999    2.71000004
   16.20277786   76.82309723    0.25000000    2.71000004
   16.20611191   78.23259735    0.25999999    2.73000002
   16.20944595   80.54979706    0.25999999    2.71000004
   16.21250153   80.46910095    0.25999999    2.71000004
   16.21583366   80.21800232    0.25000000    2.71000004
   16.21888924   76.41380310    0.25000000    2.71000004
   16.22222328   81.42299652    0.25000000    2.71000004
   16.22555542   80.66719818    0.25000000    2.71000004
   16.22638893   80.80570221    0.25000000    2.71000004
   16.23194504   80.80570221    0.25000000    2.71000004
   16.23611069   79.90429688    0.25000000    2.71000004
   16.23916626   80.70449829    0.25000000    2.71000004
   16.24250031   76.45719910    0.25000000    2.71000004
   16.26000023   76.60279846    0.25999999    2.71000004
   16.26250076   75.32749939    0.25999999    2.71000004
   16.26583290   79.53189850    0.25999999    2.71000004
   16.26888847   74.75029755    0.25999999    2.71000004
   16.27499962   74.75029755    0.28000000    2.71000004
   16.27916718   77.51020050    0.28000000    2.71000004
   16.28222275   76.06359863    0.28000000    2.71000004
   16.28555489   75.85579681    0.28000000    2.71000004
   16.28888893   74.73639679    0.28000000    2.71000004
   16.29194450   79.96130371    0.28000000    2.73000002
   16.29333305   78.84839630    0.28000000    2.71000004
   16.29583359   82.41989899    0.28000000    2.71000004
   16.29888916   80.92160034    0.28000000    2.71000004
   16.30222130   84.24449921    0.28000000    2.73000002
   16.30555534   77.72599792    0.28000000    2.71000004
   16.30861092   76.12220001    0.28000000    2.73000002
   16.31194305   78.38520050    0.25999999    2.73000002
   16.31777954   78.38520050    0.28000000    2.71000004
   16.32194519   78.29650116    0.25999999    2.71000004
   16.32527924   77.82180023    0.25999999    2.71000004
   16.32666779   79.77330017    0.25999999    2.71000004
   16.32888985   80.22350311    0.25999999    2.71000004
   16.33194542   79.50129700    0.28000000    2.71000004
   16.33527756   83.49759674    0.25999999    2.73000002
   16.33861160   78.06559753    0.25999999    2.71000004
   16.34194565   80.64260101    0.28000000    2.71000004
   16.34500122   77.33319855    0.28000000    2.71000004
   16.34833336   83.33999634    0.25000000    2.71000004
   16.35166740   85.09400177    0.25000000    2.73000002
   16.35472298   83.05190277    0.25000000    2.71000004
   16.36055565   83.05190277    0.25000000    2.73000002
   16.36472321   82.92769623    0.25000000    2.71000004
   16.36805534   78.83429718    0.25000000    2.71000004
   16.37111092   86.11039734    0.25999999    2.71000004
   16.37444496   82.66989899    0.25999999    2.71000004
   16.37777710   80.38950348    0.25999999    2.71000004
   16.38083267   83.76940155    0.25999999    2.71000004
   16.38416672   79.06559753    0.25999999    2.71000004
   16.38722229   80.51219940    0.25999999    2.71000004
   16.39055634   82.01059723    0.25999999    2.71000004
   16.39333344   82.44100189    0.25999999    2.71000004
   16.39416695   74.78869629    0.25999999    2.71000004
   16.39722252   82.55280304    0.25999999    2.71000004
   16.40361023   82.55280304    0.25999999    2.71000004
   16.40777779   77.54810333    0.25999999    2.71000004
   16.41083336   80.78690338    0.25999999    2.71000004
   16.41416550   77.13960266    0.25999999    2.71000004
   16.41722107   73.91310120    0.25999999    2.71000004
   16.42055511   78.12539673    0.25999999    2.71000004
   16.42388916   75.58129883    0.25999999    2.71000004
   16.42666626   79.54810333    0.25999999    2.71000004
   16.42749977   79.32810211    0.25999999    2.71000004
   16.43055534   76.86299896    0.25999999    2.71000004
   16.43388748   78.13390350    0.25999999    2.71000004
   16.43722153   77.61019897    0.25999999    2.73000002
   16.44027710   82.81860352    0.25999999    2.71000004
   16.44638824   82.81860352    0.25999999    2.71000004
   16.45055580   75.40989685    0.25999999    2.71000004
   16.45361137   78.63459778    0.25999999    2.73000002
   16.45694542   75.97059631    0.25999999    2.71000004
   16.46000099   81.69779968    0.25999999    2.71000004
   16.46055603   77.05200195    0.25999999    2.71000004
   16.46361160   79.91819763    0.25999999    2.71000004
   16.46694565   80.70809937    0.25999999    2.73000002
   16.47027779   81.27529907    0.25999999    2.71000004
   16.47333336   80.69470215    0.28000000    2.71000004
   16.47666740   77.97380066    0.25999999    2.71000004
   16.47972298   74.47070313    0.25999999    2.73000002
   16.48305511   81.83300018    0.25999999    2.71000004
   16.48916626   81.83300018    0.25999999    2.71000004
   16.49333382   75.83580017    0.25999999    2.71000004
   16.49388885   74.45379639    0.25999999    2.71000004
   16.49694443   77.42579651    0.25999999    2.71000004
   16.50027847   83.19850159    0.25999999    2.71000004
   16.50361061   81.53569794    0.25999999    2.71000004
   16.50666618   82.82219696    0.25999999    2.71000004
   16.51000023   81.43609619    0.25999999    2.73000002
   16.51333427   75.05449677    0.25999999    2.71000004
   16.51638794   81.46050262    0.28000000    2.73000002
   16.51972198   86.38320160    0.25999999    2.71000004
   16.52305603   80.24949646    0.25999999    2.71000004
   16.52611160   79.65509796    0.28000000    2.71000004
   16.52666664   80.44010162    0.28000000    2.71000004
   16.53194427   80.44010162    0.28000000    2.71000004
   16.53610992   82.36100006    0.30000001    2.71000004
   16.53944397   83.44640350    0.30000001    2.71000004
   16.54249954   84.21340179    0.28000000    2.73000002
   16.54583359   77.16470337    0.28000000    2.71000004
   16.54916573   75.52490234    0.28000000    2.71000004
   16.55222130   76.69039917    0.28000000    2.71000004
   16.55555534   79.59239960    0.28000000    2.73000002
   16.55861092   77.70059967    0.28000000    2.71000004
   16.56027794   84.62349701    0.28000000    2.71000004
   16.56250000   75.97810364    0.28000000    2.71000004
   16.56583214   84.17199707    0.25999999    2.73000002
   16.56916809   81.01899719    0.25999999    2.73000002
   16.57500076   81.01899719    0.28000000    2.71000004
   16.57888985   75.03050232    0.25999999    2.71000004
   16.58222389   75.73030090    0.28000000    2.71000004
   16.58555603   78.06150055    0.28000000    2.71000004
   16.58861160   81.63819885    0.28000000    2.71000004
   16.59194565   78.04699707    0.28000000    2.71000004
   16.59333420   75.09010315    0.28000000    2.71000004
   16.59555626   86.55370331    0.28000000    2.71000004
   16.59861183   78.13349915    0.28000000    2.73000002
   16.60194397   82.70659637    0.25999999    2.71000004
   16.60527802   80.19840240    0.25999999    2.71000004
   16.60833359   85.79329681    0.25999999    2.71000004
   16.61166763   76.31469727    0.25999999    2.71000004
   16.61777878   76.31469727    0.25999999    2.73000002
   16.62194443   77.45960236    0.25999999    2.71000004
   16.62500000   82.09929657    0.25999999    2.73000002
   16.62666702   80.10959625    0.25999999    2.71000004
   16.62861061   79.52950287    0.25999999    2.71000004
   16.63166618   82.16139984    0.25999999    2.71000004
   16.63500023   77.17829895    0.25999999    2.73000002
   16.63833237   81.94719696    0.25999999    2.73000002
   16.64138794   74.81620026    0.25999999    2.71000004
   16.64472198   75.54470062    0.25999999    2.71000004
   16.64805603   85.31759644    0.25999999    2.71000004
   16.65111160   74.84799957    0.25999999    2.71000004
   16.65444374   74.76029968    0.25999999    2.71000004
   16.66055489   74.76029968    0.25999999    2.71000004
   16.66472244   77.16439819    0.25999999    2.71000004
   16.66777802   76.32199860    0.25999999    2.71000004
   16.67111015   76.46959686    0.25999999    2.71000004
   16.67444420   77.30449677    0.25999999    2.71000004
   16.67749977   79.25389862    0.25999999    2.71000004
   16.68083191   80.83300018    0.25999999    2.71000004
   16.68416595   77.32499695    0.25999999    2.71000004
   16.68722153   85.96929932    0.25999999    2.71000004
   16.69055557   76.33350372    0.25999999    2.71000004
   16.69333267   80.69930267    0.25999999    2.73000002
   16.69416618   84.43090057    0.25999999    2.73000002
   16.69722176   79.82250214    0.25999999    2.71000004
   16.70333481   79.82250214    0.28000000    2.73000002
   16.70750046   83.25460052    0.28000000    2.71000004
   16.71083450   80.73680115    0.28000000    2.71000004
   16.71389008   79.31379700    0.31999999    2.71000004
   16.71722221   82.72129822    0.36000001    2.71000004
   16.72055626   77.96389771    0.38000000    2.71000004
   16.72361183   80.46109772    0.50000000    2.71000004
   16.72666740   81.48090363    0.50000000    2.71000004
   16.72750092   81.12529755    0.50000000    2.71000004
   16.73083305   80.85700226    0.47999999    2.71000004
   16.73388863   84.59140015    0.46000001    2.71000004
   16.73722267   77.58209991    0.34000000    2.71000004
   16.74027824   77.37979889    0.34000000    2.73000002
   16.74638939   77.37979889    0.28000000    2.71000004
   16.75027847   77.87560272    0.25999999    2.73000002
   16.75361061   79.40609741    0.28000000    2.71000004
   16.75694466   77.50319672    0.28000000    2.71000004
   16.76000023   78.22509766    0.28000000    2.71000004
   16.76055527   76.51409912    0.28000000    2.71000004
   16.76388931   81.40209961    0.28000000    2.71000004
   16.76694489   75.31890106    0.28000000    2.71000004
   16.77027702   83.20269775    0.28000000    2.71000004
   16.77333260   79.54599762    0.25999999    2.73000002
   16.77666664   78.16259766    0.25999999    2.71000004
   16.78000069   79.96399689    0.25999999    2.71000004
   16.78305435   79.71140289    0.25999999    2.73000002
   16.78916550   79.71140289    0.25999999    2.73000002
   16.79333305   78.99400330    0.25999999    2.73000002
   16.79388809   79.80519867    0.25999999    2.73000002
   16.79694366   78.80760193    0.25999999    2.71000004
   16.80027771   78.36720276    0.28000000    2.73000002
   16.80360985   78.81310272    0.28000000    2.71000004
   16.80666542   77.43920135    0.28000000    2.71000004
   16.80999947   84.63249969    0.28000000    2.71000004
   16.81305504   82.49829865    0.28000000    2.71000004
   16.81638718   82.21829987    0.28000000    2.73000002
   16.81972313   81.68740082    0.28000000    2.71000004
   16.82277870   83.78839874    0.28000000    2.71000004
   16.82611275   74.09770203    0.28000000    2.71000004
   16.82722282   81.54910278    0.28000000    2.71000004
   16.83194542   81.54910278    0.28000000    2.71000004
   16.83611107   82.66970062    0.28000000    2.71000004
   16.83916664   78.98459625    0.28000000    2.73000002
   16.84250069   77.30789948    0.28000000    2.71000004
   16.84583473   81.76820374    0.30000001    2.73000002
   16.84916687   79.64630127    0.30000001    2.71000004
   16.85222244   86.67500305    0.30000001    2.71000004
   16.85555649   78.71720123    0.30000001    2.71000004
   16.85888863   84.53630066    0.30000001    2.73000002
   16.86055565   84.88059998    0.30000001    2.73000002
   16.86222267   81.55629730    0.30000001    2.71000004
   16.86555672   75.60109711    0.28000000    2.71000004
   16.86861038   80.54679871    0.34000000    2.71000004
   16.87472153   80.54679871    0.31999999    2.71000004
   16.87888908   77.93350220    0.31999999    2.71000004
   16.88222313   85.12280273    0.31999999    2.71000004
   16.88527679   84.60150146    0.31999999    2.71000004
   16.88861084   82.75939941    0.30000001    2.71000004
   16.89194489   81.76629639    0.30000001    2.71000004
   16.89388847   78.56099701    0.31999999    2.71000004
   16.89527702   75.41979980    0.31999999    2.71000004
   16.89861107   76.64409637    0.34000000    2.71000004
   16.90166664   78.32170105    0.31999999    2.71000004
   16.90499878   76.61070251    0.34000000    2.73000002
   16.90833282   78.32980347    0.31999999    2.71000004
   16.91138840   78.20790100    0.31999999    2.73000002
   16.91777802   78.20790100    0.31999999    2.71000004
   16.92166519   80.02169800    0.31999999    2.73000002
   16.92499924   81.04290009    0.31999999    2.71000004
   16.92722130   78.54309845    0.31999999    2.71000004
   16.92860985   80.69799805    0.31999999    2.71000004
   16.93194389   76.04949951    0.34000000    2.71000004
   16.93527603   75.42859650    0.34000000    2.71000004
   16.93833160   76.97280121    0.34000000    2.71000004
   16.94166565   87.47149658    0.36000001    2.73000002
   16.94472122   80.74050140    0.36000001    2.71000004
   16.94805527   78.33170319    0.36000001    2.71000004
   16.95138931   83.72689819    0.36000001    2.71000004
   16.95444489   80.73229980    0.36000001    2.71000004
   16.96055603   80.73229980    0.36000001    2.71000004
   16.96472359   88.26190186    0.38000000    2.71000004
   16.96777916   82.88020325    0.36000001    2.71000004
   16.97111130   82.09400177    0.36000001    2.71000004
   16.97416687   81.73799896    0.36000001    2.71000004
   16.97750092   75.40720367    0.36000001    2.71000004
   16.98083305   84.16480255    0.36000001    2.71000004
   16.98388863   79.51540375    0.36000001    2.71000004
   16.98722267   87.13279724    0.34000000    2.71000004
   16.99055672   80.93959808    0.36000001    2.71000004
   16.99361229   78.55690002    0.34000000    2.73000002
   16.99555588   76.53759766    0.34000000    2.73000002
   16.99749947   75.72010040    0.34000000    2.71000004
   17.00333405   75.72010040    0.31999999    2.71000004
   17.00749969   77.05220032    0.31999999    2.71000004
   17.01055527   82.92259979    0.31999999    2.73000002
   17.01388931   78.91629791    0.31999999    2.71000004
   17.01722145   77.95449829    0.34000000    2.69000006
   17.02027702   76.94219971    0.34000000    2.71000004
   17.02361107   77.68979645    0.34000000    2.73000002
   17.02694511   75.06179810    0.34000000    2.73000002
   17.02888870   77.78340149    0.34000000    2.71000004
   17.03055573   77.75289917    0.34000000    2.71000004
   17.03361130   77.39959717    0.34000000    2.71000004
   17.03694344   78.04000092    0.34000000    2.73000002
   17.03999901   78.76580048    0.34000000    2.71000004
   17.04611015   78.76580048    0.34000000    2.71000004
   17.05027771   74.01730347    0.31999999    2.73000002
   17.05360985   79.90720367    0.34000000    2.71000004
   17.05666542   75.11750031    0.31999999    2.73000002
   17.05999947   79.23179626    0.31999999    2.73000002
   17.06250000   75.96949768    0.31999999    2.71000004
   17.06361008   80.67579651    0.31999999    2.71000004
   17.06694603   85.00250244    0.31999999    2.71000004
   17.07027817   77.53939819    0.31999999    2.71000004
   17.07333374   79.87310028    0.31999999    2.71000004
   17.07666779   80.72059631    0.31999999    2.71000004
   17.07972336   83.99069977    0.30000001    2.71000004
   17.08305550   80.87969971    0.30000001    2.71000004
   17.08916664   80.87969971    0.30000001    2.71000004
   17.09305573   82.10890198    0.30000001    2.71000004
   17.09583473   75.46459961    0.31999999    2.71000004
   17.09666824   87.54010010    0.31999999    2.71000004
   17.10000038   78.42530060    0.31999999    2.71000004
   17.10333443   82.16220093    0.31999999    2.71000004
   17.10639000   75.69300079    0.31999999    2.71000004
   17.10972214   85.13849640    0.34000000    2.71000004
   17.11277771   79.20899963    0.34000000    2.71000004
   17.11611176   79.84329987    0.34000000    2.71000004
   17.11944389   78.64659882    0.34000000    2.71000004
   17.12249947   80.84529877    0.34000000    2.71000004
   17.12583351   75.60679626    0.34000000    2.71000004
   17.13194466   75.60679626    0.36000001    2.71000004
   17.13611031   80.34950256    0.36000001    2.73000002
   17.13916588   82.08399963    0.34000000    2.71000004
   17.14249992   79.70729828    0.34000000    2.71000004
   17.14555550   81.39299774    0.36000001    2.71000004
   17.14888954   80.67479706    0.38000000    2.71000004
   17.15222168   77.16609955    0.38000000    2.71000004
   17.15527725   77.26629639    0.38000000    2.71000004
   17.15861130   80.14240265    0.38000000    2.73000002
   17.16194344   82.62509918    0.38000000    2.71000004
   17.16277695   80.66660309    0.38000000    2.71000004
   17.16555595   78.26540375    0.38000000    2.71000004
   17.16860962   83.39279938    0.38000000    2.71000004
   17.17472076   83.39279938    0.38000000    2.71000004
   17.17888832   79.96700287    0.40000001    2.73000002
   17.18222237   85.47630310    0.40000001    2.71000004
   17.18527603   78.52629852    0.40000001    2.71000004
   17.18861008   81.43129730    0.40000001    2.73000002
   17.19166565   80.29560089    0.38000000    2.73000002
   17.19499969   78.30680084    0.40000001    2.71000004
   17.19610977   79.03859711    0.40000001    2.71000004
   17.19888878   74.05110168    0.40000001    2.71000004
   17.20194435   75.11029816    0.38000000    2.71000004
   17.20527840   76.85710144    0.40000001    2.71000004
   17.20861244   76.00990295    0.38000000    2.71000004
   17.21166801   76.59230042    0.38000000    2.71000004
   17.21750069   76.59230042    0.38000000    2.71000004
   17.22166634   82.46559906    0.38000000    2.71000004
   17.22500038   76.10070038    0.38000000    2.71000004
   17.22805595   80.25450134    0.36000001    2.71000004
   17.22972298   78.19589996    0.34000000    2.71000004
   17.23166656   76.38670349    0.34000000    2.71000004
   17.23500061   79.68340302    0.34000000    2.71000004
   17.23833275   75.68979645    0.31999999    2.71000004
   17.24138832   78.51200104    0.31999999    2.71000004
   17.24472237   75.80889893    0.30000001    2.71000004
   17.24777794   76.51609802    0.31999999    2.71000004
   17.25111198   80.86260223    0.31999999    2.71000004
   17.25444412   83.15380096    0.31999999    2.71000004
   17.26055527   83.15380096    0.31999999    2.71000004
   17.27888870   75.80760193    0.31999999    2.71000004
   17.28194427   79.48549652    0.31999999    2.71000004
   17.28527641   77.74510193    0.31999999    2.71000004
   17.28861046   82.34040070    0.31999999    2.71000004
   17.29166603   79.13110352    0.31999999    2.73000002
   17.29500008   84.43340302    0.31999999    2.71000004
   17.29805565   79.25730133    0.31999999    2.71000004
   17.30333328   79.25730133    0.36000001    2.71000004
   17.30749893   82.98220062    0.36000001    2.71000004
   17.31055450   79.24929810    0.34000000    2.73000002
   17.31194305   77.89579773    0.34000000    2.71000004
   17.31416512   74.10810089    0.34000000    2.71000004
   17.31750107   81.54779816    0.34000000    2.71000004
   17.32083511   78.96559906    0.34000000    2.71000004
   17.32389069   77.34539795    0.34000000    2.71000004
   17.32722282   76.27330017    0.34000000    2.71000004
   17.33055687   77.36609650    0.34000000    2.71000004
   17.33361244   75.67449951    0.34000000    2.71000004
   17.33694458   78.97450256    0.34000000    2.71000004
   17.34000015   75.88359833    0.34000000    2.71000004
   17.34611130   75.88359833    0.34000000    2.71000004
   17.35027885   75.70809937    0.34000000    2.73000002
   17.35333443   80.50969696    0.34000000    2.71000004
   17.35666656   80.76460266    0.36000001    2.73000002
   17.36000061   80.60440063    0.36000001    2.71000004
   17.36333466   78.30380249    0.34000000    2.71000004
   17.36638832   78.22509766    0.34000000    2.71000004
   17.36972237   82.17440033    0.34000000    2.71000004
   17.37277794   77.03430176    0.36000001    2.71000004
   17.37611198   79.99549866    0.36000001    2.71000004
   17.37861061   78.05370331    0.36000001    2.71000004
   17.37972260   74.57859802    0.36000001    2.71000004
   17.38305473   79.34829712    0.36000001    2.71000004
   17.38888931   79.34829712    0.38000000    2.71000004
   17.39305496   73.94519806    0.36000001    2.71000004
   17.39638901   79.62550354    0.36000001    2.71000004
   17.39944458   78.55130005    0.36000001    2.71000004
   17.40277672   81.17030334    0.36000001    2.71000004
   17.40611076   77.29679871    0.36000001    2.71000004
   17.40916634   75.15750122    0.36000001    2.71000004
   17.41194344   77.17240143    0.36000001    2.71000004
   17.41277695   76.01789856    0.36000001    2.71000004
   17.41611099   73.85510254    0.36000001    2.71000004
   17.41944313   78.26319885    0.36000001    2.71000004
   17.42249870   79.03399658    0.36000001    2.71000004
   17.42583275   76.75859833    0.36000001    2.71000004
   17.43166542   76.75859833    0.36000001    2.71000004
   17.43583298   79.74019623    0.36000001    2.71000004
   17.43916512   74.39830017    0.36000001    2.71000004
   17.44249916   77.82700348    0.34000000    2.73000002
   17.44527626   75.52059937    0.34000000    2.71000004
   17.44610977   78.05930328    0.34000000    2.71000004
   17.44916534   80.26090240    0.36000001    2.71000004
   17.45250130   80.13040161    0.36000001    2.71000004
   17.45555687   78.36979675    0.36000001    2.71000004
   17.45888901   75.51139832    0.36000001    2.71000004
   17.46222305   80.11039734    0.36000001    2.71000004
   17.46527863   79.60330200    0.40000001    2.71000004
   17.46861076   84.70939636    0.40000001    2.71000004
   17.47472191   84.70939636    0.38000000    2.71000004
   17.47888947   85.05809784    0.36000001    2.71000004
   17.48194504   81.78810120    0.36000001    2.71000004
   17.48527718   76.30429840    0.36000001    2.71000004
   17.48833275   78.17659760    0.36000001    2.71000004
   17.49166679   84.72399902    0.36000001    2.71000004
   17.49500084   77.68569946    0.36000001    2.71000004
   17.49805641   78.72830200    0.36000001    2.71000004
   17.50138855   79.89009857    0.38000000    2.71000004
   17.50472260   80.02140045    0.41999999    2.71000004
   17.50777817   75.35530090    0.46000001    2.71000004
   17.51111031   85.65910339    0.51999998    2.71000004
   17.51194382   77.81150055    0.50000000    2.71000004
   17.51749992   77.81150055    0.46000001    2.71000004
   17.52166557   81.27600098    0.41999999    2.71000004
   17.52472115   79.74469757    0.44000000    2.71000004
   17.52805519   78.35079956    0.40000001    2.71000004
   17.53138924   76.78399658    0.40000001    2.71000004
   17.53444481   78.39260101    0.40000001    2.71000004
   17.53777695   82.00839996    0.40000001    2.69000006
   17.54111099   78.43370056    0.36000001    2.71000004
   17.54416656   80.14350128    0.34000000    2.71000004
   17.54527664   80.79360199    0.34000000    2.71000004
   17.54777718   82.61959839    0.36000001    2.71000004
   17.55111122   80.50170135    0.34000000    2.71000004
   17.55444336   84.50409698    0.34000000    2.71000004
   17.56027794   84.50409698    0.34000000    2.71000004
   17.56444359   82.66429901    0.34000000    2.71000004
   17.56777954   85.33650208    0.34000000    2.71000004
   17.57083511   90.59369659    0.34000000    2.71000004
   17.57416725   85.38459778    0.31999999    2.71000004
   17.57750130   83.15270233    0.31999999    2.71000004
   17.57861137   84.88990021    0.31999999    2.71000004
   17.58111191   80.15209961    0.31999999    2.71000004
   17.58416748   86.24970245    0.31999999    2.71000004
   17.58750153   84.60320282    0.31999999    2.71000004
   17.59055710   79.87149811    0.31999999    2.71000004
   17.59388924   84.83879852    0.31999999    2.71000004
   17.59722328   89.66320038    0.31999999    2.71000004
   17.60305595   89.66320038    0.31999999    2.71000004
   17.60722351   84.11579895    0.31999999    2.71000004
   17.61055565   86.84529877    0.31999999    2.71000004
   17.61194420   84.71890259    0.31999999    2.71000004
   17.61416626   88.81880188    0.34000000    2.71000004
   17.61722183   81.27100372    0.34000000    2.71000004
   17.62055588   85.33570099    0.34000000    2.71000004
   17.62361145   84.10870361    0.34000000    2.71000004
   17.62694550   84.72370148    0.34000000    2.69000006
   17.63027763   79.64060211    0.34000000    2.71000004
   17.63333321   80.21499634    0.34000000    2.71000004
   17.63666725   80.99160004    0.34000000    2.71000004
   17.63999939   79.98470306    0.34000000    2.71000004
   17.64611053   79.98470306    0.36000001    2.69000006
   17.65027809   -1.00000000    0.36000001    2.71000004
   17.65333366   -1.00000000    0.36000001    2.71000004
   17.65666580   90.60310364    0.36000001    2.71000004
   17.65972137   81.18569946    0.36000001    2.71000004
   17.66305542   83.28800201    0.34000000    2.71000004
   17.66638756   84.64109802    0.36000001    2.69000006
   17.66944313   83.07479858    0.36000001    2.71000004
   17.67277718   76.88770294    0.34000000    2.71000004
   17.67611122   78.88610077    0.34000000    2.71000004
   17.67860985   78.88819885    0.34000000    2.71000004
   17.67972183   81.93370056    0.34000000    2.71000004
   17.68277740   77.71499634    0.34000000    2.69000006
   17.68888855   77.71499634    0.34000000    2.71000004
   17.69305420   76.15360260    0.34000000    2.71000004
   17.69610977   81.71119690    0.34000000    2.71000004
   17.69944382   -1.00000000    0.34000000    2.69000006
   17.70277786   -1.00000000    0.34000000    2.71000004
   17.70583344   87.77529907    0.31999999    2.71000004
   17.70916748   84.61720276    0.31999999    2.71000004
   17.71194458   78.83180237    0.31999999    2.69000006
   17.71277809   81.49939728    0.31999999    2.71000004
   17.71583366   77.97200012    0.34000000    2.71000004
   17.71916771   75.61750031    0.34000000    2.71000004
   17.72222328   81.51540375    0.34000000    2.71000004
   17.72555542   78.08489990    0.34000000    2.71000004
   17.73166656   78.08489990    0.34000000    2.71000004
   17.73583412   77.36019897    0.34000000    2.69000006
   17.73916626   76.52120209    0.34000000    2.71000004
   17.74222183   78.18550110    0.34000000    2.69000006
   17.74527740   79.66429901    0.34000000    2.71000004
   17.74611092   78.50479889    0.34000000    2.71000004
   17.74916649   -1.00000000    0.34000000    2.71000004
   17.75250053   -1.00000000    0.34000000    2.71000004
   17.75555611   -1.00000000    0.34000000    2.71000004
   17.75888824   84.90799713    0.34000000    2.71000004
   17.76222229   79.62529755    0.36000001    2.69000006
   17.76527786   78.63899994    0.36000001    2.69000006
   17.76861000   80.97530365    0.34000000    2.71000004
   17.77444458   80.97530365    0.31999999    2.69000006
   17.77861023   78.71779633    0.31999999    2.71000004
   17.78194427   78.78970337    0.31999999    2.71000004
   17.78527641   79.89550018    0.31999999    2.71000004
   17.78833199   78.02179718    0.31999999    2.69000006
   17.79166603   79.97039795    0.31999999    2.71000004
   17.79472160   82.98310089    0.31999999    2.69000006
   17.79805565   81.96769714    0.31999999    2.71000004
   17.80138779   77.30879974    0.34000000    2.71000004
   17.80444336   79.75779724    0.36000001    2.69000006
   17.80777740   77.52230072    0.36000001    2.69000006
   17.81110954   79.80349731    0.34000000    2.69000006
   17.81194305   79.66079712    0.36000001    2.71000004
   17.81750107   79.66079712    0.34000000    2.71000004
   17.82139015   82.77210236    0.34000000    2.71000004
   17.82472229   82.27069855    0.34000000    2.69000006
   17.82805634   83.09269714    0.34000000    2.71000004
   17.83111191   84.44300079    0.36000001    2.71000004
   17.83444595   75.80349731    0.34000000    2.69000006
   17.83777809   82.37229919    0.34000000    2.69000006
   17.84083366   86.55850220    0.34000000    2.71000004
   17.84416771   81.92949677    0.34000000    2.69000006
   17.84527779   81.09729767    0.36000001    2.69000006
   17.84777832   79.74610138    0.34000000    2.71000004
   17.85083389   80.28849792    0.34000000    2.69000006
   17.85416794   77.88929749    0.34000000    2.71000004
   17.86027908   77.88929749    0.34000000    2.71000004
   17.86444473   81.33630371    0.34000000    2.69000006
   17.86750031   80.28050232    0.34000000    2.71000004
   17.87083435   80.74579620    0.34000000    2.71000004
   17.87416649   85.60720062    0.31999999    2.69000006
   17.87722206   80.55680084    0.31999999    2.69000006
   17.87861061   83.28130341    0.31999999    2.69000006
   17.88111115   80.59059906    0.31999999    2.69000006
   17.88416672   77.62529755    0.31999999    2.71000004
   17.88750076   80.18640137    0.31999999    2.69000006
   17.89083290   80.28220367    0.31999999    2.71000004
   17.89388847   83.66220093    0.31999999    2.69000006
   17.89722252   77.79180145    0.34000000    2.69000006
   17.90305519   77.79180145    0.36000001    2.69000006
   17.90722275   77.39980316    0.34000000    2.71000004
   17.91055489   82.23850250    0.34000000    2.69000006
   17.91194344   76.07150269    0.34000000    2.69000006
   17.91416550   80.50119781    0.36000001    2.69000006
   17.91722107   79.50559998    0.36000001    2.69000006
   17.92055511   77.68759918    0.36000001    2.69000006
   17.92388916   79.82510376    0.36000001    2.71000004
   17.92694473   80.76439667    0.36000001    2.69000006
   17.93027687   74.80319977    0.36000001    2.71000004
   17.93333244   79.00260162    0.36000001    2.71000004
   17.93666649   78.00910187    0.36000001    2.69000006
   17.93999863   77.51899719    0.36000001    2.69000006
   17.94583321   77.51899719    0.36000001    2.71000004
   17.95000076   73.60320282    0.34000000    2.69000006
   17.95333481   75.81410217    0.34000000    2.69000006
   17.95639038   74.60379791    0.34000000    2.69000006
   17.95972252   79.40899658    0.31999999    2.69000006
   17.96305656   80.36849976    0.31999999    2.69000006
   17.96611214   79.11350250    0.31999999    2.69000006
   17.96944427   82.93119812    0.31999999    2.69000006
   17.97277832   84.07530212    0.34000000    2.69000006
   17.97583389   83.77179718    0.34000000    2.67000008
   17.97861099   78.49379730    0.34000000    2.69000006
   17.97972298   79.44229889    0.34000000    2.67000008
   17.98277855   76.39890289    0.36000001    2.69000006
   17.98888969   76.39890289    0.34000000    2.69000006
   17.99277878   79.95059967    0.34000000    2.69000006
   17.99611092   78.49430084    0.34000000    2.69000006
   17.99944496   82.20639801    0.34000000    2.69000006
   18.00250053   82.50740051    0.34000000    2.69000006
   18.00611115   84.74669647    0.34000000    2.69000006
   18.00916672   80.00740051    0.34000000    2.69000006
   18.01194382   83.09169769    0.31999999    2.67000008
   18.01305580   83.42410278    0.31999999    2.69000006
   18.01611137   77.71800232    0.31999999    2.69000006
   18.01944351   77.56490326    0.31999999    2.69000006
   18.02277756   84.93219757    0.34000000    2.69000006
   18.02583313   80.90319824    0.34000000    2.69000006
   18.03166580   80.90319824    0.34000000    2.69000006
   18.03583336   81.09839630    0.34000000    2.69000006
   18.03888893   77.79470062    0.34000000    2.69000006
   18.04222107   74.84799957    0.34000000    2.69000006
   18.04527664   74.45850372    0.34000000    2.69000006
   18.04583359   76.86589813    0.34000000    2.67000008
   18.04888916   76.98780060    0.36000001    2.69000006
   18.05222130   79.85359955    0.34000000    2.67000008
   18.05555534   77.36229706    0.34000000    2.69000006
   18.05861092   79.08670044    0.34000000    2.69000006
   18.06194305   83.61209869    0.36000001    2.69000006
   18.06499863   75.75129700    0.36000001    2.69000006
   18.06833458   80.95040131    0.36000001    2.69000006
   18.07444572   80.95040131    0.36000001    2.69000006
   18.07861137   73.89710236    0.36000001    2.67000008
   18.07916832   77.52770233    0.36000001    2.69000006
   18.08222389   82.28189850    0.38000000    2.69000006
   18.08555603   82.63159943    0.38000000    2.67000008
   18.08889008   79.69029999    0.36000001    2.69000006
   18.09194565   78.39469910    0.36000001    2.69000006
   18.09527779   76.89209747    0.36000001    2.69000006
   18.09833336   78.82679749    0.36000001    2.69000006
   18.10166740   75.96489716    0.34000000    2.69000006
   18.10499954   80.51550293    0.34000000    2.69000006
   18.10805511   77.70520020    0.34000000    2.67000008
   18.11138916   78.62470245    0.36000001    2.67000008
   18.11194420   77.96959686    0.36000001    2.67000008
   18.11722183   77.96959686    0.38000000    2.69000006
   18.12138939   77.94779968    0.36000001    2.67000008
   18.12472153   76.78880310    0.38000000    2.69000006
   18.12777710   81.28910065    0.38000000    2.69000006
   18.13111115   79.98439789    0.41999999    2.69000006
   18.13444519   78.10900116    0.41999999    2.69000006
   18.13777733   80.59809875    0.41999999    2.69000006
   18.14083290   80.71959686    0.40000001    2.69000006
   18.14416695   80.46579742    0.40000001    2.69000006
   18.14527702   82.30819702    0.38000000    2.67000008
   18.14777756   80.25779724    0.38000000    2.67000008
   18.15083313   73.95860291    0.38000000    2.67000008
   18.15416718   74.12310028    0.40000001    2.69000006
   18.16027832   74.12310028    0.40000001    2.67000008
   18.16416550   75.89160156    0.40000001    2.67000008
   18.16749954   81.51470184    0.44000000    2.69000006
   18.17083359   83.65129852    0.44000000    2.69000006
   18.17388916   80.40480042    0.44000000    2.69000006
   18.17722130   79.08419800    0.46000001    2.67000008
   18.17860985   83.03119659    0.46000001    2.69000006
   18.18083191   75.73249817    0.46000001    2.67000008
   18.18388748   80.98220062    0.44000000    2.69000006
   18.18722153   81.66079712    0.44000000    2.67000008
   18.19055557   77.04660034    0.44000000    2.69000006
   18.19361115   77.65419769    0.46000001    2.67000008
   18.19694328   74.26000214    0.46000001    2.67000008
   18.20305634   74.26000214    0.44000000    2.67000008
   18.20722389   79.82700348    0.44000000    2.67000008
   18.21027946   78.45870209    0.44000000    2.67000008
   18.21194458   81.95690155    0.41999999    2.69000006
   18.21416664   78.93450165    0.40000001    2.67000008
   18.21722221   79.65329742    0.40000001    2.67000008
   18.22055626   79.78520203    0.40000001    2.67000008
   18.22389030   84.51059723    0.40000001    2.69000006
   18.22694588   81.85520172    0.40000001    2.67000008
   18.23027802   80.32389832    0.40000001    2.67000008
   18.23361206   80.74839783    0.36000001    2.67000008
   18.23666763   81.68360138    0.36000001    2.67000008
   18.23999977   83.68029785    0.36000001    2.69000006
   18.24583435   83.68029785    0.36000001    2.67000008
   18.25000000   79.73680115    0.38000000    2.67000008
   18.25333405   77.26219940    0.38000000    2.67000008
   18.25638962   77.05919647    0.38000000    2.67000008
   18.25972176   83.55999756    0.40000001    2.67000008
   18.26277733   81.54309845    0.38000000    2.67000008
   18.26611137   77.11370087    0.38000000    2.67000008
   18.26944351   79.93360138    0.38000000    2.67000008
   18.27249908   77.18720245    0.38000000    2.67000008
   18.27583313   74.40730286    0.38000000    2.67000008
   18.27861023   77.29740143    0.38000000    2.67000008
   18.29555511   78.13690186    0.44000000    2.67000008
   18.29972076   78.13690186    0.41999999    2.67000008
   18.30388832   77.58560181    0.40000001    2.67000008
   18.30722237   77.40129852    0.40000001    2.67000008
   18.31027794   80.01159668    0.38000000    2.67000008
   18.31222153   80.89369965    0.38000000    2.67000008
   18.31416512   73.28309631    0.40000001    2.67000008
   18.31722260   74.29949951    0.40000001    2.67000008
   18.32055664   78.13990021    0.40000001    2.67000008
   18.32389069   78.77480316    0.36000001    2.67000008
   18.32694626   85.67720032    0.36000001    2.67000008
   18.33027840   79.99169922    0.36000001    2.67000008
   18.33333397   79.01830292    0.38000000    2.67000008
   18.33666801   77.60829926    0.38000000    2.67000008
   18.34250069   77.60829926    0.40000001    2.67000008
   18.34666824   82.23490143    0.40000001    2.67000008
   18.35000038   78.19589996    0.41999999    2.67000008
   18.35333443   82.92649841    0.46000001    2.67000008
   18.35666656   80.18199921    0.44000000    2.67000008
   18.35972214   80.58329773    0.40000001    2.67000008
   18.36305618   81.62860107    0.41999999    2.67000008
   18.36638832   76.38120270    0.44000000    2.67000008
   18.36944389   77.10939789    0.41999999    2.66000009
   18.37277794   79.96690369    0.41999999    2.66000009
   18.37583351   82.26000214    0.44000000    2.67000008
   18.37888908   83.16979980    0.47999999    2.66000009
   18.37944412   79.39649963    0.47999999    2.66000009
   18.38555527   79.39649963    0.44000000    2.67000008
   18.38944435   75.06819916    0.38000000    2.67000008
   18.39277840   91.15429688    0.38000000    2.67000008
   18.39611053   81.96060181    0.40000001    2.67000008
   18.39944458   81.09590149    0.40000001    2.66000009
   18.40250015   81.26480103    0.40000001    2.67000008
   18.40583229   84.23739624    0.41999999    2.67000008
   18.40888786   78.03230286    0.40000001    2.67000008
   18.41222191   81.54029846    0.44000000    2.67000008
   18.41250038   82.60820007    0.44000000    2.67000008
   18.41583252   83.65899658    0.44000000    2.67000008
   18.41916656   80.69180298    0.44000000    2.67000008
   18.42222214   85.97180176    0.44000000    2.67000008
   18.42833328   85.97180176    0.46000001    2.67000008
   18.43249893   84.26280212    0.46000001    2.66000009
   18.43555450   79.69860077    0.46000001    2.67000008
   18.43888855   78.25289917    0.51999998    2.66000009
   18.44222069   86.84010315    0.55000001    2.67000008
   18.44527626   75.63349915    0.56999999    2.66000009
   18.44583321   78.49109650    0.56999999    2.66000009
   18.44916534   79.99819946    0.61000001    2.67000008
   18.45222282   79.27249908    0.61000001    2.66000009
   18.45555687   76.99299622    0.58999997    2.66000009
   18.45888901   79.68840027    0.58999997    2.66000009
   18.46194458   79.98909760    0.58999997    2.66000009
   18.46527863   89.59729767    0.58999997    2.66000009
   18.47111130   89.59729767    0.58999997    2.66000009
   18.47527885   82.91590118    0.56999999    2.66000009
   18.47861099   78.25810242    0.56999999    2.66000009
   18.47916794   82.56150055    0.56999999    2.66000009
   18.48222351   85.35379791    0.52999997    2.66000009
   18.48555565   81.67790222    0.55000001    2.67000008
   18.48861122   80.17130280    0.52999997    2.66000009
   18.49194527   84.32360077    0.51999998    2.66000009
   18.49500084   81.49839783    0.51999998    2.66000009
   18.49833298   80.95339966    0.50000000    2.66000009
   18.50166702   78.61730194    0.50000000    2.66000009
   18.50472260   82.41190338    0.50000000    2.66000009
   18.50805473   82.64019775    0.50000000    2.66000009
   18.51416588   82.64019775    0.51999998    2.66000009
   18.51833344   78.82679749    0.51999998    2.66000009
   18.52138901   82.76589966    0.51999998    2.66000009
   18.52472115   90.14440155    0.64999998    2.66000009
   18.52805519   84.15529633    0.56999999    2.66000009
   18.53111076   91.84420013    0.58999997    2.66000009
   18.53444481   79.11190033    0.61000001    2.67000008
   18.53777695   90.00839996    0.56999999    2.66000009
   18.54083252   81.93879700    0.55000001    2.66000009
   18.54416656   79.08159637    0.52999997    2.66000009
   18.54583359   78.90820313    0.52999997    2.66000009
   18.54777718   79.68370056    0.52999997    2.66000009
   18.55083275   86.26129913    0.56999999    2.66000009
   18.55694389   86.26129913    0.63000000    2.66000009
   18.56083298   84.62799835    0.58999997    2.66000009
   18.56416512   83.17720032    0.58999997    2.66000009
   18.56750107   81.82460022    0.55000001    2.66000009
   18.57055664   87.96929932    0.52999997    2.66000009
   18.57389069   88.42980194    0.52999997    2.66000009
   18.57722282   79.44950104    0.55000001    2.66000009
   18.57916832   89.74130249    0.55000001    2.66000009
   18.58083344   84.47250366    0.55000001    2.66000009
   18.58388901   78.20059967    0.56999999    2.66000009
   18.58750153   83.28810120    0.56999999    2.66000009
   18.59055710   84.59819794    0.58999997    2.66000009
   18.59388924   80.58249664    0.58999997    2.66000009
   18.59972191   80.58249664    0.61000001    2.66000009
   18.60388947   80.01180267    0.52999997    2.66000009
   18.60694504   76.98919678    0.58999997    2.66000009
   18.61027908   76.77909851    0.52999997    2.64000010
   18.61250114   80.00499725    0.51999998    2.66000009
   18.61388969   78.92120361    0.50000000    2.66000009
   18.61694527   84.13890076    0.46000001    2.66000009
   18.62027740   87.58139801    0.46000001    2.64000010
   18.62361145   78.37069702    0.47999999    2.66000009
   18.62666702   77.94969940    0.47999999    2.66000009
   18.63000107   84.52719879    0.50000000    2.66000009
   18.63333321   79.46009827    0.46000001    2.66000009
   18.63638878   86.98359680    0.46000001    2.66000009
   18.64249992   86.98359680    0.46000001    2.66000009
   18.64666748   78.88359833    0.51999998    2.64000010
   18.64999962   83.13659668    0.50000000    2.66000009
   18.65305519   81.17169952    0.51999998    2.66000009
   18.65638924   77.63569641    0.50000000    2.66000009
   18.65944481   78.89620209    0.51999998    2.66000009
   18.66277695   77.92520142    0.50000000    2.66000009
   18.66611099   81.47489929    0.50000000    2.64000010
   18.66916656   83.16549683    0.47999999    2.64000010
   18.67249870   83.31020355    0.47999999    2.64000010
   18.67583275   82.03639984    0.46000001    2.66000009
   18.67888832   83.85489655    0.46000001    2.64000010
   18.67944336   74.99130249    0.46000001    2.66000009
   18.68527603   74.99130249    0.46000001    2.66000009
   18.68944359   84.26110077    0.46000001    2.66000009
   18.69277763   79.15760040    0.46000001    2.64000010
   18.69583321   85.02110291    0.47999999    2.64000010
   18.69916534   85.32839966    0.50000000    2.64000010
   18.70250130   81.69239807    0.50000000    2.66000009
   18.70555687   76.33589935    0.51999998    2.66000009
   18.70888901   81.76149750    0.51999998    2.66000009
   18.71222305   81.73590088    0.51999998    2.64000010
   18.71277809   79.40969849    0.51999998    2.64000010
   18.71583366   86.83540344    0.51999998    2.66000009
   18.71888924   85.23329926    0.51999998    2.64000010
   18.72222328   79.10099792    0.50000000    2.66000009
   18.72805595   79.10099792    0.50000000    2.66000009
   18.73222351   75.45010376    0.47999999    2.66000009
   18.73555565   78.11869812    0.50000000    2.64000010
   18.73888969   80.25399780    0.50000000    2.64000010
   18.74194527   78.19080353    0.50000000    2.64000010
   18.74527740   77.60079956    0.50000000    2.64000010
   18.74611092   76.71980286    0.51999998    2.64000010
   18.74888992   79.39779663    0.51999998    2.64000010
   18.75222206   82.11479950    0.51999998    2.64000010
   18.75527763   85.04620361    0.50000000    2.64000010
   18.75861168   83.29219818    0.50000000    2.64000010
   18.76166725   78.94619751    0.47999999    2.64000010
   18.76499939   80.63089752    0.47999999    2.64000010
   18.77111053   80.63089752    0.46000001    2.64000010
   18.77527809   86.80770111    0.47999999    2.64000010
   18.77833366   77.80979919    0.47999999    2.64000010
   18.77944374   87.05789948    0.47999999    2.64000010
   18.78194427   81.76850128    0.47999999    2.64000010
   18.78499985   75.54440308    0.47999999    2.64000010
   18.78833199   82.45570374    0.47999999    2.64000010
   18.79166603   83.37909698    0.46000001    2.64000010
   18.79472160   80.25109863    0.46000001    2.64000010
   18.79805565   80.75810242    0.46000001    2.64000010
   18.80138779   78.25800323    0.46000001    2.64000010
   18.80444336   79.92379761    0.47999999    2.64000010
   18.80777740   78.15270233    0.46000001    2.64000010
   18.81388855   78.15270233    0.47999999    2.64000010
   18.81805611   80.54340363    0.47999999    2.64000010
   18.82111168   82.03399658    0.47999999    2.64000010
   18.82444572   78.48709869    0.47999999    2.64000010
   18.82777786   77.88569641    0.50000000    2.64000010
   18.83083344   81.00019836    0.50000000    2.61999989
   18.83416748   77.74510193    0.50000000    2.64000010
   18.83750153   76.84580231    0.50000000    2.64000010
   18.84055710   79.80410004    0.50000000    2.64000010
   18.84388924   78.59439850    0.50000000    2.64000010
   18.84611130   82.79029846    0.50000000    2.64000010
   18.84749985   83.19680023    0.50000000    2.64000010
   18.85083389   80.60199738    0.47999999    2.61999989
   18.85666656   80.60199738    0.46000001    2.61999989
   18.86083412   80.56020355    0.46000001    2.64000010
   18.86416626   82.78009796    0.46000001    2.64000010
   18.86722183   78.80259705    0.46000001    2.64000010
   18.87055588   78.69819641    0.47999999    2.64000010
   18.87388992   79.43949890    0.47999999    2.64000010
   18.87694550   78.93450165    0.47999999    2.64000010
   18.87944412   77.66059875    0.47999999    2.64000010
   18.88083267   79.25830078    0.47999999    2.64000010
   18.88416672   82.52349854    0.47999999    2.61999989
   18.88722229   79.62709808    0.47999999    2.64000010
   18.89055634   81.16310120    0.47999999    2.64000010
   18.89361191   80.44850159    0.47999999    2.61999989
   18.89944458   80.44850159    0.47999999    2.61999989
   18.90361023   79.37719727    0.47999999    2.61999989
   18.90694427   78.31009674    0.47999999    2.61999989
   18.91027832   85.97669983    0.47999999    2.61999989
   18.91277695   80.16200256    0.47999999    2.64000010
   18.91388893   80.20639801    0.47999999    2.64000010
   18.91694450   80.69840240    0.47999999    2.61999989
   18.92027664   83.33860016    0.47999999    2.61999989
   18.92361069   79.86380005    0.47999999    2.61999989
   18.92666626   79.77590179    0.47999999    2.64000010
   18.93000031   83.75900269    0.47999999    2.61999989
   18.93333244   82.25980377    0.47999999    2.64000010
   18.93638802   78.20960236    0.47999999    2.61999989
   18.94249916   78.20960236    0.47999999    2.61999989
   18.94666672   76.76959991    0.47999999    2.61999989
   18.94972038   82.52989960    0.47999999    2.61999989
   18.95305634   77.62889862    0.47999999    2.61999989
   18.95611191   77.25710297    0.47999999    2.61999989
   18.95944595   76.88939667    0.47999999    2.61999989
   18.96277809   77.74829865    0.47999999    2.61999989
   18.96583366   83.71690369    0.47999999    2.61999989
   18.96916771   80.16719818    0.50000000    2.61999989
   18.97249985   80.27249908    0.50000000    2.61999989
   18.97555542   82.93109894    0.50000000    2.61999989
   18.97888947   84.91519928    0.50000000    2.61999989
   18.97944450   85.99629974    0.47999999    2.61999989
   18.98527718   85.99629974    0.47999999    2.61999989
   18.98944473   77.52580261    0.47999999    2.61999989
   18.99250031   81.96720123    0.47999999    2.61999989
   18.99583435   80.96389771    0.47999999    2.61999989
   18.99916649   87.31150055    0.47999999    2.61999989
   19.00250053   85.48069763    0.47999999    2.61999989
   19.00555611   81.70839691    0.50000000    2.61999989
   19.00888824   81.14800262    0.47999999    2.59999990
   19.01194382   81.73789978    0.47999999    2.61999989
   19.01277733   82.34519958    0.47999999    2.61999989
   19.01583290   83.81279755    0.47999999    2.61999989
   19.01916695   79.92459869    0.47999999    2.61999989
   19.02222252   84.50839996    0.47999999    2.61999989
   19.02805519   84.50839996    0.47999999    2.61999989
   19.03222275   83.79489899    0.50000000    2.61999989
   19.03555489   82.44539642    0.50000000    2.61999989
   19.03861046   81.18859863    0.50000000    2.59999990
   19.04194450   79.19999695    0.51999998    2.59999990
   19.04527664   76.44529724    0.50000000    2.59999990
   19.04611015   76.67549896    0.50000000    2.61999989
   19.04888916   80.88870239    0.50000000    2.61999989
   19.05222130   92.45890045    0.50000000    2.59999990
   19.05527687   82.47799683    0.50000000    2.61999989
   19.05861092   80.83329773    0.50000000    2.61999989
   19.06194305   81.80909729    0.50000000    2.61999989
   19.06499863   86.53359985    0.50000000    2.61999989
   19.07139015   86.53359985    0.47999999    2.59999990
   19.07555580   81.20140076    0.47999999    2.59999990
   19.07888985   83.55999756    0.47999999    2.59999990
   19.07972336   84.01149750    0.47999999    2.59999990
   19.08250046   82.68520355    0.47999999    2.59999990
   19.08583450   80.28939819    0.46000001    2.59999990
   19.08916664   77.56250000    0.46000001    2.61999989
   19.09222221   80.52890015    0.47999999    2.61999989
   19.09555626   83.99269867    0.47999999    2.61999989
   19.09889030   81.05149841    0.50000000    2.59999990
   19.10194397   88.57779694    0.50000000    2.59999990
   19.10527802   90.21379852    0.50000000    2.59999990
   19.10861206   82.03949738    0.50000000    2.61999989
   19.11388969   82.03949738    0.50000000    2.59999990
   19.11805534   78.57230377    0.50000000    2.61999989
   19.12111092   80.56120300    0.51999998    2.59999990
   19.12444496   80.40350342    0.52999997    2.59999990
   19.12777710   84.03260040    0.55000001    2.59999990
   19.13083267   83.86650085    0.52999997    2.59999990
   19.13416672   80.82469940    0.52999997    2.59999990
   19.13722229   86.25820160    0.51999998    2.59999990
   19.14055634   87.23919678    0.51999998    2.59999990
   19.14444351   82.68560028    0.51999998    2.59999990
   19.14694405   80.59249878    0.52999997    2.59999990
   19.14888954   77.40489960    0.50000000    2.59999990
   19.15222168   79.83589935    0.50000000    2.59999990
   19.15666580   79.83589935    0.50000000    2.59999990
   19.16083336   82.23780060    0.50000000    2.59999990
   19.16416550   84.26069641    0.51999998    2.59999990
   19.16722107   79.01979828    0.50000000    2.59999990
   19.17055511   78.42120361    0.51999998    2.59999990
   19.17388916   88.43730164    0.51999998    2.59999990
   19.17749977   82.54039764    0.51999998    2.57999992
   19.17972183   79.85569763    0.52999997    2.57999992
   19.18138885   81.48560333    0.52999997    2.59999990
   19.18472099   86.05950165    0.51999998    2.59999990
   19.18805504   80.26599884    0.51999998    2.59999990
   19.19111061   81.23090363    0.51999998    2.59999990
   19.19444275   81.69940186    0.51999998    2.57999992
   19.19944382   81.69940186    0.52999997    2.59999990
   19.20361137   79.79029846    0.51999998    2.59999990
   19.20694542   85.05919647    0.51999998    2.57999992
   19.21000099   76.63320160    0.51999998    2.57999992
   19.21277809   81.87100220    0.51999998    2.59999990
   19.21361160   79.70339966    0.51999998    2.59999990
   19.21694565   82.70580292    0.52999997    2.57999992
   19.22000122   88.35749817    0.51999998    2.57999992
   19.22333336   85.29959869    0.51999998    2.57999992
   19.22638893   80.07440186    0.51999998    2.57999992
   19.22972298   81.12819672    0.52999997    2.57999992
   19.23305511   85.63580322    0.76999998    2.57999992
   19.23611069   88.32510376    0.51999998    2.57999992
   19.24222183   88.32510376    0.51999998    2.57999992
   19.24638939   86.57330322    0.51999998    2.57999992
   19.24972153   77.98049927    0.52999997    2.57999992
   19.25305557   81.68910217    0.52999997    2.57999992
   19.25611115   81.77749634    0.55000001    2.57999992
   19.25944519   85.13539886    0.55000001    2.57999992
   19.26277733   89.40579987    0.55000001    2.57999992
   19.26583290   85.37480164    0.55000001    2.57999992
   19.26916695   86.98269653    0.55000001    2.57999992
   19.27222252   84.34639740    0.55000001    2.57999992
   19.27555466   83.67549896    0.55000001    2.57999992
   19.27888870   83.55449677    0.55000001    2.57999992
   19.27944374   81.64679718    0.52999997    2.57999992
   19.28527641   81.64679718    0.55000001    2.57999992
   19.28944397   86.75119781    0.55000001    2.57999992
   19.29249954   80.97499847    0.55000001    2.57999992
   19.29583359   80.47789764    0.55000001    2.57999992
