    HOUR (UT)   FLARE FACTOR    SKY TESTER    SUN TESTER
   12.14361095   -1.00000000   -1.00000000   -1.00000000
   12.16361046  282.66699219    0.55000001    1.76999998
   12.16805553  299.05099487    0.55000001    1.76999998
   12.17222214  284.74398804    0.56999999    1.76999998
   12.17555618  307.08801270    0.55000001    1.78999996
   12.17750072  339.41900635    0.55000001    1.78999996
   12.17888927  271.43899536    0.56999999    1.78999996
   12.18027782  267.79199219    0.56999999    1.78999996
   12.18166733  228.34199524    0.56999999    1.78999996
   12.18166733  299.05099487    0.55000001    1.76999998
   12.18194485  284.74398804    0.56999999    1.76999998
   12.18194485  307.08801270    0.55000001    1.78999996
   12.18249989  222.26899719    0.56999999    1.78999996
   12.18583298   -1.00000000    0.56999999    1.78999996
   12.18888855   94.50140381    0.56999999    1.78999996
   12.19222260  194.38600159    0.56999999    1.78999996
   12.20361137  242.86000061    0.58999997    1.83000004
   12.20694447  275.93600464    0.56999999    1.80999994
   12.21027756  261.92800903    0.58999997    1.83000004
   12.21333313  255.96800232    0.58999997    1.83000004
   12.21666622  247.64399719    0.58999997    1.80999994
   12.21999931  263.39099121    0.58999997    1.83000004
   12.22388840  263.39099121    0.58999997    1.83000004
   12.22805500  271.65600586    0.58999997    1.85000002
   12.23138809  248.58399963    0.58999997    1.85000002
   12.23472214  265.23001099    0.61000001    1.85000002
   12.23694515  253.28900146    0.58999997    1.85000002
   12.23833370  254.20300293    0.61000001    1.85000002
   12.24166679  260.46398926    0.58999997    1.86000001
   12.24472237  246.63999939    0.61000001    1.85000002
   12.24805546  246.14399719    0.58999997    1.86000001
   12.25138855  246.08099365    0.58999997    1.85000002
   12.25444412  258.79199219    0.61000001    1.85000002
   12.25777817  247.14300537    0.61000001    1.86000001
   12.26083374  242.34700012    0.58999997    1.86000001
   12.26694393  242.34700012    0.58999997    1.86000001
   12.27111053  242.55299377    0.61000001    1.88000000
   12.27416611  241.87199402    0.61000001    1.88000000
   12.27750015  234.66700745    0.61000001    1.88000000
   12.28083324  243.89599609    0.58999997    1.88000000
   12.28388977  219.83799744    0.58999997    1.88000000
   12.28722286  222.55299377    0.61000001    1.88000000
   12.29055595  224.30799866    0.58999997    1.89999998
   12.29361153  248.32400513    0.58999997    1.89999998
   12.29694462  227.25500488    0.58999997    1.88000000
   12.30000019  235.77999878    0.58999997    1.89999998
   12.30333328  227.00900269    0.58999997    1.89999998
   12.30388927  222.34300232    0.58999997    1.89999998
   12.30972195  222.34300232    0.61000001    1.91999996
   12.31388950  223.51800537    0.58999997    1.91999996
   12.31694412  236.35699463    0.61000001    1.89999998
   12.32027817  218.52200317    0.61000001    1.89999998
   12.32361126  230.67500305    0.58999997    1.91999996
   12.32666683  225.68099976    0.58999997    1.91999996
   12.32999992  246.33000183    0.58999997    1.94000006
   12.33333302  237.69900513    0.58999997    1.91999996
   12.33638859  221.44400024    0.58999997    1.91999996
   12.33722210  222.05299377    0.58999997    1.91999996
   12.34027767  213.28700256    0.58999997    1.94000006
   12.34333324  234.90800476    0.56999999    1.94000006
   12.34666634  241.50100708    0.56999999    1.94000006
   12.35249996  241.50100708    0.56999999    1.94000006
   12.35666752  212.68600464    0.56999999    1.96000004
   12.36000061  216.57699585    0.56999999    1.96000004
   12.36305618  231.17999268    0.56999999    1.96000004
   12.36638927  203.70100403    0.56999999    1.96000004
   12.36972237  202.65400696    0.56999999    1.96000004
   12.37055588  197.74800110    0.56999999    1.96000004
   12.37333393  210.19799805    0.56999999    1.96000004
   12.37638855  223.38699341    0.55000001    1.98000002
   12.37972260  223.79200745    0.55000001    1.98000002
   12.38305569  208.19400024    0.56999999    1.96000004
   12.38611126  198.86500549    0.55000001    1.96000004
   12.38944435  203.59399414    0.55000001    1.98000002
   12.39555550  203.59399414    0.55000001    1.98000002
   12.39944458  207.82800293    0.55000001    1.98000002
   12.40277767  198.59700012    0.55000001    1.98000002
   12.40388870  210.60000610    0.55000001    1.98000002
   12.40638828  199.24099731    0.55000001    2.00000000
   12.40944386  187.35400391    0.55000001    2.00000000
   12.41277695  198.16600037    0.52999997    2.00000000
   12.41611099  196.72000122    0.55000001    2.00000000
   12.41916656  196.19500732    0.52999997    2.00000000
   12.42250061  206.79299927    0.52999997    2.00000000
   12.42583370  183.36199951    0.55000001    2.00000000
   12.42888927  190.99899292    0.52999997    2.00000000
   12.43222237  199.63699341    0.52999997    2.01999998
   12.43833351  199.63699341    0.52999997    2.01999998
   12.44250011  201.21800232    0.52999997    2.01999998
   12.44555569  185.24400330    0.52999997    2.01999998
   12.44916630  177.12100220    0.52999997    2.01999998
   12.45249939  181.99000549    0.52999997    2.01999998
   12.45555496  187.31700134    0.52999997    2.01999998
   12.45888901  175.00599670    0.52999997    2.03999996
   12.46222210  186.55000305    0.52999997    2.03999996
   12.46527767  184.30200195    0.52999997    2.03999996
   12.46861076  185.20100403    0.51999998    2.03999996
   12.47055531  194.45199585    0.51999998    2.03999996
   12.47222137  185.81300354    0.51999998    2.03999996
   12.47527695  183.73800659    0.51999998    2.03999996
   12.48111057  183.73800659    0.51999998    2.05999994
   12.48527813  186.78700256    0.51999998    2.03999996
   12.48833370  184.22300720    0.51999998    2.05999994
   12.49166679  186.71400452    0.51999998    2.05999994
   12.49499989  188.47999573    0.52999997    2.05999994
   12.49805546  188.06799316    0.51999998    2.05999994
   12.50138855  188.89500427    0.51999998    2.05999994
   12.50388908  189.50799561    0.51999998    2.05999994
   12.50500011  188.89999390    0.51999998    2.05999994
   12.50805569  193.12600708    0.51999998    2.05999994
   12.51138878  198.50999451    0.51999998    2.07999992
   12.51472187  219.11500549    0.51999998    2.07999992
   12.51777744  280.98498535    0.51999998    2.07999992
   12.52388859  280.98498535    0.51999998    2.07999992
   12.52805519  314.56600952    0.51999998    2.07999992
   12.53027725  267.14898682    0.51999998    2.09999990
   12.53138828  212.72900391    0.51999998    2.07999992
   12.53138828  280.98498535    0.51999998    2.07999992
   12.53166676  314.56600952    0.51999998    2.07999992
   12.53166676  188.47999573    0.52999997    2.05999994
   12.53166676  188.06799316    0.51999998    2.05999994
   12.53194427  188.89500427    0.51999998    2.05999994
   12.53194427  188.89999390    0.51999998    2.05999994
   12.53194427  193.12600708    0.51999998    2.05999994
   12.53222179  198.50999451    0.51999998    2.07999992
   12.53222179  219.11500549    0.51999998    2.07999992
   12.53333378  209.98500061    0.51999998    2.07999992
   12.53666687  290.10000610    0.51999998    2.07999992
   12.53972244  325.51000977    0.51999998    2.07999992
   12.54194450  315.05099487    0.50000000    2.09999990
   12.54305553  266.84100342    0.50000000    2.09999990
   12.54444504  229.15699768    0.50000000    2.09999990
   12.54472256  209.98500061    0.51999998    2.07999992
   12.54472256  290.10000610    0.51999998    2.07999992
   12.54472256  325.51000977    0.51999998    2.07999992
   12.54555607  198.81799316    0.50000000    2.09999990
   12.54861164  269.16699219    0.50000000    2.09999990
   12.55194473  286.09799194    0.51999998    2.09999990
   12.55500031  220.35200500    0.50000000    2.09999990
   12.55833340  269.36099243    0.50000000    2.09999990
   12.56166649  250.57800293    0.50000000    2.09999990
   12.56583309  250.57800293    0.50000000    2.09999990
   12.56972218  218.51400757    0.50000000    2.11999989
   12.57305527  187.28199768    0.50000000    2.11999989
   12.57638836  169.88699341    0.50000000    2.11999989
   12.57833290  232.27200317    0.50000000    2.11999989
   12.57999992  216.09899902    0.50000000    2.11999989
   12.58333302  178.53799438    0.50000000    2.13000011
   12.58638859  195.87600708    0.50000000    2.13000011
   12.58972168  163.53100586    0.50000000    2.13000011
   12.59305477  175.11799622    0.50000000    2.11999989
   12.59611034  188.69200134    0.50000000    2.11999989
   12.59944439  214.26400757    0.50000000    2.13000011
   12.60249996  162.21899414    0.50000000    2.13000011
   12.60861111  162.21899414    0.50000000    2.13000011
   12.61277771  169.61399841    0.50000000    2.13000011
   12.61583328  153.51400757    0.47999999    2.13000011
   12.61916637  166.35299683    0.50000000    2.13000011
   12.62250042  139.42799377    0.47999999    2.13000011
   12.62555599  149.21499634    0.50000000    2.13000011
   12.62888908  158.74499512    0.47999999    2.13000011
   12.63194466  165.54100037    0.47999999    2.15000010
   12.63527775  157.57099915    0.47999999    2.15000010
   12.63861084  159.22000122    0.47999999    2.13000011
   12.64166641  165.99400330    0.47999999    2.15000010
   12.64499950  161.68099976    0.52999997    2.15000010
   12.64555550  163.52799988    0.52999997    2.15000010
   12.65166664  163.52799988    0.50000000    2.15000010
   12.65583324  159.76300049    0.51999998    2.15000010
   12.65916634  150.46099854    0.47999999    2.15000010
   12.66222191  145.48199463    0.47999999    2.15000010
   12.66555500  152.20799255    0.47999999    2.17000008
   12.66888905  157.43400574    0.47999999    2.17000008
   12.67194462  154.67599487    0.47999999    2.17000008
   12.67527771  160.58500671    0.47999999    2.17000008
   12.67861176  147.72999573    0.47999999    2.17000008
   12.67888927  144.33799744    0.47999999    2.17000008
   12.68222237  150.45799255    0.47999999    2.17000008
   12.68555546  159.08099365    0.47999999    2.17000008
   12.68861103  157.02799988    0.47999999    2.17000008
   12.69416714  157.02799988    0.47999999    2.17000008
   12.69833374  149.15299988    0.47999999    2.19000006
   12.70166683  162.20700073    0.47999999    2.17000008
   12.70472240  156.36000061    0.47999999    2.17000008
   12.70805550  167.28199768    0.47999999    2.19000006
   12.71138859  168.19599915    0.47999999    2.19000006
   12.71249962  159.50000000    0.47999999    2.19000006
   12.71500015  146.59100342    0.47999999    2.19000006
   12.71833324  146.15800476    0.47999999    2.21000004
   12.72166634  152.40600586    0.47999999    2.21000004
   12.72472191  154.72500610    0.47999999    2.19000006
   12.72805500  149.09899902    0.47999999    2.19000006
   12.73138809  158.00399780    0.47999999    2.19000006
   12.73722267  158.00399780    0.47999999    2.19000006
   12.74138927  162.90199280    0.47999999    2.19000006
   12.74444485  146.53900146    0.47999999    2.19000006
   12.74583340  151.05599976    0.47999999    2.21000004
   12.74833393  158.92199707    0.47999999    2.21000004
   12.75166702  157.03300476    0.47999999    2.21000004
   12.75472260  156.18299866    0.47999999    2.19000006
   12.75805569  160.79899597    0.47999999    2.21000004
   12.76111126  146.07299805    0.46000001    2.21000004
   12.76444435  147.66700745    0.47999999    2.21000004
   12.76777744  152.51300049    0.47999999    2.21000004
   12.77083302  142.80000305    0.47999999    2.21000004
   12.77416611  143.73500061    0.47999999    2.21000004
   12.77999973  143.73500061    0.47999999    2.21000004
   12.78416729  161.77099609    0.47999999    2.23000002
   12.78722286  145.95500183    0.46000001    2.21000004
   12.79055595  144.82800293    0.46000001    2.23000002
   12.79388905  148.56599426    0.46000001    2.23000002
   12.79694462  145.94299316    0.46000001    2.23000002
   12.80027771  152.90499878    0.46000001    2.23000002
   12.80333328  156.36099243    0.47999999    2.23000002
   12.80666733  144.02999878    0.46000001    2.21000004
   12.81000042  139.66499329    0.47999999    2.23000002
   12.81250000  143.88000488    0.46000001    2.23000002
   12.81333351  139.72000122    0.46000001    2.23000002
   12.81666660  142.44400024    0.46000001    2.25000000
   12.82277775  142.44400024    0.47999999    2.23000002
   12.82694435  146.61999512    0.46000001    2.25000000
   12.83027744  147.28599548    0.47999999    2.25000000
   12.83333302  154.25100708    0.47999999    2.25000000
   12.83666611  156.65600586    0.47999999    2.23000002
   12.84000015  141.01800537    0.46000001    2.23000002
   12.84305477  154.08799744    0.47999999    2.25000000
   12.84583282  150.30900574    0.46000001    2.26999998
   12.84666634  151.08999634    0.46000001    2.25000000
   12.85000038  137.98800659    0.46000001    2.25000000
   12.85305595  153.67500305    0.47999999    2.25000000
   12.85638905  156.74200439    0.46000001    2.25000000
   12.85972214  146.85699463    0.47999999    2.25000000
   12.86555576  146.85699463    0.46000001    2.25000000
   12.86972237  141.88900757    0.46000001    2.26999998
   12.87305546  154.63499451    0.46000001    2.26999998
   12.87611103  154.89999390    0.46000001    2.26999998
   12.87916660  150.80599976    0.46000001    2.25000000
   12.87972260  154.21299744    0.46000001    2.25000000
   12.88305569  140.27699280    0.46000001    2.26999998
   12.88611126  142.35499573    0.46000001    2.25000000
   12.88944435  144.14700317    0.46000001    2.26999998
   12.89277744  138.81500244    0.46000001    2.26999998
   12.89583302  149.67799377    0.46000001    2.26999998
   12.89916611  150.64300537    0.46000001    2.26999998
   12.90222168  144.71000671    0.44000000    2.26999998
   12.90861034  144.71000671    0.46000001    2.26999998
   12.91249943  138.36000061    0.44000000    2.26999998
   12.91583252  151.66000366    0.44000000    2.26999998
   12.91888905  146.36599731    0.44000000    2.26999998
   12.92222214  143.99000549    0.46000001    2.26999998
   12.92555618  139.94400024    0.44000000    2.28999996
   12.92861176  138.00000000    0.44000000    2.28999996
   12.93194485  139.99899292    0.44000000    2.28999996
   12.93500042  136.26899719    0.44000000    2.28999996
   12.93833351  143.13600159    0.44000000    2.28999996
   12.94138908  134.24499512    0.44000000    2.28999996
   12.94472218  143.32099915    0.44000000    2.28999996
   12.94583321  148.40699768    0.44000000    2.26999998
   12.95138836  148.40699768    0.44000000    2.28999996
   12.95555496  159.04200745    0.46000001    2.28999996
   12.95861053  141.83900452    0.46000001    2.28999996
   12.96194458  138.09100342    0.44000000    2.28999996
   12.96500015  145.05000305    0.44000000    2.30999994
   12.96833324  162.35800171    0.46000001    2.30999994
   12.97166634  146.30599976    0.44000000    2.28999996
   12.97472191  151.04699707    0.44000000    2.30999994
   12.97805500  138.06399536    0.44000000    2.30999994
   12.97916603  135.79600525    0.46000001    2.28999996
   12.98166656  138.60800171    0.44000000    2.30999994
   12.98500061  143.22000122    0.46000001    2.30999994
   12.98805618  148.47999573    0.44000000    2.30999994
   12.99416733  148.47999573    0.44000000    2.30999994
   12.99833393  135.80799866    0.44000000    2.30999994
   13.00138855  145.15499878    0.44000000    2.30999994
   13.00472260  144.58799744    0.44000000    2.30999994
   13.00805569  146.92599487    0.44000000    2.30999994
   13.01111126  153.75900269    0.44000000    2.30999994
   13.01249981  159.41999817    0.44000000    2.30999994
   13.01472187  138.58700562    0.44000000    2.32999992
   13.01805496  144.30700684    0.44000000    2.32999992
   13.02111053  140.32600403    0.44000000    2.32999992
   13.02444458  144.11399841    0.44000000    2.32999992
   13.02750015  149.00900269    0.44000000    2.30999994
   13.03083324  141.69000244    0.44000000    2.32999992
   13.03722286  141.69000244    0.44000000    2.32999992
   13.04111195  146.76699829    0.44000000    2.32999992
   13.04444504  145.02499390    0.44000000    2.32999992
   13.04583359  137.92100525    0.44000000    2.32999992
   13.04833412  151.92500305    0.44000000    2.32999992
   13.05138874  144.44999695    0.44000000    2.32999992
   13.05472279  153.13499451    0.44000000    2.32999992
   13.05805588  149.61199951    0.44000000    2.32999992
   13.06111145  137.70899963    0.44000000    2.32999992
   13.06444454  144.20199585    0.44000000    2.32999992
   13.06750011  135.25599670    0.44000000    2.34999990
   13.07083321  142.13400269    0.44000000    2.32999992
   13.07388878  143.97000122    0.44000000    2.32999992
   13.07999992  143.97000122    0.44000000    2.32999992
   13.08388901  146.54899597    0.41999999    2.32999992
   13.08722210  127.38800049    0.41999999    2.32999992
   13.09027767  140.05799866    0.44000000    2.32999992
   13.09361076  149.16999817    0.44000000    2.32999992
   13.09694386  155.81500244    0.41999999    2.34999990
   13.10000038  143.59399414    0.41999999    2.34999990
   13.10333347  134.95799255    0.44000000    2.34999990
   13.10666752  151.86700439    0.41999999    2.32999992
   13.10972214  157.85499573    0.41999999    2.34999990
   13.11250019  150.21800232    0.41999999    2.34999990
   13.11333370  134.74499512    0.41999999    2.34999990
   13.11666679  131.91799927    0.41999999    2.34999990
   13.12277794  131.91799927    0.41999999    2.34999990
   13.12694454  141.52600098    0.41999999    2.34999990
   13.13027763  147.97399902    0.41999999    2.36999989
   13.13361073  130.87899780    0.41999999    2.34999990
   13.13666630  135.74800110    0.41999999    2.34999990
   13.14000034  133.30900574    0.41999999    2.36999989
   13.14305496  140.62199402    0.41999999    2.36999989
   13.14694405  144.63999939    0.41999999    2.36999989
   13.14833355  145.01699829    0.41999999    2.36999989
   13.15194416  133.73699951    0.41999999    2.36999989
   13.15527725  141.69500732    0.41999999    2.36999989
   13.15861034  138.92199707    0.41999999    2.36999989
   13.16194439  129.20199585    0.41999999    2.36999989
   13.16611099  129.20199585    0.41999999    2.36999989
   13.17027855  161.74000549    0.41999999    2.36999989
   13.17333412  142.44299316    0.41999999    2.36999989
   13.17666721  147.08000183    0.41999999    2.36999989
   13.17916679  139.40800476    0.41999999    2.36999989
   13.18027782  156.76400757    0.41999999    2.36999989
   13.18361092  127.75199890    0.41999999    2.36999989
   13.18694496  135.46899414    0.41999999    2.39000010
   13.19055557  134.79600525    0.41999999    2.39000010
   13.19416714  132.91700745    0.41999999    2.36999989
   13.19777775  139.71699524    0.41999999    2.36999989
   13.20111084  139.55799866    0.41999999    2.39000010
   13.22083282  129.39599609    0.41999999    2.39000010
   13.22499943  129.39599609    0.41999999    2.39000010
   13.22916603  141.76899719    0.41999999    2.39000010
   13.23222160  147.48599243    0.41999999    2.39000010
   13.23555565  134.15800476    0.41999999    2.40000010
   13.23861122  139.97300720    0.41999999    2.39000010
   13.24194431  166.31700134    0.41999999    2.39000010
   13.24499989  137.65800476    0.41999999    2.39000010
   13.24833393  135.91600037    0.40000001    2.39000010
   13.25166702  123.42700195    0.40000001    2.39000010
   13.25472260  153.19000244    0.40000001    2.39000010
   13.25583363  138.00900269    0.40000001    2.39000010
   13.25861073  145.94900513    0.41999999    2.39000010
   13.26166630  145.29100037    0.40000001    2.40000010
   13.26777744  145.29100037    0.41999999    2.39000010
   13.27194405  133.00199890    0.41999999    2.39000010
   13.27499962  134.68499756    0.41999999    2.39000010
   13.27833271  135.84399414    0.41999999    2.40000010
   13.28166676  131.03700256    0.41999999    2.40000010
   13.28472233  130.32400513    0.41999999    2.40000010
   13.28805637  125.52700043    0.41999999    2.40000010
   13.28916740  124.03299713    0.41999999    2.40000010
   13.29166698  123.70999908    0.41999999    2.39000010
   13.29472256  124.56700134    0.41999999    2.40000010
   13.29805565  109.57099915    0.41999999    2.40000010
   13.30111122  132.74099731    0.41999999    2.40000010
   13.30444431  136.92500305    0.41999999    2.40000010
   13.31055546  136.92500305    0.41999999    2.40000010
   13.31472206  125.94300079    0.41999999    2.40000010
   13.31805515  151.14100647    0.41999999    2.40000010
   13.32111073  134.65899658    0.41999999    2.40000010
   13.32277775  133.24099731    0.41999999    2.40000010
   13.32472229  128.74600220    0.41999999    2.40000010
   13.32805538  137.76899719    0.41999999    2.42000008
   13.33138847  129.39799500    0.41999999    2.42000008
   13.33444405  134.45700073    0.41999999    2.40000010
   13.33777714  137.24299622    0.41999999    2.40000010
   13.34111118  126.54399872    0.40000001    2.40000010
   13.34416676  125.69699860    0.41999999    2.42000008
   13.34749985  128.12699890    0.40000001    2.42000008
   13.35333347  128.12699890    0.40000001    2.42000008
   13.35750008  131.94299316    0.40000001    2.40000010
   13.36083412  128.12699890    0.41999999    2.42000008
   13.36416721  138.58900452    0.40000001    2.42000008
   13.36722279  139.61999512    0.40000001    2.44000006
   13.37055588  139.08500671    0.41999999    2.42000008
   13.37361145  144.90299988    0.40000001    2.42000008
   13.37694454  138.89700317    0.40000001    2.42000008
   13.38027763  138.27799988    0.41999999    2.42000008
   13.38333321  148.58000183    0.41999999    2.42000008
   13.38666630  146.23500061    0.41999999    2.42000008
   13.38944435  139.22399902    0.40000001    2.42000008
   13.39027786  144.77200317    0.40000001    2.42000008
   13.39638901  144.77200317    0.41999999    2.44000006
   13.40055561  141.06700134    0.40000001    2.44000006
   13.40361118  149.50000000    0.40000001    2.42000008
   13.40694427  151.20899963    0.40000001    2.42000008
   13.40999985  146.83599854    0.40000001    2.44000006
   13.41333294  140.60200500    0.40000001    2.42000008
   13.41666698  155.54200745    0.40000001    2.42000008
   13.41972256  152.94200134    0.40000001    2.44000006
   13.42277813  159.35499573    0.40000001    2.44000006
   13.42333412  157.15299988    0.40000001    2.44000006
   13.42666721  153.40600586    0.40000001    2.44000006
   13.43000031  161.55999756    0.40000001    2.42000008
   13.43305588  155.58099365    0.40000001    2.44000006
   13.43916702  155.58099365    0.40000001    2.44000006
   13.44333363  150.78900146    0.40000001    2.44000006
   13.44666672  136.71000671    0.40000001    2.44000006
   13.44972229  155.55900574    0.40000001    2.46000004
   13.45305538  161.97599792    0.40000001    2.44000006
   13.45611095  145.51300049    0.40000001    2.46000004
   13.45638847  154.66000366    0.40000001    2.46000004
   13.45972157  151.83200073    0.40000001    2.46000004
   13.46305561  152.85800171    0.40000001    2.46000004
   13.46611118  155.21000671    0.40000001    2.44000006
   13.46944427  148.36799622    0.40000001    2.46000004
   13.47277737  149.23300171    0.40000001    2.46000004
   13.47583294  149.29699707    0.40000001    2.46000004
   13.48194408  149.29699707    0.40000001    2.44000006
   13.48611164  148.94000244    0.40000001    2.44000006
   13.48944473  152.39500427    0.40000001    2.44000006
   13.48972225  152.94799805    0.40000001    2.44000006
   13.49305534  163.74800110    0.40000001    2.44000006
   13.49638939  153.29400635    0.40000001    2.46000004
   13.49944496  158.83200073    0.40000001    2.46000004
   13.50277805  157.63499451    0.40000001    2.46000004
   13.50611115  161.47000122    0.40000001    2.46000004
   13.50916672  156.34300232    0.40000001    2.46000004
   13.51249981  152.49200439    0.40000001    2.46000004
   13.51555538  154.15400696    0.40000001    2.46000004
   13.51888847  159.81500244    0.40000001    2.46000004
   13.52499962  159.81500244    0.40000001    2.46000004
   13.52916622  160.17700195    0.40000001    2.46000004
   13.53222179  161.69599915    0.40000001    2.46000004
   13.53555584  149.06100464    0.40000001    2.46000004
   13.53861141  169.19299316    0.40000001    2.46000004
   13.54194450  154.65600586    0.40000001    2.46000004
   13.54527855  175.77299500    0.40000001    2.46000004
   13.54833412  162.24000549    0.40000001    2.46000004
   13.55166721  166.75500488    0.40000001    2.46000004
   13.55472279  169.01699829    0.40000001    2.46000004
   13.55611134  173.27499390    0.40000001    2.46000004
   13.55833340  160.48199463    0.40000001    2.46000004
   13.56166649  172.16900635    0.40000001    2.46000004
   13.56777763  172.16900635    0.38000000    2.46000004
   13.57194424  177.65199280    0.40000001    2.46000004
   13.57499981  171.28199768    0.40000001    2.46000004
   13.57833290  182.72799683    0.40000001    2.46000004
   13.58138847  189.45300293    0.40000001    2.46000004
   13.58472157  172.53900146    0.40000001    2.48000002
   13.58805561  182.77200317    0.40000001    2.48000002
   13.58944416  183.56100464    0.40000001    2.48000002
   13.59138870  178.11999512    0.40000001    2.46000004
   13.59472179  177.26300049    0.40000001    2.46000004
   13.59805489  197.71099854    0.40000001    2.46000004
   13.60111141  190.82000732    0.40000001    2.48000002
   13.60444450  188.52600098    0.40000001    2.48000002
   13.61055565  188.52600098    0.40000001    2.48000002
   13.61472225  193.35499573    0.40000001    2.48000002
   13.61777782  197.46899414    0.40000001    2.48000002
   13.62111092  186.11099243    0.40000001    2.48000002
   13.62305546  195.26400757    0.40000001    2.48000002
   13.62472248  190.84100342    0.40000001    2.48000002
   13.62805557  186.01499939    0.40000001    2.48000002
   13.63138866  191.74299622    0.40000001    2.48000002
   13.63444424  183.39799500    0.40000001    2.46000004
   13.63777733  190.37699890    0.40000001    2.48000002
   13.64111137  189.44999695    0.40000001    2.46000004
   13.64416695  186.39700317    0.40000001    2.48000002
   13.64750004  196.50300598    0.40000001    2.48000002
   13.65333271  196.50300598    0.41999999    2.48000002
   13.65749931  194.53700256    0.41999999    2.48000002
   13.66083336  191.20700073    0.41999999    2.48000002
   13.66388893  185.03399658    0.41999999    2.48000002
   13.66722298  195.00599670    0.41999999    2.48000002
   13.67055607  189.23300171    0.44000000    2.48000002
   13.67361164  187.62899780    0.41999999    2.48000002
   13.67694473  170.90600586    0.41999999    2.48000002
   13.68000031  187.94000244    0.41999999    2.48000002
   13.68333340  179.31700134    0.41999999    2.48000002
   13.68666649  180.95300293    0.41999999    2.48000002
   13.68972206  171.52200317    0.41999999    2.48000002
   13.69000053  185.58000183    0.41999999    2.48000002
   13.69638920  185.58000183    0.41999999    2.48000002
   13.70027733  193.02600098    0.41999999    2.50000000
   13.70361137  192.62300110    0.41999999    2.50000000
   13.70694447  180.30299377    0.41999999    2.48000002
   13.71000004  183.68600464    0.41999999    2.50000000
   13.71333313  179.01800537    0.41999999    2.50000000
   13.71666622  179.98399353    0.41999999    2.48000002
   13.71972179  179.77299500    0.40000001    2.48000002
   13.72305489  172.85899353    0.40000001    2.48000002
   13.72333336  178.35299683    0.40000001    2.50000000
   13.72666645  180.30999756    0.40000001    2.50000000
   13.72999954  181.63299561    0.40000001    2.50000000
   13.73305511  179.11399841    0.40000001    2.50000000
   13.73916721  179.11399841    0.40000001    2.50000000
   13.74333382  167.96600342    0.41999999    2.50000000
   13.85444450   -1.00000000   -1.00000000   -1.00000000
   13.94944477   -1.00000000   -1.00000000   -1.00000000
   14.04972267   -1.00000000   -1.00000000   -1.00000000
   14.14416695   -1.00000000   -1.00000000   -1.00000000
   14.24194431   -1.00000000   -1.00000000   -1.00000000
   14.34111118   -1.00000000   -1.00000000   -1.00000000
   14.43527794   -1.00000000   -1.00000000   -1.00000000
   14.53166676   -1.00000000   -1.00000000   -1.00000000
   14.63111115   -1.00000000   -1.00000000   -1.00000000
   14.66416645   91.31220245    0.36000001    2.59999990
   14.66750050  138.82000732    0.38000000    2.61999989
   14.67166710  132.32499695    0.38000000    2.61999989
   14.67472267  139.44999695    0.36000001    2.61999989
   14.67805576  141.05400085    0.36000001    2.61999989
   14.68444443  141.05400085    0.36000001    2.59999990
   14.68861103  147.49899292    0.36000001    2.61999989
   14.69194412  141.28999329    0.36000001    2.61999989
   14.69499969  134.39700317    0.36000001    2.61999989
   14.69750023  132.77499390    0.34000000    2.61999989
   14.69888878  128.88999939    0.34000000    2.61999989
   14.70194435  135.71499634    0.34000000    2.61999989
   14.70527744  138.86199951    0.34000000    2.61999989
   14.70861053  140.38800049    0.34000000    2.61999989
   14.71166611  138.66499329    0.34000000    2.61999989
   14.71500015  144.56100464    0.34000000    2.61999989
   14.71833324  146.18200684    0.34000000    2.61999989
   14.72138882  143.13200378    0.34000000    2.61999989
   14.72722149  143.13200378    0.31999999    2.61999989
   14.73138809  133.80700684    0.31999999    2.61999989
   14.73472214  135.67599487    0.31999999    2.61999989
   14.73805618  132.90600586    0.31999999    2.61999989
   14.74138927  138.17100525    0.31999999    2.61999989
   14.74444485  139.76899719    0.31999999    2.61999989
   14.74777794  147.50399780    0.31999999    2.61999989
   14.75111103  130.50900269    0.31999999    2.61999989
   14.75416660  145.15699768    0.31999999    2.61999989
   14.75749969  146.13800049    0.31999999    2.61999989
   14.76083374  143.93099976    0.31999999    2.61999989
   14.76388931  145.41200256    0.31999999    2.61999989
   14.76444435  143.49200439    0.31999999    2.61999989
   14.77027798  143.49200439    0.31999999    2.61999989
   14.77416611  144.77299500    0.31999999    2.64000010
   14.77750015  139.83700562    0.31999999    2.61999989
   14.78083324  133.28599548    0.31999999    2.61999989
   14.78388977  143.35400391    0.31999999    2.61999989
   14.78722286  129.77400208    0.31999999    2.61999989
   14.79055595  141.70799255    0.31999999    2.61999989
   14.79388905  144.99800110    0.31999999    2.61999989
   14.79722309  142.38900757    0.31999999    2.64000010
   14.79777813  137.23300171    0.31999999    2.64000010
   14.80083370  140.47500610    0.31999999    2.61999989
   14.80416679  145.30700684    0.31999999    2.61999989
   14.80749989  131.93800354    0.31999999    2.61999989
   14.81361103  131.93800354    0.31999999    2.61999989
   14.81777763  140.46499634    0.31999999    2.64000010
   14.82111073  146.36099243    0.31999999    2.64000010
   14.82444477  130.77499390    0.31999999    2.64000010
   14.82833290  139.71200562    0.31999999    2.61999989
   14.83138847  139.61900330    0.31999999    2.64000010
   14.83222198  137.08900452    0.31999999    2.64000010
   14.83527756  142.04899597    0.31999999    2.61999989
   14.83888817  142.69700623    0.31999999    2.61999989
   14.84222221  125.05400085    0.31999999    2.64000010
   14.84527779  136.16400146    0.31999999    2.61999989
   14.84861088  123.63500214    0.31999999    2.61999989
   14.85194492  126.84700012    0.31999999    2.64000010
   14.85638905  126.84700012    0.30000001    2.64000010
   14.86083412  150.44400024    0.31999999    2.64000010
   14.86416721  135.14399719    0.31999999    2.61999989
   14.86472225  139.02799988    0.31999999    2.64000010
   14.86777782  132.74499512    0.31999999    2.61999989
   14.87111092  129.92599487    0.31999999    2.61999989
   14.87444496  139.30400085    0.31999999    2.64000010
   14.87805557  132.51899719    0.31999999    2.61999989
   14.88138866  128.56900024    0.31999999    2.61999989
   14.88444424  138.17799377    0.31999999    2.61999989
   14.88777733  132.55099487    0.31999999    2.61999989
   14.89111137  143.82000732    0.31999999    2.64000010
   14.89416695  137.55200195    0.31999999    2.64000010
   14.89888859  137.55200195    0.31999999    2.64000010
   14.90305519  129.33799744    0.31999999    2.64000010
   14.90638828  138.80000305    0.31999999    2.64000010
   14.91027737  130.40100098    0.31999999    2.64000010
   14.91416645  114.89199829    0.31999999    2.61999989
   14.91722298  138.75300598    0.30000001    2.64000010
   14.92083359  135.82000732    0.30000001    2.64000010
   14.92416668  137.25300598    0.30000001    2.64000010
   14.92750072  152.75100708    0.30000001    2.64000010
   14.93083382  135.67999268    0.31999999    2.64000010
   14.93138885  139.21600342    0.31999999    2.64000010
   14.93527794  152.33200073    0.31999999    2.64000010
   14.94166660  152.33200073    0.30000001    2.64000010
   14.94583321  139.21299744    0.30000001    2.64000010
   14.94999981  146.35299683    0.31999999    2.61999989
   14.95388889  143.29400635    0.31999999    2.64000010
   14.95722198  146.27200317    0.30000001    2.61999989
   14.96083355  142.86900330    0.31999999    2.64000010
   14.96416664  141.46699524    0.30000001    2.64000010
   14.96555519  141.55000305    0.30000001    2.64000010
   14.96777725  135.14799500    0.31999999    2.64000010
   14.97111034  141.21200562    0.30000001    2.64000010
   14.97416592  145.64599609    0.30000001    2.64000010
   14.97749996  133.19000244    0.30000001    2.61999989
   14.98083305  135.18400574    0.30000001    2.61999989
   14.98500061  135.18400574    0.30000001    2.64000010
   14.98916721  131.02299500    0.30000001    2.61999989
   14.99250031  140.48599243    0.30000001    2.61999989
   14.99583340  132.69500732    0.30000001    2.64000010
   14.99888897  131.80200195    0.30000001    2.64000010
   14.99944496  133.52499390    0.30000001    2.64000010
   15.00277805  139.03399658    0.30000001    2.64000010
   15.00611115  137.55499268    0.30000001    2.64000010
   15.00916672  141.32400513    0.31999999    2.64000010
   15.01249981  131.58299255    0.31999999    2.64000010
   15.01583290  151.42199707    0.31999999    2.61999989
   15.01916599  150.68600464    0.31999999    2.64000010
   15.02250004  141.48800659    0.31999999    2.64000010
   15.02777767  141.48800659    0.34000000    2.64000010
   15.07638836   -1.00000000   -1.00000000   -1.00000000
   15.09722233  143.12100220    0.38000000    2.64000010
   15.10222244  144.07099915    0.38000000    2.64000010
   15.10583401  151.32800293    0.38000000    2.64000010
   15.10888958  146.87199402    0.38000000    2.64000010
   15.11222267  149.22000122    0.38000000    2.64000010
   15.11527824  144.42199707    0.38000000    2.64000010
   15.11861134  150.05099487    0.38000000    2.61999989
   15.12194443  144.48599243    0.40000001    2.64000010
   15.12500000  142.25000000    0.40000001    2.64000010
   15.12833309  137.71200562    0.40000001    2.64000010
   15.13055611  152.75000000    0.40000001    2.64000010
   15.13194466  146.66999817    0.40000001    2.64000010
   15.13500023  135.24400330    0.41999999    2.64000010
   15.13833332  145.27099609    0.40000001    2.64000010
   15.14166641  135.40199280    0.41999999    2.64000010
   15.14472198  129.60400391    0.41999999    2.64000010
   15.14805508  147.32600403    0.41999999    2.64000010
   15.15111065  142.49200439    0.40000001    2.64000010
   15.15444374  141.28799438    0.40000001    2.64000010
   15.15777779  132.48399353    0.41999999    2.64000010
   15.16083336  143.23100281    0.41999999    2.64000010
   15.16388893  142.04899597    0.41999999    2.64000010
   15.16472149  146.89300537    0.41999999    2.64000010
   15.16777802  145.60000610    0.44000000    2.64000010
   15.17111111  141.37800598    0.41999999    2.64000010
   15.17444515  148.00900269    0.44000000    2.64000010
   15.17750072  145.47700500    0.46000001    2.64000010
   15.18083382  148.32899475    0.46000001    2.64000010
   15.18388939  135.69900513    0.44000000    2.64000010
   15.18722248  143.64799500    0.44000000    2.64000010
   15.19055557  142.67500305    0.44000000    2.64000010
   15.19361115  142.70899963    0.44000000    2.64000010
   15.19694424  150.52499390    0.41999999    2.64000010
   15.19750023  147.49800110    0.44000000    2.64000010
   15.20055580  145.06900024    0.44000000    2.64000010
   15.20388889  152.68899536    0.41999999    2.64000010
   15.20722198  145.82400513    0.41999999    2.64000010
   15.21027756  148.33500671    0.41999999    2.64000010
   15.21361065  147.31199646    0.41999999    2.64000010
   15.21694374  145.09100342    0.41999999    2.64000010
   15.21999931  150.78199768    0.40000001    2.64000010
   15.22333336  143.34300232    0.40000001    2.64000010
   15.22638798  140.10200500    0.40000001    2.64000010
   15.22972202  140.15699768    0.40000001    2.64000010
   15.23083305  146.73199463    0.40000001    2.64000010
   15.23333359  150.29499817    0.40000001    2.64000010
   15.23666668  149.89999390    0.41999999    2.64000010
   15.24000072  148.94400024    0.40000001    2.64000010
   15.24305534  150.21899414    0.40000001    2.64000010
   15.24638939  157.38600159    0.41999999    2.66000009
   15.24972248  146.76100159    0.41999999    2.64000010
   15.25277805  152.78799438    0.44000000    2.64000010
   15.25611115  154.41700745    0.44000000    2.64000010
   15.25944424  140.04499817    0.41999999    2.64000010
   15.26249981  150.53900146    0.44000000    2.61999989
   15.26416683  146.81300354    0.44000000    2.64000010
   15.26638889  148.65299988    0.44000000    2.64000010
   15.26944447  148.27400208    0.44000000    2.64000010
   15.27277756  139.99200439    0.44000000    2.64000010
   15.27583313  150.31900024    0.41999999    2.64000010
   15.27916622  147.56900024    0.41999999    2.64000010
   15.28249931  145.18099976    0.44000000    2.64000010
   15.28555584  158.78900146    0.41999999    2.64000010
   15.28888893  154.77000427    0.41999999    2.64000010
   15.29222298  146.33200073    0.41999999    2.64000010
   15.29527855  153.69099426    0.41999999    2.64000010
   15.29750061  146.26600647    0.41999999    2.61999989
   15.29916668  150.32499695    0.41999999    2.64000010
   15.30222225  143.45899963    0.41999999    2.64000010
   15.30555534  153.58900452    0.41999999    2.64000010
   15.30861092  142.32499695    0.41999999    2.66000009
   15.31194496  151.02900696    0.41999999    2.64000010
   15.31527805  146.77600098    0.41999999    2.64000010
   15.31833363  152.82000732    0.41999999    2.66000009
   15.32166672  145.01300049    0.40000001    2.64000010
   15.32499981  140.86599731    0.41999999    2.66000009
   15.32805538  146.74600220    0.40000001    2.64000010
   15.33083344  141.50900269    0.40000001    2.66000009
   15.33166695  143.88299561    0.40000001    2.66000009
   15.33500004  146.38600159    0.40000001    2.66000009
   15.33833313  153.33999634    0.40000001    2.64000010
   15.34138870  146.00399780    0.40000001    2.64000010
   15.34472179  144.40199280    0.40000001    2.64000010
   15.34805489  138.45100403    0.40000001    2.64000010
   15.35111141  145.32600403    0.40000001    2.64000010
   15.35444450  138.46400452    0.40000001    2.64000010
   15.35777855  149.19299316    0.40000001    2.64000010
   15.36083412  143.62500000    0.40000001    2.66000009
   15.36416721  138.88999939    0.40000001    2.64000010
   15.36444473  141.02999878    0.40000001    2.64000010
   15.36777782  147.34300232    0.38000000    2.64000010
   15.37111092  130.44700623    0.38000000    2.66000009
   15.37416649  138.30599976    0.38000000    2.66000009
   15.37750053  146.21800232    0.38000000    2.66000009
   15.38083363  132.93699646    0.40000001    2.64000010
   15.38388920  135.84199524    0.38000000    2.66000009
   15.38722229  131.54800415    0.40000001    2.66000009
   15.39055538  139.95300293    0.40000001    2.66000009
   15.39361095  139.84300232    0.40000001    2.64000010
   15.39694405  133.98899841    0.40000001    2.64000010
   15.39750004  134.88299561    0.40000001    2.64000010
   15.40055561  140.28799438    0.40000001    2.66000009
   15.40361118  139.30000305    0.41999999    2.66000009
   15.40694427  146.83000183    0.41999999    2.66000009
   15.40999985  142.32800293    0.40000001    2.66000009
   15.41333294  136.53100586    0.41999999    2.66000009
   15.41666698  144.26800537    0.40000001    2.66000009
   15.41972256  142.43699646    0.40000001    2.64000010
   15.42305565  144.25599670    0.40000001    2.66000009
   15.42638874  143.58099365    0.40000001    2.66000009
   15.42944431  138.07600403    0.40000001    2.66000009
   15.43083382  139.44099426    0.40000001    2.66000009
   15.43333340  134.57200623    0.40000001    2.66000009
   15.43638897  136.07200623    0.40000001    2.66000009
   15.43972206  141.99200439    0.40000001    2.66000009
   15.44277763  131.39799500    0.40000001    2.66000009
   15.44611073  146.77699280    0.40000001    2.66000009
   15.44944477  130.37300110    0.40000001    2.66000009
   15.45249939  135.53900146    0.38000000    2.64000010
   15.45583344  136.78700256    0.38000000    2.66000009
   15.45916653  139.76899719    0.38000000    2.66000009
   15.46222210  150.94500732    0.38000000    2.66000009
   15.46416664  132.88099670    0.38000000    2.66000009
   15.46611118  145.11099243    0.38000000    2.66000009
   15.46916580  142.38299561    0.36000001    2.66000009
   15.47249985  139.32099915    0.36000001    2.66000009
   15.47583294  150.33299255    0.36000001    2.66000009
   15.47888851  142.74600220    0.38000000    2.66000009
   15.48222160  131.02600098    0.36000001    2.66000009
   15.48527813  108.36199951    0.38000000    2.66000009
   15.48861122  139.73599243    0.38000000    2.66000009
   15.49194431  141.35400391    0.38000000    2.66000009
   15.49499989  135.63900757    0.38000000    2.66000009
   15.49750042  144.91099548    0.36000001    2.66000009
   15.49888897  133.30599976    0.36000001    2.66000009
   15.50194454  135.02799988    0.36000001    2.66000009
   15.50527763  142.16700745    0.36000001    2.66000009
   15.50861073  126.70300293    0.36000001    2.66000009
   15.51166630  147.74800110    0.34000000    2.66000009
   15.51500034  137.28399658    0.36000001    2.64000010
   15.51805496  142.72799683    0.36000001    2.66000009
   15.52138901  142.65299988    0.36000001    2.66000009
   15.52472210  148.32600403    0.34000000    2.66000009
   15.52777767  136.46499634    0.36000001    2.66000009
   15.53083324  135.41499329    0.36000001    2.66000009
   15.53166676  132.92399597    0.36000001    2.66000009
   15.53472233  141.32499695    0.38000000    2.66000009
   15.53805637  140.47999573    0.40000001    2.66000009
   15.54111195  140.67599487    0.38000000    2.66000009
   15.54444504  138.53100586    0.38000000    2.64000010
   15.54777813  139.36000061    0.38000000    2.64000010
   15.55083370  140.89700317    0.40000001    2.66000009
   15.55416679  124.30699921    0.40000001    2.66000009
   15.55749989  138.05400085    0.40000001    2.66000009
   15.56055546  137.62699890    0.40000001    2.66000009
   15.56388950  140.17799377    0.40000001    2.66000009
   15.56444454  140.74000549    0.38000000    2.64000010
   15.56750011  131.88200378    0.38000000    2.66000009
   15.57083321  131.20899963    0.40000001    2.67000008
   15.57416630  144.32899475    0.38000000    2.66000009
   15.57722187  125.01799774    0.38000000    2.67000008
   15.58055592  131.75999451    0.40000001    2.66000009
   15.58388901  135.18899536    0.38000000    2.66000009
   15.58694458  131.56500244    0.36000001    2.66000009
   15.59027767  125.79799652    0.38000000    2.66000009
   15.59333324  136.99499512    0.36000001    2.66000009
   15.59666634  136.06300354    0.38000000    2.66000009
   15.59777737  134.69700623    0.38000000    2.66000009
   15.60027790  133.42100525    0.38000000    2.66000009
   15.60361195  136.80999756    0.38000000    2.66000009
   15.60694504  136.92599487    0.36000001    2.66000009
   15.61000061  143.20599365    0.36000001    2.66000009
   15.61333370  127.66300201    0.36000001    2.66000009
   15.61666679  134.35699463    0.34000000    2.66000009
   15.61972237  139.19599915    0.34000000    2.66000009
   15.62305546  142.15299988    0.36000001    2.66000009
   15.62611103  141.51699829    0.36000001    2.66000009
   15.62944412  138.06300354    0.34000000    2.67000008
   15.63111115  128.74600220    0.34000000    2.67000008
   15.63305569  130.87100220    0.36000001    2.66000009
   15.63638878  124.89700317    0.36000001    2.64000010
   15.63972187  130.32299805    0.36000001    2.64000010
   15.64277744  127.59700012    0.36000001    2.66000009
   15.64611053  133.66600037    0.38000000    2.64000010
   15.64944458  136.19400024    0.38000000    2.66000009
   15.65249920  133.12500000    0.40000001    2.66000009
   15.65583324  136.11199951    0.38000000    2.66000009
   15.65888882  147.13200378    0.38000000    2.66000009
   15.66222191  139.66400146    0.40000001    2.66000009
   15.66444397  137.00100708    0.38000000    2.66000009
   15.66583252  135.50500488    0.38000000    2.66000009
   15.66916656  142.85699463    0.38000000    2.66000009
   15.67250061  127.81900024    0.38000000    2.66000009
   15.67555618  139.11999512    0.40000001    2.67000008
   15.67888927  144.99400330    0.38000000    2.66000009
   15.68222237  126.36299896    0.38000000    2.67000008
   15.68527794  137.10200500    0.40000001    2.66000009
   15.68861103  140.40800476    0.41999999    2.66000009
   15.69166660  145.11599731    0.40000001    2.66000009
   15.69499969  134.82899475    0.40000001    2.66000009
   15.69777775  139.92399597    0.40000001    2.66000009
   15.69861126  142.80599976    0.40000001    2.66000009
   15.70194435  134.69599915    0.40000001    2.66000009
   15.70527744  150.22999573    0.40000001    2.66000009
   15.70833302  146.37500000    0.41999999    2.66000009
   15.71166611  140.33399963    0.40000001    2.66000009
   15.71500015  136.30099487    0.40000001    2.64000010
   15.71805477  136.67199707    0.40000001    2.66000009
   15.72138882  143.79299927    0.40000001    2.66000009
   15.72444439  135.52499390    0.40000001    2.66000009
   15.72777748  145.52600098    0.40000001    2.66000009
   15.73111057  137.97200012    0.40000001    2.66000009
   15.73138809  132.98100281    0.40000001    2.66000009
   15.73472214  127.25399780    0.40000001    2.66000009
   15.73805618  134.80599976    0.38000000    2.66000009
   15.74111176  145.60000610    0.40000001    2.66000009
   15.74444485  131.00100708    0.40000001    2.66000009
   15.74777794  139.98699951    0.38000000    2.66000009
   15.75083351  151.31399536    0.38000000    2.66000009
   15.75416660  143.61700439    0.38000000    2.66000009
   15.75722218  132.40899658    0.38000000    2.66000009
   15.76055527  139.68800354    0.38000000    2.66000009
   15.76388931  142.50599670    0.38000000    2.66000009
   15.76444435  139.34199524    0.38000000    2.66000009
   15.76722240  134.47900391    0.40000001    2.66000009
   15.77055550  134.08599854    0.38000000    2.66000009
   15.77388859  136.82000732    0.40000001    2.66000009
   15.77694416  138.07699585    0.40000001    2.66000009
   15.78027725  139.95100403    0.41999999    2.66000009
   15.78361130  142.06100464    0.41999999    2.67000008
   15.78666687  142.47700500    0.41999999    2.66000009
   15.79000092  134.59500122    0.41999999    2.66000009
   15.79305553  135.29400635    0.41999999    2.66000009
   15.79638958  131.05099487    0.44000000    2.66000009
   15.79777813  136.63499451    0.44000000    2.67000008
   15.80000019  135.80900574    0.44000000    2.66000009
   15.80333328  128.19799805    0.44000000    2.66000009
   15.80666733  133.62899780    0.44000000    2.66000009
   15.80972195  145.70300293    0.44000000    2.66000009
   15.81305599  132.72000122    0.44000000    2.66000009
   15.81638908  150.26400757    0.44000000    2.66000009
   15.81944466  132.03599548    0.44000000    2.66000009
   15.82277775  138.75599670    0.44000000    2.66000009
   15.82583332  135.42500305    0.46000001    2.66000009
   15.82916641  142.00999451    0.46000001    2.66000009
   15.83111095  122.68000031    0.46000001    2.66000009
   15.83277798  136.30499268    0.46000001    2.66000009
   15.83611107  143.82699585    0.46000001    2.66000009
   15.83944416  145.71699524    0.46000001    2.66000009
   15.84249973  148.17199707    0.46000001    2.66000009
   15.84583282  139.08099365    0.46000001    2.66000009
   15.84916592  151.27799988    0.44000000    2.66000009
   15.85222244  138.90800476    0.46000001    2.66000009
   15.85555553  135.56700134    0.44000000    2.67000008
   15.85861111  140.26600647    0.44000000    2.66000009
   15.86194515  137.53399658    0.44000000    2.66000009
   15.86444473  136.40800476    0.44000000    2.67000008
   15.86555576  131.13600159    0.44000000    2.66000009
   15.86888885  129.63699341    0.41999999    2.66000009
   15.87222195  135.53300476    0.41999999    2.66000009
   15.87527752  138.69599915    0.41999999    2.66000009
   15.87861156  133.29600525    0.40000001    2.66000009
   15.88194466  142.85400391    0.40000001    2.67000008
   15.88500023  155.70599365    0.40000001    2.67000008
   15.88833332  136.68800354    0.40000001    2.66000009
   15.89138889  140.07000732    0.40000001    2.66000009
   15.89472198  142.48300171    0.40000001    2.67000008
   15.89777756  149.69599915    0.38000000    2.67000008
   15.89833355  144.90100098    0.40000001    2.64000010
   15.90166664  150.20700073    0.38000000    2.66000009
   15.90499973  129.92599487    0.38000000    2.67000008
   15.90805531  142.40199280    0.36000001    2.66000009
   15.91138840  135.98699951    0.36000001    2.66000009
   15.91472149  143.39399719    0.38000000    2.67000008
   15.91777802  139.68200684    0.38000000    2.67000008
   15.92111111  138.53199768    0.36000001    2.67000008
   15.92416668  132.64399719    0.36000001    2.67000008
   15.92750072  143.57299805    0.36000001    2.66000009
   15.93083382  137.48599243    0.36000001    2.67000008
   15.93138885  131.82200623    0.36000001    2.67000008
   15.93444443  130.08799744    0.36000001    2.67000008
   15.93777752  146.70500183    0.36000001    2.67000008
   15.94111156  142.23399353    0.36000001    2.67000008
   15.94416714  150.49800110    0.38000000    2.66000009
   15.94750023  144.80900574    0.36000001    2.67000008
   15.95055580  140.72300720    0.36000001    2.66000009
   15.95388889  144.15800476    0.36000001    2.67000008
   15.95722198  131.07899475    0.36000001    2.66000009
   15.96027756  141.78500366    0.36000001    2.67000008
   15.96361065  143.95300293    0.36000001    2.66000009
   15.96472168  149.41299438    0.36000001    2.67000008
   15.96722221  145.33299255    0.36000001    2.67000008
   15.97055531  153.37100220    0.36000001    2.67000008
   15.97388840  143.73599243    0.36000001    2.66000009
   15.97694397  144.79800415    0.36000001    2.66000009
   15.98027706  143.06300354    0.36000001    2.66000009
   15.98333359  141.42700195    0.38000000    2.67000008
   15.98666668  136.55900574    0.38000000    2.67000008
   15.99000072  136.96400452    0.38000000    2.67000008
   15.99305534  143.25700378    0.38000000    2.66000009
   15.99638939  142.66099548    0.38000000    2.66000009
   15.99805546  148.53500366    0.38000000    2.66000009
   16.00000000  150.33599854    0.36000001    2.66000009
   16.00333405  140.68499756    0.36000001    2.67000008
   16.00638962  134.57000732    0.38000000    2.66000009
   16.00972176  145.09100342    0.36000001    2.67000008
   16.01305580  145.15800476    0.38000000    2.66000009
   16.01611137  141.17100525    0.38000000    2.67000008
   16.01944351  139.96800232    0.38000000    2.66000009
   16.02277756  146.71899414    0.38000000    2.67000008
   16.02583313  144.38000488    0.38000000    2.67000008
   16.02916718  157.68499756    0.38000000    2.66000009
   16.03138924  143.58099365    0.38000000    2.67000008
   16.03277779  149.31199646    0.38000000    2.67000008
   16.03610992  142.83200073    0.38000000    2.66000009
   16.03916550  133.75900269    0.38000000    2.66000009
   16.04249954  138.12199402    0.40000001    2.66000009
   16.04583359  136.26499939    0.40000001    2.66000009
   16.04888916  139.55400085    0.40000001    2.67000008
   16.05222130  135.46499634    0.40000001    2.67000008
   16.05555534  140.27499390    0.40000001    2.66000009
   16.05861092  151.33000183    0.40000001    2.67000008
   16.06194305  141.84500122    0.40000001    2.67000008
   16.06472206  131.78999329    0.40000001    2.67000008
   16.06555557  139.16700745    0.40000001    2.67000008
   16.06888962  133.83799744    0.40000001    2.66000009
   16.07194519  140.49899292    0.40000001    2.67000008
   16.07527924  139.09599304    0.40000001    2.67000008
   16.07861137  143.65400696    0.41999999    2.66000009
   16.08166695  138.97599792    0.40000001    2.67000008
   16.08500099  129.51100159    0.40000001    2.66000009
   16.08805656  137.12600708    0.38000000    2.67000008
   16.09138870  127.74199677    0.38000000    2.67000008
   16.09472275  146.77900696    0.38000000    2.66000009
   16.11388969  134.57200623    0.36000001    2.67000008
   16.11472321  123.45999908    0.36000001    2.67000008
   16.11777878  138.92799377    0.36000001    2.67000008
   16.12111092  134.43600464    0.36000001    2.67000008
   16.12444496  146.95899963    0.36000001    2.67000008
   16.12750053  140.65800476    0.34000000    2.67000008
   16.13083267  147.53700256    0.34000000    2.67000008
   16.13388824  137.63299561    0.36000001    2.69000006
   16.13722229  149.60699463    0.36000001    2.67000008
   16.14055634  145.02099609    0.36000001    2.67000008
   16.14361191  141.33799744    0.36000001    2.67000008
   16.14694405  133.71200562    0.38000000    2.67000008
   16.14749908  138.43899536    0.38000000    2.67000008
   16.15055466  135.74099731    0.38000000    2.66000009
   16.15388870  144.51400757    0.38000000    2.67000008
   16.15722275  131.24200439    0.38000000    2.67000008
   16.16027832  134.03199768    0.38000000    2.67000008
   16.16361046  136.82899475    0.36000001    2.67000008
   16.16694450  136.55799866    0.38000000    2.67000008
   16.17000008  136.49099731    0.36000001    2.67000008
   16.17333221  137.40299988    0.36000001    2.66000009
   16.17666626  130.21000671    0.36000001    2.67000008
   16.17972183  137.54400635    0.36000001    2.67000008
   16.18083191  141.14399719    0.38000000    2.67000008
   16.18361092  127.83499908    0.36000001    2.67000008
   16.18666649  131.64599609    0.38000000    2.67000008
   16.18999863  126.61000061    0.36000001    2.67000008
   16.19333267  130.67700195    0.36000001    2.67000008
   16.19638824  135.11000061    0.38000000    2.67000008
   16.19972038  129.99000549    0.36000001    2.67000008
   16.20277786  132.53700256    0.36000001    2.67000008
   16.20611191  129.21499634    0.36000001    2.67000008
   16.20944595  135.10099792    0.38000000    2.66000009
   16.21250153  125.64700317    0.36000001    2.66000009
   16.21416664  125.14199829    0.38000000    2.67000008
   16.21638870  132.75999451    0.38000000    2.67000008
   16.21944427  127.55200195    0.38000000    2.67000008
   16.22277832  121.71099854    0.38000000    2.67000008
   16.22611237  123.39800262    0.36000001    2.67000008
   16.22916794  126.33399963    0.36000001    2.67000008
   16.23250008  135.76199341    0.36000001    2.67000008
   16.23583412  119.43099976    0.38000000    2.67000008
   16.23888969  121.41899872    0.36000001    2.66000009
   16.24222183  128.83700562    0.38000000    2.67000008
   16.24527740  121.76899719    0.38000000    2.67000008
   16.24749947  123.87200165    0.38000000    2.67000008
   16.24916649  135.07600403    0.38000000    2.67000008
   16.25222206  130.16000366    0.40000001    2.66000009
   16.25555611  124.27799988    0.40000001    2.67000008
   16.25888824  124.47399902    0.38000000    2.67000008
   16.26194382  139.95500183    0.36000001    2.69000006
   16.26527786  140.35899353    0.38000000    2.67000008
   16.26861000  121.56199646    0.36000001    2.66000009
   16.27166557  128.06500244    0.38000000    2.67000008
   16.27499962  134.35499573    0.38000000    2.66000009
   16.27833366  141.49000549    0.38000000    2.67000008
   16.28083229  124.68399811    0.38000000    2.67000008
   16.28194427  123.01000214    0.38000000    2.67000008
   16.28499985  129.75300598    0.38000000    2.66000009
   16.28833199  121.74299622    0.38000000    2.67000008
   16.29166603  123.83000183    0.38000000    2.67000008
   16.29472160  122.29699707    0.38000000    2.67000008
   16.29805565  121.69799805    0.38000000    2.67000008
   16.30138779  124.13600159    0.38000000    2.67000008
   16.30444336  132.70700073    0.38000000    2.67000008
   16.30777740  123.19899750    0.38000000    2.67000008
   16.31083298  127.95800018    0.38000000    2.67000008
   16.31416512  137.29699707    0.36000001    2.67000008
   16.31472206  132.20500183    0.38000000    2.67000008
   16.31777954  113.31500244    0.38000000    2.67000008
   16.32111168  125.20999908    0.36000001    2.67000008
   16.32444572  124.86499786    0.38000000    2.67000008
   16.32750130  130.21200562    0.36000001    2.66000009
   16.33083344  128.98399353    0.36000001    2.67000008
   16.33416748  122.29699707    0.38000000    2.67000008
   16.33722305  126.53299713    0.38000000    2.67000008
   16.34055710  122.78500366    0.38000000    2.67000008
   16.34361267  134.24200439    0.36000001    2.67000008
   16.34694481  111.97100067    0.36000001    2.69000006
   16.34749985  124.07099915    0.36000001    2.69000006
   16.35055542  120.01000214    0.38000000    2.67000008
   16.35361099  124.03800201    0.50000000    2.67000008
   16.35694504  132.14500427    0.47999999    2.69000006
   16.36027908  138.16700745    0.41999999    2.69000006
   16.36333466  123.45300293    0.40000001    2.69000006
   16.36666679  130.61099243    0.40000001    2.67000008
   16.37000084  126.09999847    0.40000001    2.66000009
   16.37305641  114.54900360    0.40000001    2.67000008
   16.37638855  119.53500366    0.40000001    2.67000008
   16.37944412  120.69100189    0.40000001    2.67000008
   16.38083267  119.16400146    0.40000001    2.67000008
   16.38333321  124.79100037    0.40000001    2.67000008
   16.38638878  117.70800018    0.38000000    2.67000008
   16.38972282  127.74099731    0.38000000    2.67000008
   16.39305496  137.15199280    0.40000001    2.67000008
   16.39611053  133.94599915    0.40000001    2.69000006
   16.39944458  125.67500305    0.40000001    2.67000008
   16.40277672  122.64499664    0.40000001    2.67000008
   16.40583229  109.65699768    0.40000001    2.67000008
   16.40916634  134.05299377    0.40000001    2.67000008
   16.41222191  138.81100464    0.40000001    2.67000008
   16.41416550  130.75000000    0.40000001    2.69000006
   16.41611099  139.69099426    0.40000001    2.67000008
   16.41916656  125.50399780    0.40000001    2.67000008
   16.42249870  126.27200317    0.40000001    2.66000009
   16.42583275  125.90699768    0.40000001    2.67000008
   16.42888832  135.69400024    0.40000001    2.67000008
   16.43222237  125.58899689    0.40000001    2.67000008
   16.43555450  125.74700165    0.40000001    2.67000008
   16.43861008  129.28399658    0.40000001    2.67000008
   16.44194412  138.06100464    0.40000001    2.67000008
   16.44499969  115.80699921    0.40000001    2.67000008
   16.44749832  117.23799896    0.40000001    2.69000006
   16.44888878  129.09899902    0.40000001    2.69000006
   16.45194435  126.76799774    0.40000001    2.67000008
   16.45527840  132.53199768    0.41999999    2.67000008
   16.45861244  128.32899475    0.41999999    2.67000008
   16.46166801  132.84800720    0.41999999    2.69000006
   16.46500015  126.79599762    0.44000000    2.67000008
   16.46833420  136.24899292    0.44000000    2.67000008
   16.47138977  121.81999969    0.41999999    2.67000008
   16.47472191  136.69400024    0.41999999    2.67000008
   16.47805595  124.38800049    0.44000000    2.67000008
   16.48083305  125.44100189    0.44000000    2.66000009
   16.48166656  129.71000671    0.44000000    2.67000008
   16.48472214  124.42500305    0.44000000    2.67000008
   16.48805618  130.56399536    0.44000000    2.67000008
   16.49138832  131.15699768    0.44000000    2.67000008
   16.49444389  119.31199646    0.44000000    2.67000008
   16.49777794  125.91500092    0.44000000    2.67000008
   16.50111198  130.16600037    0.44000000    2.67000008
   16.50416756  130.44299316    0.44000000    2.67000008
   16.50749969  122.62799835    0.41999999    2.67000008
   16.51055527  129.83399963    0.41999999    2.67000008
   16.51388931  129.48699951    0.41999999    2.67000008
   16.51444435  128.70399475    0.41999999    2.67000008
   16.51777840  134.17500305    0.41999999    2.67000008
   16.52083397  118.66000366    0.41999999    2.69000006
   16.52416611  129.08900452    0.44000000    2.67000008
   16.52750015  125.34200287    0.41999999    2.67000008
   16.53055573  125.53399658    0.41999999    2.67000008
   16.53388786  128.64199829    0.41999999    2.67000008
   16.53722191  134.36799622    0.41999999    2.67000008
   16.54027748  136.22999573    0.41999999    2.67000008
   16.54361153  128.16999817    0.40000001    2.67000008
   16.54694366  127.33799744    0.47999999    2.67000008
   16.54777718  141.92100525    0.47999999    2.67000008
   16.55055428  127.90399933    0.47999999    2.67000008
   16.55360985  135.62699890    0.40000001    2.67000008
   16.55694389  130.26899719    0.40000001    2.67000008
   16.56027794  127.63800049    0.40000001    2.66000009
   16.56333351  133.26100159    0.40000001    2.67000008
   16.56666756  123.39700317    0.41999999    2.67000008
   16.56972313  127.89099884    0.41999999    2.67000008
   16.57305717  123.52400208    0.44000000    2.69000006
   16.57638931  127.86799622    0.46000001    2.67000008
   16.57944489  127.27400208    0.46000001    2.67000008
   16.58111191  131.88699341    0.46000001    2.67000008
   16.58333397  123.65699768    0.46000001    2.66000009
   16.58638954  130.36399841    0.46000001    2.67000008
   16.58972359  131.76800537    0.46000001    2.67000008
   16.59305573  111.76399994    0.46000001    2.66000009
   16.59611130  131.64100647    0.47999999    2.67000008
   16.59944534  129.04299927    0.47999999    2.67000008
   16.60277748  131.74600220    0.47999999    2.66000009
   16.60583305  127.13300323    0.47999999    2.67000008
   16.60916710  135.75000000    0.50000000    2.66000009
   16.61250114  134.97000122    0.50000000    2.67000008
   16.61444473  125.82700348    0.50000000    2.67000008
   16.61611176  138.87300110    0.51999998    2.66000009
   16.61916733  123.98799896    0.51999998    2.66000009
   16.62249947  140.68600464    0.51999998    2.67000008
   16.62583351  135.81900024    0.50000000    2.67000008
   16.62888908  127.21800232    0.50000000    2.67000008
   16.63222313  139.89199829    0.47999999    2.67000008
   16.63555527  118.55400085    0.47999999    2.67000008
   16.63861084  120.77700043    0.44000000    2.67000008
   16.64194489  146.27000427    0.44000000    2.67000008
   16.64500046  136.30900574    0.44000000    2.67000008
   16.64777756  136.82099915    0.41999999    2.67000008
   16.64888954  126.92299652    0.41999999    2.67000008
   16.65194321  127.37300110    0.41999999    2.67000008
   16.65527725  133.57899475    0.44000000    2.66000009
   16.65861130  123.74299622    0.44000000    2.66000009
   16.66166687  133.76800537    0.44000000    2.67000008
   16.66499901  131.97700500    0.44000000    2.67000008
   16.66805458  139.58000183    0.46000001    2.67000008
   16.67138863  135.46299744    0.44000000    2.67000008
   16.67472076  143.89399719    0.44000000    2.67000008
   16.67777634  141.37699890    0.47999999    2.69000006
   16.68111038  125.87699890    0.46000001    2.66000009
   16.68166542  135.93099976    0.46000001    2.66000009
   16.68472099  132.15899658    0.47999999    2.67000008
   16.68805504  136.61399841    0.47999999    2.67000008
   16.69138718  139.34300232    0.47999999    2.67000008
   16.69444275  134.39999390    0.47999999    2.67000008
   16.69777679  128.83999634    0.47999999    2.66000009
   16.70083427  145.16499329    0.47999999    2.66000009
   16.70416832  124.75099945    0.47999999    2.67000008
   16.70750046  129.22099304    0.47999999    2.67000008
   16.71055603  134.81100464    0.46000001    2.67000008
   16.71389008  126.43199921    0.46000001    2.67000008
   16.71444511  140.72799683    0.46000001    2.67000008
   16.71750069  133.69000244    0.46000001    2.67000008
   16.72055626  126.54900360    0.44000000    2.66000009
   16.72389030  132.60800171    0.44000000    2.67000008
   16.72722244  126.78099823    0.44000000    2.66000009
   16.73027802  127.01699829    0.41999999    2.67000008
   16.73361206  125.81199646    0.41999999    2.67000008
   16.73666763  125.83399963    0.41999999    2.67000008
   16.73999977  133.53500366    0.41999999    2.67000008
   16.74333382  122.77400208    0.40000001    2.67000008
   16.74638939  130.14399719    0.38000000    2.67000008
   16.74777794  125.39600372    0.40000001    2.67000008
   16.75027847  123.62500000    0.40000001    2.67000008
   16.75333405  123.83799744    0.40000001    2.66000009
   16.75666618  131.72000122    0.36000001    2.67000008
   16.76000023  124.28500366    0.38000000    2.67000008
   16.76305580  130.51499939    0.38000000    2.67000008
   16.76638794  133.11799622    0.36000001    2.67000008
   16.76972198  129.11999512    0.36000001    2.67000008
   16.77277756  117.29100037    0.38000000    2.67000008
   16.77611160  126.77999878    0.36000001    2.67000008
   16.77916718  133.60400391    0.38000000    2.66000009
   16.78111076  137.80999756    0.36000001    2.67000008
   16.78305435  129.43800354    0.36000001    2.69000006
   16.78610992  128.37899780    0.38000000    2.67000008
   16.78944397  131.80700684    0.36000001    2.67000008
   16.79277802  130.62899780    0.36000001    2.67000008
   16.79583359  126.80200195    0.38000000    2.67000008
   16.79916573  112.36699677    0.38000000    2.67000008
   16.80249977  132.34599304    0.38000000    2.67000008
   16.80555534  132.47200012    0.38000000    2.67000008
   16.80888748  122.30899811    0.38000000    2.67000008
   16.81194305  133.42700195    0.38000000    2.67000008
   16.81444359  130.23699951    0.38000000    2.67000008
   16.81583214  122.76599884    0.40000001    2.67000008
   16.81888962  129.78500366    0.40000001    2.67000008
   16.82222366  127.96600342    0.38000000    2.67000008
   16.82555580  125.64700317    0.40000001    2.67000008
   16.82861137  130.17300415    0.40000001    2.67000008
   16.83194542  122.78700256    0.41999999    2.67000008
   16.83500099  126.67400360    0.40000001    2.67000008
   16.83833313  127.20999908    0.40000001    2.67000008
   16.84166718  136.36700439    0.40000001    2.67000008
   16.84472275  124.61499786    0.40000001    2.66000009
   16.84777832  137.24200439    0.40000001    2.67000008
   16.84861183  118.86900330    0.40000001    2.67000008
   16.85166740  138.55700684    0.40000001    2.67000008
   16.85499954  125.11599731    0.40000001    2.67000008
   16.85833359  137.48800659    0.40000001    2.67000008
   16.86138916  130.88699341    0.40000001    2.69000006
   16.86472321  129.97000122    0.41999999    2.67000008
   16.86805534  128.42300415    0.40000001    2.67000008
   16.87111092  128.11399841    0.41999999    2.67000008
   16.87444496  145.05000305    0.41999999    2.67000008
   16.87750053  128.69099426    0.41999999    2.67000008
   16.88083267  135.18699646    0.41999999    2.67000008
   16.88138962  137.54899597    0.41999999    2.67000008
   16.88472176  134.87699890    0.41999999    2.67000008
   16.88777733  128.00799561    0.44000000    2.66000009
   16.89111137  134.51199341    0.44000000    2.67000008
   16.89416695  134.04699707    0.44000000    2.67000008
   16.89749908  126.88300323    0.44000000    2.67000008
   16.90083313  149.03500366    0.44000000    2.67000008
   16.90388870  135.78599548    0.44000000    2.67000008
   16.90722275  134.21200562    0.44000000    2.67000008
   16.91055489  139.30299377    0.41999999    2.66000009
   16.91361046  139.55400085    0.44000000    2.66000009
   16.91472244  146.80400085    0.41999999    2.67000008
   16.91749954  128.84599304    0.44000000    2.67000008
   16.92055511  138.12699890    0.41999999    2.67000008
   16.92388916  125.21900177    0.41999999    2.69000006
   16.92694473  136.99400330    0.41999999    2.66000009
   16.93027687  145.27200317    0.41999999    2.67000008
   16.93361092  136.75599670    0.41999999    2.67000008
   16.93694305  145.54200745    0.41999999    2.67000008
   16.93999863  130.01899719    0.41999999    2.67000008
   16.94333267  140.31700134    0.41999999    2.67000008
   16.94666672  134.25300598    0.41999999    2.67000008
   16.94805527  135.35499573    0.41999999    2.67000008
   16.95055580  147.44900513    0.41999999    2.67000008
   16.95361137  129.52200317    0.41999999    2.67000008
   16.95694542  143.05700684    0.41999999    2.67000008
   16.96000099  139.29200745    0.41999999    2.66000009
   16.96333504  133.26400757    0.44000000    2.67000008
   16.96666718  145.11700439    0.44000000    2.67000008
   16.96972275  135.80099487    0.47999999    2.67000008
   16.97305679  132.84100342    0.50000000    2.67000008
   16.97638893  128.85600281    0.50000000    2.67000008
   16.97944450  143.24299622    0.44000000    2.67000008
   16.98139000  123.43000031    0.44000000    2.67000008
   16.98333359  123.54199982    0.44000000    2.66000009
   16.98638916  133.10499573    0.44000000    2.66000009
   16.98972321  127.70899963    0.46000001    2.66000009
   16.99277878  124.74700165    0.44000000    2.67000008
   16.99611092  125.82099915    0.44000000    2.67000008
   16.99944496  117.28900146    0.44000000    2.67000008
   17.00250053  127.21099854    0.44000000    2.67000008
   17.00583267  138.00999451    0.44000000    2.67000008
   17.00916672  126.93499756    0.44000000    2.67000008
   17.01222229  130.86000061    0.44000000    2.67000008
   17.01472282  140.79699707    0.44000000    2.67000008
   17.01611137  128.79600525    0.44000000    2.67000008
   17.01916695  131.83200073    0.44000000    2.67000008
   17.02249908  142.88600159    0.44000000    2.67000008
   17.02555466  129.28599548    0.41999999    2.66000009
   17.02888870  121.38899994    0.44000000    2.67000008
   17.03222275  139.35200500    0.44000000    2.66000009
   17.03527641  138.73100281    0.44000000    2.66000009
   17.03861046  138.66900635    0.44000000    2.67000008
   17.04194450  136.52600098    0.44000000    2.66000009
   17.04500008  129.89700317    0.44000000    2.67000008
   17.04805565  143.25000000    0.41999999    2.67000008
   17.04888916  142.92199707    0.41999999    2.67000008
   17.05194283  137.79299927    0.44000000    2.66000009
   17.05527687  135.81500244    0.44000000    2.67000008
   17.05861092  141.06700134    0.41999999    2.67000008
   17.06166649  134.56799316    0.41999999    2.66000009
   17.06499863  135.67599487    0.41999999    2.67000008
   17.06805611  133.92900085    0.41999999    2.67000008
   17.07139015  130.58399963    0.41999999    2.67000008
   17.07472229  144.91200256    0.41999999    2.67000008
   17.07777786  141.74099731    0.41999999    2.67000008
   17.08111191  134.87899780    0.41999999    2.66000009
   17.08166695  133.72200012    0.41999999    2.66000009
   17.08472252  122.50900269    0.41999999    2.67000008
   17.08805656  126.36900330    0.44000000    2.67000008
   17.09138870  130.21299744    0.41999999    2.66000009
   17.09444427  131.56500244    0.44000000    2.66000009
   17.09777832  134.24800110    0.46000001    2.66000009
   17.10111237  128.71400452    0.44000000    2.67000008
   17.10416794  123.48999786    0.44000000    2.67000008
   17.10750008  132.82299805    0.44000000    2.67000008
   17.11055565  132.56700134    0.46000001    2.67000008
   17.13027763  125.51399994    0.46000001    2.66000009
   17.13083267  137.45100403    0.46000001    2.66000009
   17.13416672  130.70700073    0.46000001    2.66000009
   17.13722229  130.56599426    0.46000001    2.66000009
   17.14055634  118.11499786    0.46000001    2.66000009
   17.14388847  127.37500000    0.46000001    2.67000008
   17.14694405  133.00599670    0.46000001    2.67000008
   17.15027809  132.92399597    0.46000001    2.66000009
   17.15361023  135.32299805    0.46000001    2.66000009
   17.15666580  126.86399841    0.46000001    2.66000009
   17.15999985  133.96200562    0.46000001    2.66000009
   17.16333389  119.81400299    0.46000001    2.67000008
   17.16416550  136.15699768    0.46000001    2.67000008
   17.16694450  143.09800720    0.47999999    2.66000009
   17.17000008  125.61299896    0.46000001    2.66000009
   17.17333221  125.05200195    0.47999999    2.67000008
   17.17666626  132.42300415    0.47999999    2.67000008
   17.17972183  114.49099731    0.47999999    2.67000008
   17.18305397  117.19799805    0.47999999    2.67000008
   17.18638802  116.44799805    0.47999999    2.66000009
   17.18944359  116.31099701    0.47999999    2.67000008
   17.19277763  129.14500427    0.47999999    2.66000009
   17.19610977  127.67099762    0.47999999    2.67000008
   17.19749832  111.47899628    0.50000000    2.66000009
   17.19972038  131.60800171    0.50000000    2.66000009
   17.20277786  131.08299255    0.47999999    2.66000009
   17.20611191  127.96499634    0.47999999    2.66000009
   17.20944595  128.93899536    0.47999999    2.66000009
   17.21250153  123.50599670    0.47999999    2.67000008
   17.21583366  117.04299927    0.47999999    2.66000009
   17.21916771  134.15100098    0.47999999    2.66000009
   17.22222328  124.76000214    0.47999999    2.66000009
   17.22555542  127.20500183    0.47999999    2.66000009
   17.22861099  133.50000000    0.47999999    2.66000009
   17.23083305  117.82399750    0.51999998    2.66000009
   17.23250008  130.32499695    0.51999998    2.66000009
   17.23555565  126.23300171    0.50000000    2.66000009
   17.23888969  122.38300323    0.50000000    2.66000009
   17.24222183  122.75000000    0.50000000    2.67000008
   17.24527740  138.51300049    0.51999998    2.66000009
   17.24861145  116.98200226    0.51999998    2.66000009
   17.25194359  126.35099792    0.51999998    2.66000009
   17.25499916  123.55100250    0.51999998    2.66000009
   17.25833321  115.38600159    0.51999998    2.66000009
   17.26166725  131.03399658    0.51999998    2.66000009
   17.26416588  125.37699890    0.52999997    2.66000009
   17.26527786  108.58200073    0.52999997    2.66000009
   17.26861000  113.73200226    0.51999998    2.66000009
   17.27166557  117.39399719    0.51999998    2.66000009
   17.27499962  117.03800201    0.51999998    2.66000009
   17.27805519  121.12999725    0.51999998    2.67000008
   17.28138924  121.22100067    0.55000001    2.67000008
   17.28472137  111.90499878    0.63000000    2.66000009
   17.28777695  116.21299744    0.63000000    2.67000008
   17.29111099  125.42099762    0.64999998    2.66000009
   17.29444313  121.39900208    0.69000000    2.66000009
   17.29749870  120.57299805    0.70999998    2.66000009
   17.29805565  121.34999847    0.70999998    2.66000009
   17.30138779   -1.00000000    0.70999998    2.66000009
   17.30444336  126.19499969    0.70999998    2.66000009
   17.30777740  123.90399933    0.70999998    2.67000008
   17.31083298  126.46499634    0.70999998    2.67000008
   17.31416512  127.69799805    0.69000000    2.66000009
   17.31750107  121.75499725    0.69000000    2.66000009
   17.32055664  117.73300171    0.69000000    2.66000009
   17.32389069  111.83399963    0.69000000    2.66000009
   17.32722282  126.09200287    0.70999998    2.66000009
   17.33027840  121.28299713    0.69000000    2.66000009
   17.33083344  117.85800171    0.69000000    2.66000009
   17.33388901  116.20899963    0.69000000    2.66000009
   17.33722305  122.87300110    0.67000002    2.66000009
   17.34027863  115.38600159    0.67000002    2.66000009
   17.34361267  121.64600372    0.64999998    2.66000009
   17.34666824  123.00499725    0.64999998    2.67000008
   17.35000038   -1.00000000    0.64999998    2.66000009
   17.35333443   -1.00000000    0.86000001    0.46000001
   17.35639000  116.91200256    0.88000000    0.34000000
   17.35972214  119.33899689    0.64999998    2.66000009
   17.36305618  122.30999756    0.64999998    2.66000009
   17.36416626  113.82700348    0.67000002    2.66000009
   17.36666679  115.56199646    0.67000002    2.66000009
   17.37000084  116.29100037    0.69000000    2.66000009
   17.37305641  113.53900146    0.70999998    2.66000009
   17.37638855  117.54699707    0.70999998    2.64000010
   17.37972260  134.16999817    0.75000000    2.66000009
   17.38277817  131.82400513    0.76999998    2.66000009
   17.38611031  128.52099609    0.86000001    2.66000009
   17.38916588  120.24600220    0.86000001    2.66000009
   17.39249992  130.88000488    0.86000001    2.66000009
   17.39583397  117.50099945    0.88000000    2.64000010
   17.39749908  117.45600128    0.88000000    2.66000009
   17.39944458   -1.00000000    0.89999998    2.66000009
   17.40277672   -1.00000000    0.88000000    2.64000010
   17.40583229  123.84100342    0.81999999    2.66000009
   17.40916634  120.70200348    0.80000001    2.66000009
   17.41250038  114.61199951    0.80000001    2.66000009
   17.41555595  120.05300140    0.75000000    2.67000008
   17.41888809  115.34400177    0.75000000    2.66000009
   17.42194366  124.35800171    0.70999998    2.66000009
   17.42527771  117.25399780    0.70999998    2.66000009
   17.42860985  126.75000000    0.70999998    2.66000009
   17.43083191  137.32299805    0.69000000    2.66000009
   17.43222237  124.32499695    0.70999998    2.66000009
   17.43555450  117.61199951    0.69000000    2.66000009
   17.43861008  127.45800018    0.61000001    2.66000009
   17.44194412  118.60600281    0.61000001    2.66000009
   17.44527626  116.58399963    0.58999997    2.66000009
   17.44833183   -1.00000000    0.56999999    2.66000009
   17.45166779  127.51899719    0.55000001    2.66000009
   17.45499992  133.86700439    0.52999997    2.66000009
   17.45805550  128.49299622    0.52999997    2.66000009
   17.46138954  117.66799927    0.50000000    2.66000009
   17.46416664  115.53800201    0.47999999    2.66000009
   17.46500015  113.21299744    0.47999999    2.66000009
   17.46833420  131.80099487    0.46000001    2.66000009
   17.47138977  128.10099792    0.46000001    2.66000009
   17.47472191  125.32599640    0.46000001    2.67000008
   17.47805595  122.66600037    0.46000001    2.66000009
   17.48111153  120.74600220    0.46000001    2.66000009
   17.48444557  128.19500732    0.46000001    2.66000009
   17.48777771  116.64900208    0.44000000    2.66000009
   17.49083328  122.85800171    0.44000000    2.66000009
   17.49416733  129.25399780    0.44000000    2.66000009
   17.49722290   -1.00000000    0.41999999    2.66000009
   17.50111198   -1.00000000    0.44000000    2.66000009
   17.50416756  145.25399780    0.44000000    2.66000009
   17.50749969  134.66299438    0.44000000    2.66000009
   17.51083374  120.29399872    0.44000000    2.66000009
   17.51388931  121.44400024    0.44000000    2.66000009
   17.51722145  121.36199951    0.46000001    2.66000009
   17.52027702  129.92500305    0.46000001    2.66000009
   17.52361107  127.21399689    0.46000001    2.66000009
   17.52694511  120.52600098    0.46000001    2.66000009
   17.53000069  122.53399658    0.46000001    2.64000010
   17.53111076  118.85600281    0.46000001    2.66000009
   17.53361130  135.77799988    0.46000001    2.64000010
   17.53694344  125.71600342    0.44000000    2.66000009
   17.53999901  125.43699646    0.46000001    2.66000009
   17.54333305  135.70799255    0.46000001    2.66000009
   17.54638863   -1.00000000    0.46000001    2.66000009
   17.54972076   -1.00000000    0.44000000    2.66000009
   17.55305481   -1.00000000    0.44000000    2.67000008
   17.55611038   -1.00000000    0.44000000    2.66000009
   17.55944443  124.04299927    0.44000000    2.66000009
   17.56277657  116.12999725    0.44000000    2.66000009
   17.56444359  131.12399292    0.44000000    2.66000009
   17.56638718  139.95599365    0.46000001    2.66000009
   17.56972313  130.05000305    0.46000001    2.64000010
   17.57277870  116.55899811    0.46000001    2.66000009
   17.57611275  123.57599640    0.46000001    2.66000009
   17.57916832  122.23200226    0.46000001    2.67000008
   17.58250046  119.73899841    0.46000001    2.66000009
   17.58583450  134.25399780    0.46000001    2.66000009
   17.58889008  125.44000244    0.47999999    2.66000009
   17.59222221  407.38699341    0.46000001    2.66000009
   17.59416771  214.30700684    0.46000001    2.66000009
   17.59444427  119.73899841    0.46000001    2.66000009
   17.59444427  134.25399780    0.46000001    2.66000009
   17.59444427  125.44000244    0.47999999    2.66000009
   17.59472275  407.38699341    0.46000001    2.66000009
   17.59472275  139.95599365    0.46000001    2.66000009
   17.59472275  130.05000305    0.46000001    2.64000010
   17.59500122  116.55899811    0.46000001    2.66000009
   17.59500122  123.57599640    0.46000001    2.66000009
   17.59500122  122.23200226    0.46000001    2.67000008
   17.59694481   -1.00000000    0.46000001    2.66000009
   17.60027885   -1.00000000    0.44000000    2.66000009
   17.60361099   -1.00000000    0.44000000    2.64000010
   17.60666656  110.91100311    0.41999999    2.66000009
   17.61000061  121.20500183    0.41999999    2.64000010
   17.61499977  121.20500183    0.41999999    2.66000009
   17.61916733  132.83399963    0.40000001    2.66000009
   17.62249947  131.52799988    0.40000001    2.66000009
   17.62555504  127.33699799    0.40000001    2.66000009
   17.62805557  124.98600006    0.41999999    2.66000009
   17.62944412  135.24200439    0.41999999    2.66000009
   17.63277817  132.58399963    0.41999999    2.66000009
   17.63583374  131.43800354    0.44000000    2.66000009
   17.63916588  122.93699646    0.44000000    2.66000009
   17.64222145  124.23300171    0.46000001    2.66000009
   17.64555550  133.45799255    0.46000001    2.64000010
   17.64888954  122.05000305    0.46000001    2.66000009
   17.65194321  122.62699890    0.46000001    2.66000009
   17.65805435  122.62699890    0.46000001    2.66000009
   17.66194344  131.49899292    0.46000001    2.66000009
   17.66527748  126.63800049    0.44000000    2.64000010
   17.66860962  126.01899719    0.47999999    2.66000009
   17.67166519  127.55000305    0.47999999    2.64000010
   17.67499924  129.09199524    0.47999999    2.64000010
   17.67833328  124.07800293    0.47999999    2.66000009
   17.68138885  125.31500244    0.46000001    2.64000010
   17.68472099  127.15599823    0.47999999    2.66000009
   17.68777657  117.36699677    0.46000001    2.66000009
   17.69111061  133.37399292    0.47999999    2.64000010
   17.69444275  129.05400085    0.47999999    2.64000010
   17.69499969  130.90100098    0.47999999    2.64000010
   17.70083427  130.90100098    0.50000000    2.66000009
   17.70499992  128.63000488    0.51999998    2.66000009
   17.70805550  139.47700500    0.51999998    2.66000009
   17.71138954  133.39999390    0.51999998    2.64000010
   17.71444511  127.52400208    0.51999998    2.64000010
   17.71777916  136.69799805    0.55000001    2.64000010
   17.72083473  143.57800293    0.55000001    2.64000010
   17.72416687  126.57199860    0.56999999    2.64000010
   17.72750092  130.19299316    0.58999997    2.64000010
   17.72833443  128.18899536    0.58999997    2.64000010
   17.73083305  131.12199402    0.56999999    2.64000010
   17.73416710  131.35000610    0.58999997    2.66000009
   17.73722267  127.26399994    0.58999997    2.64000010
   17.74388885  127.26399994    0.61000001    2.64000010
   17.74805641  137.07200623    0.61000001    2.64000010
   17.75111198  146.54499817    0.63000000    2.64000010
   17.75444412  140.38499451    0.61000001    2.64000010
   17.75777817  136.14199829    0.61000001    2.64000010
   17.76083374  137.27799988    0.69000000    2.64000010
   17.76166725  135.83599854    0.67000002    2.64000010
   17.76444435  131.27999878    0.69000000    2.61999989
   17.76777840  131.94500732    0.69000000    2.64000010
   17.77111053  133.55599976    0.69000000    2.64000010
   17.77416611  137.05999756    0.64999998    2.64000010
   17.77750015  131.74600220    0.64999998    2.64000010
   17.78055573  134.32299805    0.63000000    2.64000010
   17.78638840  134.32299805    0.64999998    2.64000010
   17.79055595  128.61300659    0.69000000    2.64000010
   17.79388809  135.20500183    0.70999998    2.64000010
   17.79500008  140.20300293    0.70999998    2.64000010
   17.79749870  134.41299438    0.75000000    2.64000010
   17.80083275  134.67199707    0.75000000    2.64000010
   17.80388832  129.55700684    0.76999998    2.64000010
   17.80722237  132.57000732    0.76999998    2.64000010
   17.81055450  132.86900330    0.81999999    2.64000010
   17.81361008  122.46900177    0.88000000    2.64000010
   17.81694603  130.33299255    0.89999998    2.64000010
   17.82027817  136.25000000    0.88000000    2.64000010
   17.82333374  133.12699890    0.86000001    2.64000010
   17.82944489  133.12699890    0.75000000    2.64000010
   17.83333397  132.78399658    0.75000000    2.61999989
   17.83666801  125.32900238    0.75000000    2.64000010
   17.84000015  132.04100037    0.75000000    2.64000010
   17.84305573  133.97700500    0.73000002    2.64000010
   17.84638977  122.60399628    0.69000000    2.64000010
   17.84944534  121.74500275    0.69000000    2.61999989
   17.85277748  120.84300232    0.69000000    2.64000010
   17.85611153  130.78500366    0.69000000    2.64000010
   17.85916710  132.85299683    0.67000002    2.64000010
   17.86166763  133.34399414    0.67000002    2.64000010
   17.86277771  138.98599243    0.64999998    2.64000010
   17.86611176  128.58700562    0.64999998    2.64000010
   17.87222290  128.58700562    0.63000000    2.64000010
   17.87638855  124.23000336    0.63000000    2.64000010
   17.87944412  132.95799255    0.64999998    2.64000010
   17.88277817  122.35399628    0.64999998    2.64000010
   17.88583374  131.20100403    0.64999998    2.64000010
   17.88916588  122.11299896    0.64999998    2.64000010
   17.89249992  127.50599670    0.67000002    2.64000010
   17.89500046  122.64399719    0.64999998    2.64000010
   17.89583397  127.22599792    0.64999998    2.64000010
   17.89916611  129.63200378    0.64999998    2.61999989
   17.90277672  118.98899841    0.63000000    2.64000010
   17.90583229  126.76000214    0.63000000    2.64000010
   17.90916634  128.59899902    0.61000001    2.64000010
   17.91499901  128.59899902    0.64999998    2.64000010
   17.91916656  112.96299744    0.64999998    2.64000010
   17.92249870  117.72699738    0.64999998    2.64000010
   17.92555428  125.10500336    0.67000002    2.64000010
   17.92833328  120.91200256    0.73000002    2.64000010
   17.92916679  117.26300049    0.73000002    2.64000010
   17.93249893  132.75900269    0.75000000    2.61999989
   17.93583298  122.30500031    0.79000002    2.64000010
   17.93888855  123.86799622    0.79000002    2.61999989
   17.94222069  117.97899628    0.79000002    2.61999989
   17.94527626  115.34700012    0.79000002    2.61999989
   17.94861031  129.55299377    0.79000002    2.61999989
   17.95194435  120.39099884    0.79000002    2.61999989
   17.95777893  120.39099884    0.75000000    2.64000010
   17.96222305  108.70099640    0.76999998    2.64000010
   17.96527863  120.25800323    0.69000000    2.64000010
   17.96861076  132.11099243    0.69000000    2.64000010
   17.97166634  119.38099670    0.64999998    2.64000010
   17.97500038  121.40399933    0.63000000    2.64000010
   17.97833443  121.70500183    0.55000001    2.64000010
   17.98166656  125.10900116    0.55000001    2.64000010
   17.98472214  126.50399780    0.55000001    2.64000010
   17.98805618  123.99199677    0.55000001    2.64000010
   17.99111176  130.26400757    0.63000000    2.64000010
   17.99444389  119.78700256    0.63000000    2.64000010
   17.99500084  118.87899780    0.63000000    2.64000010
   18.00055504  118.87899780    0.58999997    2.64000010
   18.00472260  122.00000000    0.55000001    2.64000010
   18.00805473  120.17199707    0.52999997    2.64000010
   18.01138878  117.79799652    0.52999997    2.64000010
   18.01444435  121.81999969    0.52999997    2.64000010
   18.01777840  120.09200287    0.50000000    2.61999989
   18.02083397  118.22200012    0.46000001    2.64000010
   18.02416611  115.79900360    0.46000001    2.64000010
   18.02722168  127.71399689    0.47999999    2.64000010
   18.02833366  117.80899811    0.46000001    2.64000010
   18.03111076  128.79600525    0.46000001    2.64000010
   18.03416634  122.52500153    0.47999999    2.64000010
   18.03750038  123.53500366    0.47999999    2.64000010
   18.04361153  123.53500366    0.46000001    2.64000010
   18.04777718  116.62300110    0.47999999    2.61999989
   18.05111122  122.47299957    0.46000001    2.64000010
   18.05472183  123.92199707    0.44000000    2.64000010
   18.05805397  122.59700012    0.41999999    2.64000010
   18.06138802  131.25000000    0.41999999    2.64000010
   18.06194305  122.00700378    0.41999999    2.64000010
   18.06472206  123.42500305    0.41999999    2.64000010
   18.06805611  126.50900269    0.40000001    2.64000010
   18.07139015  118.29100037    0.40000001    2.64000010
   18.07444572  124.25599670    0.38000000    2.61999989
   18.07777786  120.05200195    0.40000001    2.61999989
   18.08111191  127.24099731    0.40000001    2.61999989
   18.08638954  127.24099731    0.51999998    2.61999989
   18.09055710  124.57599640    0.55000001    2.64000010
   18.09361267  128.48599243    0.55000001    2.64000010
   18.09527779  117.95099640    0.56999999    2.61999989
   18.09722328  106.65599823    0.55000001    2.64000010
   18.10055542  117.93099976    0.55000001    2.64000010
   18.10361099  122.18099976    0.51999998    2.64000010
   18.10694504  120.79199982    0.52999997    2.64000010
   18.11027908  115.67199707    0.51999998    2.61999989
   18.11333466  110.52700043    0.52999997    2.61999989
   18.11666679  111.70999908    0.55000001    2.61999989
   18.12000084  119.82700348    0.56999999    2.64000010
   18.12305641  114.22299957    0.55000001    2.61999989
   18.12916756  114.22299957    0.55000001    2.64000010
   18.14777756  107.41300201    0.51999998    2.61999989
   18.15111160  115.74199677    0.52999997    2.61999989
   18.15416718  122.38600159    0.50000000    2.61999989
   18.15749931  128.04400635    0.47999999    2.61999989
   18.16083336  121.41100311    0.50000000    2.61999989
   18.16194344  117.39700317    0.50000000    2.61999989
   18.16444397  123.01200104    0.47999999    2.61999989
   18.16749954  116.14499664    0.46000001    2.64000010
   18.17222214  116.14499664    0.44000000    2.64000010
   18.17638779  125.15699768    0.44000000    2.61999989
   18.17944336  112.12000275    0.44000000    2.64000010
   18.18277740  117.32499695    0.44000000    2.61999989
   18.18583298  113.20400238    0.44000000    2.61999989
   18.18916512  114.42800140    0.44000000    2.61999989
   18.19249916  121.47000122    0.44000000    2.61999989
   18.19527626  119.69899750    0.44000000    2.64000010
   18.19610977  121.28199768    0.44000000    2.64000010
   18.19916534  117.45600128    0.46000001    2.64000010
   18.20250130  123.89499664    0.46000001    2.64000010
   18.20583344  118.69699860    0.47999999    2.61999989
   18.20888901  121.70899963    0.52999997    2.61999989
   18.21500015  121.70899963    0.61000001    2.61999989
   18.21916771  124.25599670    0.61000001    2.61999989
   18.22222328  129.45100403    0.61000001    2.61999989
   18.22555542  125.29599762    0.61000001    2.61999989
   18.22861099  130.72200012    0.61000001    2.61999989
   18.22944450  134.31500244    0.61000001    2.61999989
   18.23250008  125.88800049    0.58999997    2.61999989
   18.23583412  128.53799438    0.58999997    2.61999989
   18.23888969  127.58599854    0.58999997    2.61999989
   18.24222183  126.33999634    0.56999999    2.64000010
   18.24555588  128.91700745    0.61000001    2.61999989
   18.24861145  131.11599731    0.61000001    2.61999989
   18.25194359  123.03600311    0.58999997    2.61999989
   18.25777817  123.03600311    0.58999997    2.61999989
   18.26194382  117.16999817    0.52999997    2.61999989
   18.26527786  119.38700104    0.52999997    2.61999989
   18.26833344  114.51999664    0.51999998    2.64000010
   18.27166557  118.99700165    0.51999998    2.61999989
   18.27499962  118.93499756    0.51999998    2.61999989
   18.27805519  117.85399628    0.50000000    2.61999989
   18.28138924  123.06099701    0.50000000    2.61999989
   18.28444481  126.98500061    0.47999999    2.61999989
   18.28777695  123.45400238    0.47999999    2.61999989
   18.29111099  126.92099762    0.46000001    2.61999989
   18.29416656  123.70200348    0.46000001    2.61999989
   18.29527664  116.82099915    0.44000000    2.61999989
   18.30083275  116.82099915    0.44000000    2.61999989
   18.30472183  119.31400299    0.44000000    2.61999989
   18.30805397  126.12400055    0.41999999    2.61999989
   18.31138802  124.11199951    0.41999999    2.61999989
   18.31444359  133.09800720    0.41999999    2.61999989
   18.31777954  123.40799713    0.41999999    2.61999989
   18.32111168  130.80599976    0.41999999    2.61999989
   18.32416725  118.55999756    0.44000000    2.59999990
   18.32750130  113.06700134    0.44000000    2.61999989
   18.32861137  118.06199646    0.44000000    2.61999989
   18.33139038  112.30999756    0.44000000    2.61999989
   18.33444595  124.58799744    0.46000001    2.61999989
   18.33777809  121.32599640    0.46000001    2.61999989
   18.34361267  121.32599640    0.47999999    2.61999989
   18.34777832  123.37599945    0.51999998    2.59999990
   18.35111237  126.43599701    0.52999997    2.61999989
   18.35416794  116.89700317    0.55000001    2.61999989
   18.35750008  119.00399780    0.52999997    2.61999989
   18.36083412  115.35800171    0.52999997    2.61999989
   18.36194420  118.40100098    0.55000001    2.61999989
   18.36444473  105.94000244    0.55000001    2.61999989
   18.36750031  113.65299988    0.58999997    2.61999989
   18.37111092  110.25199890    0.56999999    2.61999989
   18.37416649  116.83300018    0.55000001    2.61999989
   18.37750053  123.50000000    0.56999999    2.61999989
   18.38083267  118.00700378    0.56999999    2.61999989
   18.38638878  118.00700378    0.56999999    2.61999989
   18.39055634  114.17500305    0.55000001    2.61999989
   18.39388847  121.63999939    0.55000001    2.61999989
   18.39527702  120.57900238    0.56999999    2.61999989
   18.39749908  121.80400085    0.56999999    2.61999989
   18.40055466  123.40200043    0.56999999    2.61999989
   18.40388870  122.04499817    0.51999998    2.61999989
   18.40694427  118.80699921    0.47999999    2.61999989
   18.41027832  118.96199799    0.46000001    2.61999989
   18.41361046  115.96700287    0.47999999    2.61999989
   18.41666603  110.93000031    0.47999999    2.61999989
   18.42000008  117.19000244    0.46000001    2.59999990
   18.42305565  113.44100189    0.46000001    2.61999989
   18.42916679  113.44100189    0.46000001    2.61999989
   18.43333244  112.92400360    0.47999999    2.61999989
   18.43666649  114.02100372    0.47999999    2.61999989
   18.43972206  122.65399933    0.46000001    2.61999989
   18.44305420  118.17600250    0.46000001    2.61999989
   18.44610977  115.59100342    0.41999999    2.61999989
   18.44944382  119.66500092    0.41999999    2.61999989
   18.45277786  113.20300293    0.44000000    2.61999989
   18.45583344  120.38999939    0.46000001    2.61999989
   18.45916748  114.90100098    0.47999999    2.61999989
   18.46194458  121.92700195    0.47999999    2.61999989
   18.46277809  114.48899841    0.47999999    2.61999989
   18.46583366  114.69799805    0.46000001    2.61999989
   18.47194481  114.69799805    0.46000001    2.59999990
   18.47611237  120.28500366    0.46000001    2.59999990
   18.47944450  117.73400116    0.46000001    2.61999989
   18.48277855  127.61699677    0.50000000    2.61999989
   18.48583412  125.55599976    0.51999998    2.61999989
   18.48916626  119.93000031    0.51999998    2.61999989
   18.49222183  109.54000092    0.52999997    2.61999989
   18.49527740  112.35299683    0.55000001    2.59999990
   18.49611092  111.59700012    0.55000001    2.59999990
   18.49944496  120.08599854    0.55000001    2.61999989
   18.50250053  125.14499664    0.56999999    2.61999989
   18.50583267  116.88800049    0.56999999    2.59999990
   18.50888824  120.74900055    0.55000001    2.61999989
   18.51499939  120.74900055    0.51999998    2.59999990
   18.51888847  120.33899689    0.51999998    2.59999990
   18.52222252  116.75499725    0.51999998    2.61999989
   18.52555466  117.12899780    0.51999998    2.61999989
   18.52861023  111.77400208    0.51999998    2.59999990
   18.52916718  113.51599884    0.51999998    2.59999990
   18.53249931  118.01000214    0.51999998    2.59999990
   18.53555489  112.81600189    0.51999998    2.61999989
   18.53888893  122.57900238    0.51999998    2.61999989
   18.54194450  123.38200378    0.52999997    2.61999989
   18.54527664  117.60099792    0.58999997    2.59999990
   18.54861069  116.22200012    0.58999997    2.61999989
   18.55166626  117.69400024    0.64999998    2.59999990
   18.55777740  117.69400024    0.67000002    2.59999990
   18.56194305  116.99299622    0.67000002    2.59999990
   18.56250000  119.81199646    0.67000002    2.59999990
   18.56555557  118.57199860    0.67000002    2.59999990
   18.56888962  123.70700073    0.64999998    2.59999990
   18.57194519  115.36900330    0.64999998    2.59999990
   18.57527924  120.95200348    0.58999997    2.59999990
   18.57861137  114.71800232    0.56999999    2.59999990
   18.58166695  127.17800140    0.55000001    2.59999990
   18.58500099  122.48300171    0.55000001    2.59999990
   18.58805656  121.77899933    0.52999997    2.59999990
   18.59138870  118.44200134    0.52999997    2.59999990
   18.59444427  120.84700012    0.51999998    2.59999990
   18.59583473  119.58300018    0.51999998    2.59999990
   18.60055542  119.58300018    0.58999997    2.59999990
   18.60472298  117.83799744    0.56999999    2.59999990
   18.60805511  123.02100372    0.56999999    2.57999992
   18.61111069  111.31900024    0.63000000    2.59999990
   18.61444473  115.62400055    0.64999998    2.59999990
   18.61750031  113.12500000    0.70999998    2.59999990
   18.62083435  118.78199768    0.76999998    2.57999992
   18.62416649  116.00000000    0.76999998    2.57999992
   18.62722206  112.38400269    0.79000002    2.57999992
   18.62916756  112.74500275    0.79000002    2.57999992
   18.63083267  120.23600006    0.76999998    2.57999992
   18.63416672  117.51999664    0.70999998    2.59999990
   18.63722229  113.19599915    0.70999998    2.57999992
   18.64333344  113.19599915    0.70999998    2.59999990
   18.64749908  116.65799713    0.61000001    2.59999990
   18.65083313  118.98600006    0.64999998    2.57999992
   18.65416718  115.19499969    0.64999998    2.59999990
   18.65722275  126.16600037    0.67000002    2.57999992
   18.66055489  115.20600128    0.70999998    2.57999992
   18.66305542  123.37000275    0.73000002    2.59999990
   18.66472244  121.03800201    0.73000002    2.59999990
   18.66805458  117.93800354    0.73000002    2.59999990
   18.67138863  114.26100159    0.73000002    2.59999990
   18.67444420  116.98699951    0.69000000    2.59999990
   18.67777634  110.49800110    0.69000000    2.57999992
   18.68083191  119.62599945    0.67000002    2.59999990
   18.68638802  119.62599945    0.67000002    2.57999992
   18.69027710  115.56400299    0.67000002    2.57999992
   18.69361115  123.60900116    0.63000000    2.59999990
   18.69583321  119.82399750    0.61000001    2.57999992
   18.69749832  121.79399872    0.61000001    2.59999990
   18.70055580  120.83899689    0.56999999    2.59999990
   18.70388985  118.27200317    0.52999997    2.59999990
   18.70694542  121.29699707    0.52999997    2.57999992
   18.71027946  114.58699799    0.51999998    2.59999990
   18.71361160  112.21199799    0.51999998    2.59999990
   18.71666718  114.08999634    0.64999998    2.57999992
   18.72000122  109.35099792    0.69000000    2.57999992
   18.72305679  123.57900238    0.69000000    2.59999990
   18.72916794  123.57900238    0.69000000    2.57999992
   18.73333359  116.98000336    0.69000000    2.59999990
   18.73638916  114.06600189    0.64999998    2.57999992
   18.73972321  121.06800079    0.64999998    2.57999992
   18.74305534  115.86199951    0.61000001    2.57999992
   18.74611092  124.42900085    0.61000001    2.57999992
   18.74944496  115.95200348    0.61000001    2.57999992
   18.75250053  125.59400177    0.61000001    2.57999992
   18.75583267  114.18000031    0.67000002    2.57999992
   18.75916672  122.55500031    0.67000002    2.57999992
   18.76222229  117.39499664    0.69000000    2.57999992
   18.76277733  116.04499817    0.69000000    2.57999992
   18.76611137  115.85600281    0.67000002    2.57999992
   18.77194405  115.85600281    0.64999998    2.57999992
   18.77611160  123.68599701    0.63000000    2.57999992
   18.77944374  120.50599670    0.61000001    2.55999994
   18.78249931  113.06700134    0.61000001    2.57999992
   18.78583336  109.60399628    0.63000000    2.57999992
   18.78888893  118.54699707    0.69000000    2.57999992
   18.79222107  109.44899750    0.69000000    2.55999994
   18.79555511  122.83999634    0.79000002    2.57999992
   18.79611015  114.92800140    0.79000002    2.57999992
   18.79916573  114.44200134    0.75000000    2.57999992
   18.80249977  109.66799927    0.67000002    2.59999990
   18.80555534  109.96600342    0.67000002    2.57999992
   18.80888748  113.43699646    0.67000002    2.57999992
   18.81472206  113.43699646    0.69000000    2.55999994
   18.81888962  115.94799805    0.70999998    2.57999992
   18.82222366  114.26100159    0.70999998    2.57999992
   18.82527924  117.11900330    0.56999999    2.55999994
   18.82861137  122.26599884    0.56999999    2.57999992
   18.82944489  117.65100098    0.56999999    2.57999992
   18.83222389  116.96499634    0.56999999    2.57999992
   18.83555603  125.01999664    0.56999999    2.57999992
   18.83861160  112.98000336    0.63000000    2.57999992
   18.84194565  118.14600372    0.61000001    2.57999992
   18.84500122  119.87799835    0.58999997    2.57999992
   18.84833336  119.62500000    0.55000001    2.57999992
   18.85166740  111.90000153    0.55000001    2.57999992
   18.85777855  111.90000153    0.56999999    2.57999992
   18.86166763  120.46499634    0.56999999    2.57999992
   18.86277771  116.11199951    0.58999997    2.57999992
   18.86555672  114.77500153    0.58999997    2.57999992
   18.86888885  127.77500153    0.64999998    2.55999994
   18.87194443  125.25299835    0.64999998    2.55999994
   18.87527847  115.17099762    0.61000001    2.57999992
   18.87833405  110.63700104    0.56999999    2.57999992
   18.88166618  121.53600311    0.61000001    2.57999992
   18.88500023  113.11699677    0.67000002    2.57999992
   18.88805580  120.05100250    0.64999998    2.57999992
   18.89138794  122.17299652    0.58999997    2.57999992
   18.89472198  119.64199829    0.58999997    2.55999994
   18.89611053  105.28700256    0.55000001    2.55999994
   18.90055466  105.28700256    0.55000001    2.57999992
   18.90472221  118.42600250    0.55000001    2.55999994
   18.90777779  117.37500000    0.55000001    2.57999992
   18.91110992  127.01399994    0.55000001    2.55999994
   18.91444397  128.38699341    0.55000001    2.55999994
   18.91749954  122.61799622    0.55000001    2.55999994
   18.92083359  126.48100281    0.55000001    2.55999994
   18.92416573  125.97899628    0.55000001    2.55999994
   18.92722130  128.12699890    0.58999997    2.55999994
   18.92944336  122.84600067    0.61000001    2.57999992
   18.93083191  128.95100403    0.61000001    2.55999994
   18.93444443  137.81599426    0.63000000    2.55999994
   18.93750000  135.67599487    0.63000000    2.57999992
   18.94333267  135.67599487    0.64999998    2.55999994
   18.94749832  144.35200500    0.67000002    2.55999994
   18.95083427  140.24400330    0.67000002    2.55999994
   18.95388985  135.04299927    0.67000002    2.55999994
   18.95722389  128.19900513    0.64999998    2.55999994
   18.96027946  126.25700378    0.67000002    2.55999994
   18.96277809  126.67600250    0.67000002    2.55999994
   18.96389008  127.86699677    0.67000002    2.55999994
   18.96722221  129.03700256    0.67000002    2.55999994
   18.97027779  131.48899841    0.67000002    2.53999996
   18.97361183  126.89099884    0.67000002    2.55999994
   18.97666740  129.61399841    0.67000002    2.55999994
   18.98000145  136.94000244    0.64999998    2.55999994
   18.98611069  136.94000244    0.63000000    2.55999994
   18.99027824  131.95399475    0.63000000    2.55999994
   18.99361229  124.31400299    0.61000001    2.55999994
   18.99611092  132.65600586    0.61000001    2.55999994
   18.99722290  125.31700134    0.61000001    2.55999994
   19.00055504  127.79499817    0.61000001    2.55999994
   19.00361061  131.28900146    0.58999997    2.55999994
   19.00694466  133.25199890    0.61000001    2.53999996
   19.01000023  139.17199707    0.61000001    2.55999994
   19.01361084  136.58500671    0.61000001    2.53999996
   19.01666641  123.47699738    0.61000001    2.53999996
   19.02000046  126.80999756    0.73000002    2.55999994
   19.02305603  133.24699402    0.73000002    2.55999994
   19.02916718  133.24699402    0.75000000    2.55999994
   19.03305435  133.68099976    0.75000000    2.55999994
   19.03638840  123.15499878    0.67000002    2.55999994
   19.03972244  126.30000305    0.64999998    2.55999994
   19.04277802  130.43800354    0.63000000    2.55999994
   19.04611015  127.70500183    0.63000000    2.55999994
   19.04916573  117.08899689    0.58999997    2.55999994
   19.05249977  124.49700165    0.55000001    2.55999994
   19.05583191  129.92999268    0.56999999    2.55999994
   19.05888748  124.10099792    0.55000001    2.55999994
   19.06222153  124.94599915    0.52999997    2.55999994
   19.06416512  136.65400696    0.52999997    2.55999994
   19.06611061  127.68499756    0.52999997    2.55999994
   19.07194519  127.68499756    0.52999997    2.55999994
   19.07611275  122.23600006    0.55000001    2.55999994
   19.07944489  131.83500671    0.56999999    2.55999994
   19.08277893  121.09500122    0.61000001    2.53999996
   19.08583450  123.73999786    0.61000001    2.55999994
   19.08916664  114.21700287    0.61000001    2.55999994
   19.09250069  116.98200226    0.63000000    2.53999996
   19.09583473  138.78100586    0.63000000    2.53999996
   19.09749985  125.02300262    0.64999998    2.53999996
   19.09944534  132.33299255    0.64999998    2.55999994
   19.10277748  136.15600586    0.67000002    2.53999996
   19.10611153  143.15800476    0.69000000    2.53999996
   19.10916710  129.54699707    0.67000002    2.53999996
   19.11472321  129.54699707    0.64999998    2.53999996
   19.11888885  119.42299652    0.64999998    2.53999996
   19.12222290  126.07299805    0.64999998    2.53999996
   19.12527847  122.12400055    0.63000000    2.53999996
   19.12861061  135.75799561    0.61000001    2.55999994
   19.13111115  129.68699646    0.63000000    2.55999994
   19.13222313  127.62799835    0.63000000    2.55999994
   19.13555527  136.84500122    0.67000002    2.53999996
   19.13861084  126.32199860    0.69000000    2.53999996
   19.14194489  128.28599548    0.70999998    2.53999996
   19.14527702  136.15100098    0.73000002    2.53999996
   19.16833305  136.15100098    0.70999998    2.53999996
   19.17249870  124.63300323    0.70999998    2.53999996
   19.17583275  127.56500244    0.67000002    2.53999996
   19.17916679  129.38900757    0.61000001    2.53999996
   19.18249893  121.43099976    0.61000001    2.53999996
   19.18555450  118.46099854    0.58999997    2.53999996
   19.18888855  124.38099670    0.58999997    2.53999996
   19.19222069  130.96699524    0.56999999    2.53999996
   19.19527626  130.06199646    0.56999999    2.53999996
   19.19861031  121.80899811    0.56999999    2.53999996
   19.19916534  116.28500366    0.56999999    2.53999996
   19.20222282  129.62300110    0.56999999    2.53999996
   19.20527840  123.99500275    0.56999999    2.53999996
   19.21111107  123.99500275    0.55000001    2.53999996
   19.21527863  124.35700226    0.55000001    2.53999996
   19.21861076  123.01300049    0.55000001    2.53999996
   19.22194481  123.26200104    0.55000001    2.53999996
   19.22500038  111.71600342    0.55000001    2.53999996
   19.22833443  129.32899475    0.55000001    2.53999996
   19.23139000  116.08999634    0.55000001    2.53999996
   19.23250008  120.80000305    0.55000001    2.53999996
   19.23527718  122.75099945    0.55000001    2.53999996
   19.23833275  119.44100189    0.55000001    2.53999996
   19.24166679  121.76499939    0.55000001    2.53999996
   19.24500084  131.04400635    0.55000001    2.51999998
   19.24805641  114.18599701    0.55000001    2.53999996
   19.25416756  114.18599701    0.55000001    2.51999998
   19.25833321  120.74400330    0.55000001    2.53999996
   19.26166725  118.58599854    0.55000001    2.53999996
   19.26472282  112.13999939    0.56999999    2.53999996
   19.26583290  109.60800171    0.56999999    2.53999996
   19.26833344  107.99199677    0.55000001    2.53999996
   19.27166557  115.98999786    0.55000001    2.53999996
   19.27472115  120.00499725    0.55000001    2.51999998
   19.27805519  127.82900238    0.58999997    2.51999998
   19.28138924  121.74400330    0.56999999    2.51999998
   19.28444481  111.81500244    0.58999997    2.53999996
