    HOUR (UT)   FLARE FACTOR    SKY TESTER    SUN TESTER
   11.80555534   -1.00000000   -1.00000000   -1.00000000
   11.90055561   -1.00000000   -1.00000000   -1.00000000
   11.92083359   -1.00000000   -1.00000000   -1.00000000
   12.19611073  127.40899658    1.33000004    2.69000006
   12.19916630  128.71499634    1.33000004    2.71000004
   12.20249939  125.37200165    1.33000004    2.71000004
   12.20583344  120.74099731    1.34000003    2.71000004
   12.21944427  120.74099731    1.33000004    2.69000006
   12.22361088  137.83500671    1.28999996    2.71000004
   12.22861099  145.07499695    1.26999998    2.69000006
   12.22916603  127.45300293    1.26999998    2.69000006
   12.23222160  157.17500305    1.25000000    2.71000004
   12.23527813  155.73699951    1.23000002    2.71000004
   12.23861122  152.69299316    1.23000002    2.71000004
   12.24194431  175.78399658    1.21000004    2.71000004
   12.24499989  173.19299316    1.21000004    2.71000004
   12.24833393  140.59599304    1.21000004    2.71000004
   12.25166702  161.49699402    1.23000002    2.71000004
   12.25472260  178.30900574    1.23000002    2.71000004
   12.25805569  167.26400757    1.26999998    2.71000004
   12.26249981  167.26400757    1.25000000    2.71000004
   12.26666641  156.76199341    1.25000000    2.71000004
   12.26972198  178.60800171    1.21000004    2.71000004
   12.27305508  148.08099365    1.19000006    2.69000006
   12.27611065  151.11199951    1.21000004    2.71000004
   12.27944374  145.03100586    1.21000004    2.71000004
   12.28277779  144.67100525    1.21000004    2.73000002
   12.28583336  140.06599426    1.23000002    2.71000004
   12.28916740  131.58299255    1.23000002    2.71000004
   12.29250050  126.45899963    1.25000000    2.71000004
   12.29555607  109.08999634    1.23000002    2.73000002
   12.29750061  124.02999878    1.25000000    2.71000004
   12.29944515  124.45899963    1.25000000    2.71000004
   12.30527782  124.45899963    1.28999996    2.71000004
   12.30944443  109.85900116    1.28999996    2.71000004
   12.31250000  122.46499634    1.28999996    2.73000002
   12.31583309  124.81199646    1.25000000    2.73000002
   12.31916618  115.93299866    1.25000000    2.71000004
   12.32222176  114.94799805    1.23000002    2.73000002
   12.32555580  114.98799896    1.25000000    2.73000002
   12.32888889  122.40899658    1.25000000    2.73000002
   12.33083344  128.26400757    1.26999998    2.71000004
   12.33249950  117.08599854    1.26999998    2.71000004
   12.33555508  123.95500183    1.28999996    2.73000002
   12.33888817  117.04299927    1.26999998    2.71000004
   12.34194374  122.90100098    1.26999998    2.73000002
   12.34805489  122.90100098    1.26999998    2.73000002
   12.35222244  120.20600128    1.26999998    2.71000004
   12.35555553  128.56100464    1.25000000    2.75000000
   12.35861111  105.04699707    1.25000000    2.73000002
   12.36194515  111.11100006    1.25000000    2.73000002
   12.36444473  110.37899780    1.25000000    2.73000002
   12.36555576  119.33999634    1.25000000    2.73000002
   12.36888885  114.77700043    1.25000000    2.73000002
   12.37222195  130.68800354    1.25000000    2.73000002
   12.37527752  126.23600006    1.25000000    2.75000000
   12.37861156  131.70899963    1.25000000    2.73000002
   12.38166714  128.52699280    1.25000000    2.73000002
   12.38500023  128.98199463    1.25000000    2.75000000
   12.39083290  128.98199463    1.23000002    2.73000002
   12.39499950  112.73500061    1.23000002    2.73000002
   12.39777756  118.32499695    1.23000002    2.75000000
   12.39861107  107.96099854    1.23000002    2.73000002
   12.40194416  121.18099976    1.23000002    2.73000002
   12.40527725  135.80000305    1.23000002    2.73000002
   12.40833282  120.12100220    1.23000002    2.73000002
   12.41166592  139.65400696    1.25000000    2.75000000
   12.41499996  132.78900146    1.23000002    2.73000002
   12.41805553  120.22000122    1.23000002    2.73000002
   12.42138958  122.80400085    1.21000004    2.73000002
   12.42444515  116.85500336    1.23000002    2.73000002
   12.42777824  112.27700043    1.19000006    2.73000002
   12.43388939  112.27700043    1.16999996    2.75000000
   12.43805599  111.84100342    1.16999996    2.73000002
   12.44111156  126.93000031    1.16999996    2.75000000
   12.44444466  111.72399902    1.16999996    2.73000002
   12.44750023  128.33500671    1.16999996    2.73000002
   12.45083332  112.48500061    1.19000006    2.75000000
   12.45416641  119.00099945    1.19000006    2.73000002
   12.45722198  118.38300323    1.19000006    2.75000000
   12.46055508  114.27400208    1.21000004    2.75000000
   12.46388912  128.60099792    1.19000006    2.75000000
   12.46472168  129.51199341    1.19000006    2.73000002
   12.46749973  126.42400360    1.19000006    2.75000000
   12.47055531  126.52899933    1.19000006    2.75000000
   12.47666645  126.52899933    1.19000006    2.73000002
   12.48083305  125.21600342    1.16999996    2.73000002
   12.48388958  122.14600372    1.16999996    2.75000000
   12.48722267  115.21700287    1.16999996    2.75000000
   12.49055576  119.31999969    1.16999996    2.75000000
   12.49361134  128.19400024    1.16999996    2.73000002
   12.49694443  114.00299835    1.16999996    2.75000000
   12.49805546  118.09999847    1.16999996    2.73000002
   12.50055599  133.53799438    1.16999996    2.73000002
   12.50361156  132.26699829    1.19000006    2.75000000
   12.50694466  115.66799927    1.16999996    2.73000002
   12.51000023  127.53199768    1.19000006    2.75000000
   12.51333332  127.35900116    1.16999996    2.75000000
   12.51944447  127.35900116    1.16999996    2.75000000
   12.52361107  125.29100037    1.19000006    2.75000000
   12.52694416  126.93099976    1.19000006    2.73000002
   12.52999973  122.85299683    1.16999996    2.75000000
   12.53166676  109.13300323    1.16999996    2.73000002
   12.53361130  126.36199951    1.16999996    2.75000000
   12.53694534  128.06199646    1.16999996    2.75000000
   12.54027843  120.88500214    1.16999996    2.75000000
   12.54333401  109.62400055    1.16999996    2.75000000
   12.54666710  109.63400269    1.16999996    2.76999998
   12.55000019  103.62000275    1.16999996    2.75000000
   12.55305576  116.87799835    1.16999996    2.75000000
   12.55638885  109.82900238    1.16999996    2.73000002
   12.56250000  109.82900238    1.16999996    2.75000000
   12.56638908  126.94599915    1.16999996    2.75000000
   12.56972218  126.69100189    1.16999996    2.73000002
   12.57305527  128.28900146    1.16999996    2.75000000
   12.57611084  124.54799652    1.16999996    2.75000000
   12.57944393  126.02700043    1.16999996    2.75000000
   12.58249950  127.27799988    1.16999996    2.75000000
   12.58583260  121.60299683    1.16999996    2.76999998
   12.58916664  124.13300323    1.19000006    2.76999998
   12.59222221  125.33300018    1.19000006    2.76999998
   12.59555531  118.48300171    1.23000002    2.75000000
   12.59833336  121.67600250    1.23000002    2.75000000
   12.59916592  120.30500031    1.25000000    2.73000002
   12.60527802  120.30500031    1.25000000    2.75000000
   12.60944462  133.22500610    1.23000002    2.75000000
   12.61250019  126.36399841    1.23000002    2.76999998
   12.61583328  128.86599731    1.25000000    2.75000000
   12.61888885  132.88999939    1.23000002    2.75000000
   12.62222195  130.90499878    1.23000002    2.75000000
   12.62555599  138.34899902    1.23000002    2.75000000
   12.62861156  127.08799744    1.25000000    2.75000000
   12.63166714  134.43600464    1.23000002    2.75000000
   12.63222218  127.83699799    1.25000000    2.75000000
   12.63555527  136.05799866    1.23000002    2.76999998
   12.63888836  118.45600128    1.23000002    2.75000000
   12.64194393  161.52400208    1.23000002    2.75000000
   12.64805508  161.52400208    1.19000006    2.75000000
   12.65222168  144.64100647    1.19000006    2.75000000
   12.65527725  164.79299927    1.19000006    2.76999998
   12.65861034  143.13600159    1.19000006    2.75000000
   12.66194439  137.48100281    1.21000004    2.75000000
   12.66499996  133.93600464    1.19000006    2.75000000
   12.66527748  141.81799316    1.19000006    2.75000000
   12.66861153  137.15600586    1.21000004    2.76999998
   12.67194462  142.13999939    1.21000004    2.75000000
   12.67500019  152.18400574    1.21000004    2.75000000
   12.67833328  130.96200562    1.21000004    2.75000000
   12.68166733  132.92900085    1.21000004    2.75000000
   12.68472195  120.99600220    1.21000004    2.76999998
   12.69083309  120.99600220    1.23000002    2.76999998
   12.69527817  140.18099976    1.23000002    2.75000000
   12.69833374  136.52099609    1.23000002    2.75000000
   12.69861126  130.83399963    1.23000002    2.75000000
   12.70194435  134.58700562    1.23000002    2.76999998
   12.70527744  115.90100098    1.21000004    2.75000000
   12.70833302  121.62799835    1.21000004    2.75000000
   12.71166611  145.48599243    1.21000004    2.76999998
   12.71500015  134.09800720    1.21000004    2.75000000
   12.71805477  147.10299683    1.19000006    2.76999998
   12.72138882  131.49099731    1.19000006    2.75000000
   12.72444439  162.44900513    1.19000006    2.75000000
   12.72777748  128.94200134    1.16999996    2.76999998
   12.73388958  128.94200134    1.14999998    2.76999998
   12.73777771  141.97999573    1.14999998    2.76999998
   12.74111176  141.05700684    1.13000000    2.76999998
   12.74444485  134.55400085    1.13000000    2.76999998
   12.74750042  133.80700684    1.13000000    2.75000000
   12.75083351  128.99499512    1.13000000    2.75000000
   12.75416660  124.06400299    1.13000000    2.76999998
   12.75722218  140.64300537    1.13000000    2.76999998
   12.76055527  127.11199951    1.13000000    2.76999998
   12.76361084  137.77299500    1.11000001    2.76999998
   12.76500034  154.36099243    1.11000001    2.76999998
   12.76749992  117.59799957    1.11000001    2.78999996
   12.77055550  134.09800720    1.13000000    2.78999996
   12.77666664  134.09800720    1.13000000    2.76999998
   12.78083324  132.86999512    1.11000001    2.76999998
   12.78388977  140.99499512    1.11000001    2.76999998
   12.78722286  126.02300262    1.11000001    2.76999998
   12.79055595  129.14799500    1.11000001    2.78999996
   12.79361153  126.31900024    1.11000001    2.78999996
   12.79694462  128.12399292    1.13000000    2.78999996
   12.79833412  120.44400024    1.14999998    2.76999998
   12.80055618  128.45599365    1.14999998    2.76999998
   12.80361176  117.56199646    1.14999998    2.78999996
   12.80694485  120.46399689    1.14999998    2.78999996
   12.81000042  115.76200104    1.14999998    2.76999998
   12.81333351  129.18899536    1.16999996    2.75000000
   12.81944466  129.18899536    1.19000006    2.76999998
   12.82361126  129.58200073    1.19000006    2.78999996
   12.82694435  131.85200500    1.19000006    2.78999996
   12.82999992  126.36000061    1.19000006    2.76999998
   12.83194447  114.30100250    1.21000004    2.76999998
   12.83361053  122.88099670    1.19000006    2.76999998
   12.83694458  124.86499786    1.21000004    2.78999996
   12.84027767  128.26199341    1.19000006    2.76999998
   12.84333324  130.81799316    1.19000006    2.78999996
   12.84666634  121.26699829    1.21000004    2.75000000
   12.84972191  132.55099487    1.19000006    2.78999996
   12.85305595  130.96699524    1.19000006    2.76999998
   12.85638905  123.79299927    1.19000006    2.78999996
   12.86222267  123.79299927    1.19000006    2.78999996
   12.86638927  131.61599731    1.19000006    2.76999998
   12.86972237  147.57099915    1.19000006    2.78999996
   12.87305546  133.85899353    1.19000006    2.78999996
   12.87611103  146.52799988    1.19000006    2.76999998
   12.87944412  155.44700623    1.21000004    2.78999996
   12.88249969  137.43499756    1.21000004    2.76999998
   12.88583279  148.04400635    1.19000006    2.76999998
   12.88916683  153.73899841    1.21000004    2.76999998
   12.89222240  165.29699707    1.21000004    2.78999996
   12.89555550  167.79200745    1.21000004    2.76999998
   12.89861107  138.94799805    1.23000002    2.76999998
   12.89916611  151.05400085    1.23000002    2.76999998
   12.90499973  151.05400085    1.23000002    2.76999998
   12.90916634  139.59500122    1.21000004    2.78999996
   12.91249943  131.28700256    1.21000004    2.76999998
   12.91583252  136.18099976    1.23000002    2.78999996
   12.91888905  144.50000000    1.23000002    2.78999996
   12.92222214  132.55499268    1.23000002    2.78999996
   12.92527771  139.02400208    1.23000002    2.76999998
   12.92861176  120.28199768    1.23000002    2.78999996
   12.93194485  131.03900146    1.21000004    2.76999998
   12.93222237  136.48599243    1.21000004    2.76999998
   12.93555546  143.80499268    1.19000006    2.78999996
   12.93888855  137.02999878    1.19000006    2.78999996
   12.94194412  147.17900085    1.19000006    2.76999998
   12.94805527  147.17900085    1.19000006    2.78999996
   12.95222187  134.98800659    1.16999996    2.78999996
   12.95527744  135.17300415    1.16999996    2.78999996
   12.95861053  128.78500366    1.16999996    2.78999996
   12.96166611  135.28300476    1.13000000    2.78999996
   12.96500015  139.14399719    1.13000000    2.76999998
   12.96555519  136.67700195    1.11000001    2.78999996
   12.96888828  145.16499329    1.09000003    2.78999996
   12.97194386  139.86799622    1.09000003    2.76999998
   12.97527695  139.48100281    1.07000005    2.78999996
   12.97861099  145.77799988    1.05999994    2.78999996
   12.98166656  128.62899780    1.05999994    2.80999994
   12.98500061  133.28799438    1.03999996    2.78999996
   12.99083328  133.28799438    1.03999996    2.78999996
   12.99499989  137.65199280    1.03999996    2.80999994
   12.99805546  145.30400085    1.05999994    2.78999996
   12.99888897  136.70100403    1.05999994    2.78999996
   13.00194454  135.86300659    1.05999994    2.80999994
   13.00500011  136.83999634    1.03999996    2.78999996
   13.00833321  149.39500427    1.03999996    2.78999996
   13.01166630  145.85299683    1.03999996    2.78999996
   13.01472187  154.53399658    1.05999994    2.78999996
   13.01805496  163.57400513    1.05999994    2.80999994
   13.02111053  150.60899353    1.03999996    2.78999996
   13.02444458  149.20399475    1.03999996    2.78999996
   13.02777767  145.56700134    1.03999996    2.80999994
   13.03361130  145.56700134    1.03999996    2.78999996
   13.03777790  143.07499695    1.03999996    2.78999996
   13.04111195  143.71699524    1.05999994    2.78999996
   13.04416752  141.85699463    1.01999998    2.80999994
   13.04750061  142.68299866    1.03999996    2.78999996
   13.05083370  147.94000244    1.03999996    2.80999994
   13.05388927  144.37500000    1.05999994    2.78999996
   13.05722237  149.22900391    1.03999996    2.80999994
   13.06055546  149.71299744    1.03999996    2.80999994
   13.06361103  147.04800415    1.05999994    2.80999994
   13.06555557  137.73300171    1.07000005    2.78999996
   13.06750011  145.05400085    1.07000005    2.78999996
   13.07055569  151.40600586    1.05999994    2.80999994
   13.07638836  151.40600586    1.05999994    2.80999994
   13.08055592  142.45399475    1.01999998    2.80999994
   13.08388901  139.62199402    1.00000000    2.80999994
   13.08722210  147.79499817    1.01999998    2.82999992
   13.09027767  148.65499878    1.00000000    2.80999994
   13.09361076  149.18899536    1.01999998    2.80999994
   13.09666634  137.88299561    1.01999998    2.80999994
   13.09888840  148.99699402    1.01999998    2.80999994
   13.10055637  153.61300659    1.01999998    2.82999992
   13.10361195  128.91000366    1.03999996    2.78999996
   13.10694504  122.54499817    1.03999996    2.80999994
   13.11027813  147.04899597    1.03999996    2.78999996
   13.11333370  125.00499725    1.03999996    2.78999996
   13.11944485  125.00499725    1.05999994    2.80999994
   13.12361145  129.71299744    1.05999994    2.80999994
   13.12666702  143.12899780    1.05999994    2.80999994
   13.13000011  142.66999817    1.05999994    2.80999994
   13.13222218  145.20700073    1.07000005    2.80999994
   13.13361073  154.66600037    1.01999998    2.84999990
   13.13666630  146.94299316    1.00000000    2.80999994
   13.14000034  137.54800415    1.01999998    2.78999996
   13.14333344  141.25999451    1.01999998    2.80999994
   13.14638901  148.47500610    1.05999994    2.80999994
   13.14972210  138.58000183    1.05999994    2.80999994
   13.15277767  144.13499451    1.05999994    2.80999994
   13.15611076  128.96400452    1.05999994    2.80999994
   13.16222191  128.96400452    1.07000005    2.78999996
   13.16638851  129.43299866    1.07000005    2.80999994
   13.16944504  135.21699524    1.09000003    2.80999994
   13.17277813  149.18499756    1.11000001    2.80999994
   13.17611122  148.43299866    1.11000001    2.80999994
   13.17916679  135.11599731    1.13000000    2.80999994
   13.18249989  144.43200684    1.13000000    2.78999996
   13.18583298  131.88600159    1.13000000    2.80999994
   13.18888855  137.04400635    1.13000000    2.78999996
   13.19222260  140.03399658    1.13000000    2.80999994
   13.19527817  141.54899597    1.11000001    2.80999994
   13.21277714  143.95700073    1.11000001    2.80999994
   13.21694374  143.95700073    1.09000003    2.82999992
   13.22111034  141.28199768    1.07000005    2.80999994
   13.22444439  129.20700073    1.09000003    2.82999992
   13.22749996  146.74800110    1.09000003    2.80999994
   13.23083305  147.81100464    1.07000005    2.82999992
   13.23416710  126.45600128    1.07000005    2.82999992
   13.23722267  143.58500671    1.09000003    2.80999994
   13.24055576  138.60499573    1.11000001    2.80999994
   13.24388885  119.57800293    1.11000001    2.80999994
   13.24611092  120.11900330    1.11000001    2.80999994
   13.24750042  133.00500488    1.11000001    2.80999994
   13.25055599  128.07200623    1.11000001    2.80999994
   13.25388908  128.50000000    1.09000003    2.80999994
   13.26000023  128.50000000    1.09000003    2.80999994
   13.26388931  136.76699829    1.09000003    2.82999992
   13.26722240  127.09400177    1.11000001    2.80999994
   13.27055550  127.99700165    1.13000000    2.80999994
   13.27361107  134.64799500    1.13000000    2.82999992
   13.27694416  146.22599792    1.14999998    2.80999994
   13.27944374  139.74200439    1.16999996    2.80999994
   13.28055573  136.28100586    1.16999996    2.80999994
   13.28361130  153.53799438    1.16999996    2.80999994
   13.28694534  135.38800049    1.19000006    2.80999994
   13.29027843  148.37699890    1.16999996    2.80999994
   13.29333401  140.41499329    1.14999998    2.80999994
   13.29666710  138.97300720    1.13000000    2.82999992
   13.30277824  138.97300720    1.13000000    2.80999994
   13.30694485  141.30200195    1.09000003    2.82999992
   13.31000042  124.49099731    1.09000003    2.82999992
   13.31277752  139.12899780    1.09000003    2.84999990
   13.31388950  139.75599670    1.11000001    2.82999992
   13.31694412  133.49200439    1.09000003    2.82999992
   13.32027817  133.10099792    1.09000003    2.80999994
   13.32361126  125.31999969    1.09000003    2.82999992
   13.32666683  134.19200134    1.09000003    2.82999992
   13.32999992  151.74099731    1.09000003    2.82999992
   13.33305550  143.56100464    1.09000003    2.80999994
   13.33638859  157.40499878    1.09000003    2.82999992
   13.33972168  136.10000610    1.09000003    2.80999994
   13.34555531  136.10000610    1.09000003    2.82999992
   13.34972191  144.33299255    1.11000001    2.80999994
   13.35305595  156.05900574    1.13000000    2.82999992
   13.35611153  158.03199768    1.13000000    2.80999994
   13.35944462  145.92300415    1.13000000    2.80999994
   13.36250019  137.38099670    1.13000000    2.80999994
   13.36583328  145.27699280    1.13000000    2.80999994
   13.36916637  151.06799316    1.14999998    2.82999992
   13.37222195  144.32699585    1.16999996    2.80999994
   13.37555599  146.91900635    1.19000006    2.80999994
   13.37888908  139.05200195    1.19000006    2.82999992
   13.38055611  139.55200195    1.19000006    2.82999992
   13.38249969  155.94900513    1.19000006    2.82999992
   13.38833332  155.94900513    1.19000006    2.80999994
   13.39249992  147.47799683    1.19000006    2.80999994
   13.39583302  149.01699829    1.19000006    2.82999992
   13.39888859  151.01100159    1.19000006    2.80999994
   13.40222168  138.22999573    1.19000006    2.82999992
   13.40555477  155.16200256    1.21000004    2.82999992
   13.40861034  161.86599731    1.21000004    2.78999996
   13.41194439  137.14300537    1.23000002    2.82999992
   13.41388893  146.11500549    1.21000004    2.82999992
   13.41555500  151.65800476    1.21000004    2.82999992
   13.41888905  150.75399780    1.23000002    2.82999992
   13.42194462  156.70199585    1.23000002    2.80999994
   13.42527771  156.42900085    1.23000002    2.80999994
   13.43111134  156.42900085    1.23000002    2.82999992
   13.43527794  154.61599731    1.23000002    2.82999992
   13.43861103  164.58599854    1.21000004    2.80999994
   13.44194412  152.55799866    1.19000006    2.82999992
   13.44499969  154.06399536    1.19000006    2.82999992
   13.44750023  147.17300415    1.19000006    2.82999992
   13.44888878  142.87600708    1.19000006    2.82999992
   13.45194435  149.22500610    1.16999996    2.82999992
   13.45527744  145.52499390    1.14999998    2.82999992
   13.45833302  146.31500244    1.13000000    2.84999990
   13.46166611  145.88699341    1.11000001    2.82999992
   13.46500015  129.38299561    1.11000001    2.82999992
   13.46805477  141.75900269    1.09000003    2.80999994
   13.47416592  141.75900269    1.09000003    2.82999992
   13.47833252  142.67100525    1.07000005    2.82999992
   13.48083305  147.41600037    1.07000005    2.82999992
   13.48194408  145.39599609    1.09000003    2.82999992
   13.48500061  158.32800293    1.07000005    2.84999990
   13.48833370  150.21000671    1.07000005    2.82999992
   13.49166679  152.82499695    1.07000005    2.84999990
   13.49472237  155.42799377    1.05999994    2.82999992
   13.49805546  159.44500732    1.05999994    2.82999992
   13.50111103  160.03100586    1.01999998    2.82999992
   13.50444412  157.21699524    1.01999998    2.82999992
   13.50777817  160.02999878    1.01999998    2.84999990
   13.51083374  172.46299744    1.01999998    2.84999990
   13.51694393  172.46299744    0.98000002    2.84999990
   13.52111053  148.16000366    1.00000000    2.84999990
   13.52416611  155.86500549    0.98000002    2.82999992
   13.52750015  155.16000366    1.00000000    2.82999992
   13.53083324  139.01300049    1.00000000    2.82999992
   13.53388977  142.27299500    1.01999998    2.82999992
   13.53722286  146.37699890    1.03999996    2.82999992
   13.54055595  156.92399597    1.03999996    2.84999990
   13.54361153  151.88400269    1.01999998    2.82999992
   13.54694462  129.57400513    1.01999998    2.84999990
   13.54777813  144.24000549    1.01999998    2.82999992
   13.55055618  148.94500732    1.00000000    2.84999990
   13.55388927  153.67999268    0.98000002    2.86999989
   13.55972195  153.67999268    0.95999998    2.84999990
   13.56388950  138.09199524    0.98000002    2.84999990
   13.56722260  171.03999329    0.98000002    2.82999992
   13.57027817  148.16000366    0.98000002    2.84999990
   13.57361126  133.06399536    1.00000000    2.84999990
   13.57694435  149.69999695    0.98000002    2.84999990
   13.57999992  148.63699341    0.98000002    2.86999989
   13.58111095  147.21000671    0.98000002    2.84999990
   13.58361053  154.18099976    1.00000000    2.82999992
   13.58694458  150.93600464    1.01999998    2.82999992
   13.59000015  158.03100586    1.03999996    2.84999990
   13.59333324  151.53300476    1.03999996    2.82999992
   13.59638882  140.29299927    1.01999998    2.82999992
   13.60249996  140.29299927    1.03999996    2.84999990
   13.60666752  147.95899963    1.03999996    2.84999990
   13.61000061  156.28999329    1.03999996    2.82999992
   13.61333370  150.17599487    1.01999998    2.84999990
   13.61472225  147.17900085    1.01999998    2.84999990
   13.61694431  163.35200500    1.01999998    2.84999990
   13.61999989  147.45199585    1.00000000    2.84999990
   13.62333393  139.94700623    1.00000000    2.84999990
   13.62638855  137.76100159    1.00000000    2.84999990
   13.62972260  148.05799866    1.00000000    2.84999990
   13.63305569  146.44200134    1.00000000    2.84999990
   13.63611126  145.27699280    1.01999998    2.84999990
   13.63944435  146.65600586    1.03999996    2.82999992
   13.64555550  146.65600586    1.03999996    2.84999990
   13.64972210  144.34899902    1.01999998    2.84999990
   13.65277767  153.80999756    1.01999998    2.84999990
   13.65611076  166.84399414    1.01999998    2.84999990
   13.65916634  148.09899902    0.98000002    2.86999989
   13.66249943  153.00000000    1.00000000    2.86999989
   13.66583252  152.31399536    0.98000002    2.86999989
   13.66888905  143.91799927    0.98000002    2.84999990
   13.67222214  172.81500244    0.95999998    2.82999992
   13.67555618  153.77499390    0.95999998    2.82999992
   13.67861176  162.94900513    0.95999998    2.84999990
   13.68138885  173.15600586    0.95999998    2.86999989
   13.68249989  161.95100403    0.98000002    2.84999990
   13.68833351  161.95100403    0.98000002    2.84999990
   13.69250011  170.81399536    0.98000002    2.84999990
   13.69555569  165.72399902    1.00000000    2.86999989
   13.69888878  149.17999268    1.00000000    2.84999990
   13.70222187  167.34199524    1.00000000    2.84999990
   13.70527744  184.30099487    1.01999998    2.84999990
   13.70861053  179.48199463    1.03999996    2.84999990
   13.71194458  172.54499817    1.07000005    2.84999990
   13.71472168  159.07800293    1.09000003    2.84999990
   13.71555519  162.66600037    1.11000001    2.82999992
   13.71861076  156.30099487    1.13000000    2.82999992
   13.72194386  170.65199280    1.13000000    2.84999990
   13.72527695  159.93899536    1.11000001    2.84999990
   13.73111057  159.93899536    1.11000001    2.84999990
   13.73527813  172.44200134    1.09000003    2.84999990
   13.73861122  142.64700317    1.09000003    2.86999989
   13.74166679  164.74200439    1.07000005    2.84999990
   13.74499989  170.03799438    1.07000005    2.84999990
   13.74805546  163.52799988    1.09000003    2.82999992
   13.74861145  178.80999756    1.09000003    2.82999992
   13.75166702  168.13000488    1.09000003    2.84999990
   13.75500011  170.23399353    1.09000003    2.82999992
   13.75805569  177.95399475    1.09000003    2.84999990
   13.76138878  187.00700378    1.11000001    2.84999990
   13.76472187  168.92500305    1.11000001    2.84999990
   13.76777744  160.30499268    1.11000001    2.82999992
   13.77388859  160.30499268    1.09000003    2.84999990
   13.77805519  174.30299377    1.07000005    2.84999990
   13.78138828  152.87199402    1.07000005    2.84999990
   13.78194427  171.11799622    1.07000005    2.84999990
   13.78500080  158.01300049    1.07000005    2.84999990
   13.78833389  169.55499268    1.07000005    2.84999990
   13.79138947  142.53300476    1.05999994    2.84999990
   13.79472256  174.08000183    1.05999994    2.84999990
   13.79805565  163.58200073    1.05999994    2.84999990
   13.80111122  179.83399963    1.07000005    2.84999990
   13.80444431  160.56199646    1.07000005    2.84999990
   13.80777836  167.88400269    1.05999994    2.84999990
   13.81083393  178.53999329    1.09000003    2.84999990
   13.81694412  178.53999329    1.09000003    2.86999989
   13.82111073  180.52000427    1.09000003    2.84999990
   13.82416630  178.35299683    1.09000003    2.84999990
   13.82750034  175.96000671    1.09000003    2.84999990
   13.83055592  182.89199829    1.07000005    2.84999990
   13.83388901  154.81100464    1.03999996    2.84999990
   13.83722210  163.05599976    1.03999996    2.84999990
   13.84027767  177.36399841    1.01999998    2.84999990
   13.84361076  164.14700317    1.01999998    2.84999990
   13.84666634  165.84500122    1.00000000    2.86999989
   13.84805489  157.74200439    1.00000000    2.86999989
   13.85055637  154.71400452    1.00000000    2.84999990
   13.85361195  160.19000244    1.01999998    2.84999990
   13.85972214  160.19000244    1.03999996    2.84999990
   13.86388969  155.92100525    1.03999996    2.84999990
   13.86694431  163.29400635    1.03999996    2.84999990
   13.87027836  156.45399475    1.05999994    2.84999990
   13.87361145  167.35699463    1.03999996    2.84999990
   13.87666702  159.01199341    1.03999996    2.84999990
   13.88000011  174.69900513    1.00000000    2.84999990
   13.88138866  180.41000366    1.00000000    2.84999990
   13.88361073  173.97399902    1.00000000    2.84999990
   13.88666630  159.88099670    1.00000000    2.86999989
   13.89000034  152.84899902    0.98000002    2.84999990
   13.89333344  166.33999634    0.98000002    2.84999990
   13.89638901  161.95100403    0.95999998    2.84999990
   13.90249920  161.95100403    0.95999998    2.86999989
   13.90666676  138.00000000    0.94000000    2.86999989
   13.90999985  147.73699951    0.92000002    2.86999989
   13.91305542  161.81300354    0.94000000    2.86999989
   13.91499996  149.93299866    0.94000000    2.86999989
   13.91666698  160.71400452    0.94000000    2.86999989
   13.92000008  143.06799316    0.94000000    2.84999990
   13.92333412  161.50999451    0.94000000    2.86999989
   13.92638874  149.98599243    0.95999998    2.84999990
   13.92972279  135.86599731    0.98000002    2.86999989
   13.93305588  147.04100037    1.00000000    2.84999990
   13.93611145  154.26800537    1.03999996    2.84999990
   13.93944454  135.40899658    1.05999994    2.84999990
   13.94527817  135.40899658    1.07000005    2.84999990
   13.94944477  166.25500488    1.09000003    2.84999990
   13.95277786  157.30400085    1.11000001    2.84999990
   13.95611095  150.93600464    1.11000001    2.86999989
   13.95916653  153.22700500    1.11000001    2.84999990
   13.96249962  154.11399841    1.11000001    2.84999990
   13.96555519  147.19099426    1.11000001    2.84999990
   13.96888828  149.68600464    1.13000000    2.84999990
   13.97222137  146.92100525    1.11000001    2.84999990
   13.97527695  142.95599365    1.11000001    2.84999990
   13.97861099  157.19799805    1.09000003    2.84999990
   13.98166656  148.92300415    1.09000003    2.84999990
   13.98222160  145.98100281    1.09000003    2.84999990
   13.98833370  145.98100281    1.07000005    2.86999989
   13.99222279  143.52000427    1.07000005    2.84999990
   13.99555588  157.70899963    1.05999994    2.84999990
   13.99888897  147.04800415    1.05999994    2.86999989
   14.00194454  157.76199341    1.05999994    2.86999989
   14.00527763  150.05499268    1.05999994    2.84999990
   14.00861073  154.98300171    1.05999994    2.84999990
   14.01166630  156.05200195    1.07000005    2.86999989
   14.01500034  168.32299805    1.05999994    2.86999989
   14.01527786  161.59800720    1.05999994    2.86999989
   14.01861095  159.39399719    1.05999994    2.84999990
   14.02194405  160.75799561    1.05999994    2.84999990
   14.02499962  169.79600525    1.03999996    2.84999990
   14.03111076  169.79600525    1.01999998    2.84999990
   14.03527832  188.58999634    1.00000000    2.82999992
   14.03833389  160.90100098    0.98000002    2.86999989
   14.04166698  164.43899536    0.95999998    2.84999990
   14.04500008  169.04200745    0.95999998    2.86999989
   14.04805565  169.57400513    0.94000000    2.86999989
   14.04861164  163.49299622    0.92000002    2.86999989
   14.05194473  160.40100098    0.88000000    2.89000010
   14.05500031  196.73399353    0.88000000    2.86999989
   14.05833340  160.20899963    0.88000000    2.86999989
   14.06166649  181.07499695    0.88000000    2.86999989
   14.06472206  164.44799805    0.88000000    2.86999989
   14.06805515  165.77600098    0.88000000    2.86999989
   14.07388878  165.77600098    0.86000001    2.86999989
   14.07805538  156.81900024    0.81999999    2.89000010
   14.08138847  156.72700500    0.79000002    2.86999989
   14.08194447  167.72000122    0.79000002    2.89000010
   14.08500004  160.40199280    0.79000002    2.86999989
   14.08805561  187.96800232    0.76999998    2.89000010
   14.09138870  162.44799805    0.75000000    2.89000010
   14.09472179  167.98500061    0.73000002    2.89000010
   14.09777737  182.99299622    0.70999998    2.89000010
   14.10111141  184.92199707    0.70999998    2.89000010
   14.10444450  185.01199341    0.73000002    2.89000010
   14.10750008  154.80299377    0.70999998    2.89000010
   14.11083412  161.42500305    0.73000002    2.89000010
   14.11666679  161.42500305    0.75000000    2.89000010
   14.12083340  186.00900269    0.76999998    2.86999989
   14.12416649  156.36900330    0.76999998    2.89000010
   14.12722206  171.47999573    0.79000002    2.86999989
   14.13055611  158.60099792    0.79000002    2.89000010
   14.13388920  175.55499268    0.80000001    2.89000010
   14.13694477  151.32499695    0.80000001    2.89000010
   14.14027786  160.69299316    0.80000001    2.86999989
   14.14361095  173.69000244    0.80000001    2.86999989
   14.14666653  147.94799805    0.80000001    2.86999989
   14.14861107  169.50999451    0.80000001    2.86999989
   14.15055561  150.09100342    0.80000001    2.86999989
   14.15388870  166.94000244    0.80000001    2.89000010
   14.15972137  166.94000244    0.79000002    2.86999989
   14.16361046  174.65600586    0.79000002    2.89000010
   14.16694450  186.61500549    0.79000002    2.89000010
   14.17027855  173.05799866    0.76999998    2.86999989
   14.17333412  165.38800049    0.76999998    2.89000010
   14.17666721  157.79499817    0.76999998    2.86999989
   14.17972279  189.17799377    0.79000002    2.89000010
   14.18194485  189.89900208    0.76999998    2.89000010
   14.18361092  186.64100647    0.79000002    2.89000010
   14.18666649  171.67900085    0.79000002    2.89000010
   14.19000053  178.90400696    0.79000002    2.89000010
   14.19333363  172.53300476    0.80000001    2.89000010
   14.19638920  191.58399963    0.79000002    2.89000010
   14.20249939  191.58399963    0.80000001    2.89000010
   14.20666695  172.00999451    0.80000001    2.89000010
   14.20972157  181.73199463    0.81999999    2.86999989
   14.21305561  191.52200317    0.81999999    2.86999989
   14.22999954  177.34199524    0.80000001    2.89000010
   14.23305511  169.86999512    0.80000001    2.86999989
   14.23638916  192.63699341    0.80000001    2.89000010
   14.23944473  184.36300659    0.80000001    2.89000010
   14.24555588  184.36300659    0.80000001    2.89000010
   14.24972248  177.28900146    0.80000001    2.89000010
   14.25277805  150.78700256    0.79000002    2.89000010
   14.25611115  151.88999939    0.79000002    2.89000010
   14.25916672  191.66700745    0.76999998    2.91000009
   14.26249981  167.32400513    0.76999998    2.86999989
   14.26333332  179.20199585    0.76999998    2.89000010
   14.26611137  183.14900208    0.76999998    2.89000010
   14.26916599  168.39100647    0.75000000    2.89000010
   14.27250004  174.95799255    0.75000000    2.89000010
   14.27583313  165.89799500    0.73000002    2.86999989
   14.27888870  175.75500488    0.75000000    2.89000010
   14.28222179  186.75799561    0.75000000    2.91000009
   14.28833389  186.75799561    0.75000000    2.89000010
   14.29250050  164.03599548    0.75000000    2.89000010
   14.29583359  171.47900391    0.75000000    2.89000010
   14.29666710  172.09199524    0.75000000    2.89000010
   14.29944515  172.81799316    0.75000000    2.89000010
   14.30249977  176.59899902    0.75000000    2.89000010
   14.30583382  176.50700378    0.76999998    2.89000010
   14.30916691  197.58200073    0.76999998    2.89000010
   14.31222248  171.06100464    0.81999999    2.89000010
   14.31555557  168.48100281    0.81999999    2.86999989
   14.31888866  188.66799927    0.81999999    2.86999989
   14.32194424  172.50900269    0.86000001    2.89000010
   14.32527733  167.28199768    0.86000001    2.89000010
   14.33111095  167.28199768    0.86000001    2.86999989
   14.33527756  175.08399963    0.86000001    2.89000010
   14.33861065  184.38999939    0.86000001    2.86999989
   14.34166622  168.65299988    0.83999997    2.86999989
   14.34499931  182.87800598    0.83999997    2.89000010
   14.34833336  170.08700562    0.81999999    2.89000010
   14.35138893  174.72900391    0.80000001    2.89000010
   14.35472298  172.73500061    0.80000001    2.89000010
   14.35805607  176.12600708    0.79000002    2.89000010
   14.36111164  175.98399353    0.79000002    2.89000010
   14.36333370  173.86700439    0.79000002    2.89000010
   14.36500072  173.88900757    0.79000002    2.89000010
   14.36805534  156.13600159    0.79000002    2.89000010
   14.37416649  156.13600159    0.81999999    2.89000010
   14.37805557  167.17799377    0.81999999    2.86999989
   14.38138866  167.74699402    0.81999999    2.89000010
   14.38694477  188.52400208    0.80000001    2.89000010
   14.39027786  184.05200195    0.79000002    2.89000010
   14.39361095  178.33799744    0.79000002    2.86999989
   14.39666653  180.31300354    0.80000001    2.86999989
   14.39722252  166.94700623    0.80000001    2.86999989
   14.40305519  185.72399902    0.80000001    2.89000010
   14.40611076  183.63400269    0.81999999    2.89000010
   14.40944386  172.52200317    0.80000001    2.91000009
   14.41277695  179.40699768    0.80000001    2.89000010
   14.41694450  179.40699768    0.80000001    2.89000010
   14.42111111  171.47599792    0.80000001    2.89000010
   14.42416668  179.69400024    0.80000001    2.89000010
   14.42750072  167.81500244    0.80000001    2.89000010
   14.43000031  176.63400269    0.81999999    2.86999989
   14.43111134  165.13200378    0.81999999    2.89000010
   14.43416691  165.71299744    0.81999999    2.89000010
   14.43750000  166.91499329    0.81999999    2.86999989
   14.44083309  171.65699768    0.81999999    2.89000010
   14.44388866  169.36500549    0.81999999    2.89000010
   14.44722271  170.82899475    0.81999999    2.89000010
   14.45027733  175.88999939    0.81999999    2.86999989
   14.45361137  160.52400208    0.81999999    2.89000010
   14.45972157  160.52400208    0.80000001    2.89000010
   14.46388912  168.78700256    0.79000002    2.89000010
   14.46694374  156.28799438    0.76999998    2.89000010
   14.47027779  189.31500244    0.76999998    2.89000010
   14.47361088  166.17300415    0.73000002    2.89000010
   14.47666645  167.80400085    0.70999998    2.89000010
   14.47999954  165.68099976    0.70999998    2.89000010
   14.48333359  167.59800720    0.73000002    2.89000010
   14.48638916  158.35600281    0.73000002    2.89000010
   14.48972225  151.34100342    0.73000002    2.91000009
   14.49277782  167.47799683    0.70999998    2.89000010
   14.49611092  167.70399475    0.69000000    2.89000010
   14.49666691  189.27099609    0.69000000    2.89000010
   14.50249958  189.27099609    0.67000002    2.89000010
   14.50666714  164.70700073    0.67000002    2.89000010
   14.51000023  159.33799744    0.67000002    2.89000010
   14.51305580  168.79600525    0.64999998    2.89000010
   14.51638889  161.92700195    0.64999998    2.91000009
   14.51972198  166.84399414    0.64999998    2.91000009
   14.52277756  170.33599854    0.64999998    2.91000009
   14.52611065  161.82899475    0.64999998    2.91000009
   14.52944374  163.56500244    0.64999998    2.89000010
   14.52999973  164.15299988    0.64999998    2.89000010
   14.53305531  156.86700439    0.64999998    2.89000010
   14.53611183  171.87899780    0.69000000    2.89000010
   14.53944492  160.60200500    0.69000000    2.89000010
   14.54555607  160.60200500    0.70999998    2.89000010
   14.54944515  162.16700745    0.69000000    2.89000010
   14.55277824  155.55200195    0.69000000    2.91000009
   14.55611134  142.04600525    0.70999998    2.89000010
   14.55916691  155.30000305    0.73000002    2.89000010
   14.56250000  146.58500671    0.73000002    2.89000010
   14.56333351  162.05200195    0.75000000    2.89000010
   14.56611156  154.37500000    0.75000000    2.89000010
   14.56916618  165.32699585    0.75000000    2.89000010
   14.57250023  159.39700317    0.73000002    2.89000010
   14.57583332  150.15800476    0.75000000    2.89000010
   14.57888889  156.54100037    0.76999998    2.89000010
   14.58222198  161.36999512    0.76999998    2.89000010
   14.58833313  161.36999512    0.79000002    2.89000010
   14.59249973  158.81799316    0.79000002    2.91000009
   14.59555531  156.83599854    0.76999998    2.89000010
   14.59666634  141.02900696    0.76999998    2.91000009
   14.59916592  174.37699890    0.79000002    2.91000009
   14.60249996  162.00799561    0.79000002    2.89000010
   14.60555553  153.77699280    0.76999998    2.89000010
   14.60888958  165.06900024    0.76999998    2.89000010
   14.61194515  142.05400085    0.76999998    2.89000010
   14.61527824  155.07699585    0.79000002    2.89000010
   14.61861134  160.97799683    0.79000002    2.89000010
   14.62166691  159.76800537    0.79000002    2.89000010
   14.62500000  173.63800049    0.79000002    2.89000010
   14.63111115  173.63800049    0.79000002    2.91000009
   14.63527775  170.46899414    0.80000001    2.89000010
   14.63861084  171.55799866    0.80000001    2.89000010
   14.64166641  174.55299377    0.79000002    2.91000009
   14.64499950  171.42900085    0.79000002    2.89000010
   14.64805508  195.15100098    0.79000002    2.91000009
   14.65138817  181.14599609    0.79000002    2.89000010
   14.65472221  185.11599731    0.79000002    2.89000010
   14.65777779  180.26600647    0.79000002    2.91000009
   14.66111088  181.31799316    0.79000002    2.89000010
   14.66333294  178.83900452    0.79000002    2.91000009
   14.66472149  188.21600342    0.79000002    2.91000009
   14.66777802  199.55200195    0.79000002    2.89000010
   14.67388916  199.55200195    0.79000002    2.89000010
   14.67805576  194.84300232    0.80000001    2.89000010
   14.68138885  209.07699585    0.79000002    2.91000009
   14.68444443  202.70500183    0.80000001    2.89000010
   14.68777752  201.98500061    0.80000001    2.89000010
   14.69111156  200.66000366    0.80000001    2.89000010
   14.69416714  188.38800049    0.81999999    2.89000010
   14.69666672  178.08999634    0.80000001    2.91000009
   14.69805527  186.72300720    0.80000001    2.91000009
   14.70111084  179.06199646    0.79000002    2.91000009
   14.70444393  199.31700134    0.80000001    2.91000009
   14.70777798  180.26100159    0.76999998    2.89000010
   14.71083355  173.86799622    0.76999998    2.89000010
   14.71694374  173.86799622    0.75000000    2.89000010
   14.72083282  200.62800598    0.73000002    2.91000009
   14.72416592  188.07400513    0.70999998    2.91000009
   14.72749996  189.26499939    0.70999998    2.91000009
   14.72999954  188.72700500    0.70999998    2.91000009
   14.73111057  181.04100037    0.70999998    2.91000009
   14.73416710  185.72099304    0.63000000    2.91000009
   14.73750019  178.94200134    0.63000000    2.91000009
   14.74083328  175.74400330    0.61000001    2.91000009
   14.74388885  175.33700562    0.61000001    2.91000009
   14.74722290  167.71699524    0.56999999    2.89000010
   14.75055599  179.56799316    0.56999999    2.91000009
   14.75361156  178.34300232    0.56999999    2.91000009
   14.75972176  178.34300232    0.52999997    2.93000007
   14.76388931  205.00999451    0.51999998    2.91000009
   14.76694393  154.96600342    0.51999998    2.93000007
   14.77027798  169.26800537    0.52999997    2.91000009
   14.77333355  193.55200195    0.52999997    2.93000007
   14.77666664  184.80099487    0.55000001    2.93000007
   14.77999973  185.78300476    0.55000001    2.91000009
   14.78305531  197.78500366    0.55000001    2.91000009
   14.78638935  177.57200623    0.55000001    2.91000009
   14.78972244  169.84599304    0.55000001    2.91000009
   14.79277802  183.97599792    0.52999997    2.93000007
   14.79611111  180.77699280    0.51999998    2.93000007
   14.79666710  177.13699341    0.51999998    2.93000007
   14.80249977  177.13699341    0.51999998    2.93000007
   14.80666733  187.06900024    0.50000000    2.93000007
   14.80972195  183.06599426    0.50000000    2.91000009
   14.81305599  182.16099548    0.50000000    2.93000007
   14.81638908  177.97500610    0.51999998    2.91000009
   14.81972218  163.70700073    0.52999997    2.93000007
   14.82277775  171.19299316    0.52999997    2.91000009
   14.82611084  189.81900024    0.55000001    2.91000009
   14.82916641  187.54899597    0.55000001    2.93000007
   14.82999992  184.79100037    0.55000001    2.93000007
   14.83305550  185.85800171    0.56999999    2.91000009
   14.83638859  194.41200256    0.56999999    2.93000007
   14.83944416  177.33799744    0.56999999    2.93000007
   14.84527779  177.33799744    0.55000001    2.91000009
   14.84944439  173.41700745    0.56999999    2.91000009
   14.85277843  181.07400513    0.55000001    2.91000009
   14.85583401  172.26600647    0.56999999    2.91000009
   14.85916710  193.12600708    0.56999999    2.93000007
   14.86250019  196.86599731    0.56999999    2.91000009
   14.86333370  182.36500549    0.56999999    2.91000009
   14.86611176  179.81500244    0.55000001    2.93000007
   14.86944485  194.71099854    0.55000001    2.91000009
   14.87250042  187.33399963    0.55000001    2.91000009
   14.87583351  176.14100647    0.55000001    2.93000007
   14.87888908  179.47300720    0.55000001    2.91000009
   14.88222218  171.55499268    0.55000001    2.91000009
   14.88805580  171.55499268    0.50000000    2.93000007
   14.89222240  168.75399780    0.51999998    2.93000007
   14.89555550  169.71000671    0.56999999    2.91000009
   14.89666653  163.62199402    0.56999999    2.91000009
   14.89916611  165.51600647    0.63000000    2.91000009
   14.90249920  179.25300598    0.64999998    2.91000009
   14.90555477  159.08399963    0.69000000    2.91000009
   14.90888882  180.68600464    0.67000002    2.93000007
   14.91222191  174.89599609    0.73000002    2.91000009
   14.91527748  169.62199402    0.75000000    2.91000009
   14.91861153  186.88800049    0.76999998    2.89000010
   14.92194462  168.11500549    0.79000002    2.89000010
   14.92500019  164.59399414    0.80000001    2.91000009
   14.93111134  164.59399414    0.83999997    2.91000009
   14.93527794  157.63099670    0.83999997    2.89000010
   14.93833351  157.00500488    0.83999997    2.91000009
   14.94166660  172.86500549    0.88000000    2.91000009
   14.94472218  167.76100159    0.88000000    2.91000009
   14.94805527  173.14900208    0.89999998    2.91000009
   14.95138836  167.85200500    0.89999998    2.89000010
   14.95444393  155.17999268    0.92000002    2.89000010
   14.95777798  160.06399536    0.92000002    2.89000010
   14.96111107  166.06599426    0.92000002    2.89000010
   14.96333313  150.04100037    0.92000002    2.89000010
   14.96472168  168.58599854    0.94000000    2.89000010
   14.96805477  174.13800049    0.94000000    2.89000010
   14.97388840  174.13800049    0.94000000    2.89000010
   14.97805500  170.26100159    0.95999998    2.89000010
   14.98111057  161.66900635    0.95999998    2.89000010
   14.98444462  162.35000610    0.95999998    2.89000010
   14.98777771  155.94799805    0.98000002    2.89000010
   14.99083328  162.95700073    1.00000000    2.89000010
   14.99416733  150.06399536    0.98000002    2.89000010
   15.17527771   -1.00000000   -1.00000000   -1.00000000
   15.31083393   -1.00000000   -1.00000000   -1.00000000
   15.43111134   -1.00000000   -1.00000000   -1.00000000
   15.53722286  134.07000732    0.56999999    2.94000006
   15.54055595  161.36900330    0.58999997    2.94000006
   15.54361153  131.23199463    0.56999999    2.94000006
   15.54694462  148.80200195    0.63000000    2.94000006
   15.55027771  149.21200562    0.63000000    2.94000006
   15.55333328  147.28599548    0.64999998    2.94000006
   15.55749989  147.28599548    0.67000002    2.94000006
   15.56166649  143.79800415    0.64999998    2.94000006
   15.56500053  150.06100464    0.64999998    2.94000006
   15.56805515  191.60099792    0.64999998    2.94000006
   15.57055569  174.90499878    0.64999998    2.94000006
   15.57166672  189.83299255    0.64999998    2.94000006
   15.57499981  177.03500366    0.64999998    2.94000006
   15.57833290  183.10400391    0.67000002    2.94000006
   15.58138847  170.78999329    0.64999998    2.94000006
   15.58472157  195.07499695    0.63000000    2.93000007
   15.58777714  203.46600342    0.61000001    2.94000006
   15.59111118  164.38299561    0.58999997    2.94000006
   15.59444427  165.90199280    0.58999997    2.94000006
   15.60027790  165.90199280    0.51999998    2.94000006
   15.60444450  194.88400269    0.51999998    2.96000004
   15.60777855  188.70899963    0.51999998    2.94000006
   15.61083412  169.41099548    0.50000000    2.94000006
   15.61416721  211.82099915    0.50000000    2.94000006
   15.61750031  189.98199463    0.50000000    2.94000006
   15.62055588  180.68400574    0.50000000    2.94000006
   15.62388897  182.45399475    0.52999997    2.94000006
   15.62722206  155.01600647    0.51999998    2.94000006
   15.63027763  163.25900269    0.51999998    2.94000006
   15.63361073  163.58299255    0.51999998    2.94000006
   15.63666630  149.26100159    0.51999998    2.94000006
   15.63722229  147.33000183    0.51999998    2.94000006
   15.64333344  147.33000183    0.51999998    2.93000007
   15.64722252  182.95899963    0.58999997    2.93000007
   15.65055561  171.13299561    0.58999997    2.94000006
   15.65388870  155.87800598    0.58999997    2.94000006
   15.65694427  151.28399658    0.58999997    2.94000006
   15.66027737  156.95199585    0.56999999    2.94000006
   15.66361046  156.56399536    0.56999999    2.94000006
   15.66666698  166.20599365    0.56999999    2.94000006
   15.67000008  162.28399658    0.56999999    2.94000006
   15.67055607  134.80499268    0.56999999    2.94000006
   15.67361164  181.72799683    0.58999997    2.93000007
   15.67694473  145.21699524    0.58999997    2.94000006
   15.68000031  168.26100159    0.56999999    2.94000006
   15.68611145  168.26100159    0.56999999    2.94000006
   15.69027805  167.34599304    0.58999997    2.94000006
   15.69333363  153.02400208    0.58999997    2.94000006
   15.69666672  148.75300598    0.63000000    2.94000006
   15.69999981  156.97300720    0.63000000    2.91000009
   15.70305538  165.84599304    0.64999998    2.94000006
   15.70388889  167.33799744    0.69000000    2.93000007
   15.70666695  162.66099548    0.67000002    2.93000007
   15.71000004  159.63299561    0.64999998    2.93000007
   15.71305561  161.57299805    0.64999998    2.93000007
   15.71638870  149.61199951    0.61000001    2.94000006
   15.71972179  151.27299500    0.61000001    2.94000006
   15.72277737  154.94500732    0.58999997    2.94000006
   15.72888851  154.94500732    0.56999999    2.94000006
   15.73305511  155.11099243    0.58999997    2.94000006
   15.73638916  153.82699585    0.61000001    2.94000006
   15.73722267  139.22599792    0.61000001    2.94000006
   15.74000072  158.83999634    0.64999998    2.94000006
   15.74333382  152.38999939    0.67000002    2.93000007
   15.74638939  146.54899597    0.69000000    2.93000007
   15.74972248  145.87500000    0.70999998    2.93000007
   15.75305557  149.20799255    0.73000002    2.94000006
   15.75611115  139.74899292    0.73000002    2.93000007
   15.75944424  140.53500366    0.73000002    2.93000007
   15.76249981  146.63099670    0.73000002    2.94000006
   15.76583290  137.02499390    0.73000002    2.93000007
   15.77194405  137.02499390    0.70999998    2.94000006
   15.77611065  145.01199341    0.70999998    2.94000006
   15.77916622  129.97099304    0.73000002    2.93000007
   15.78249931  141.16600037    0.70999998    2.93000007
   15.78583336  140.53399658    0.70999998    2.93000007
   15.78888893  153.83799744    0.70999998    2.93000007
   15.79222298  153.32200623    0.70999998    2.93000007
   15.79555607  152.28500366    0.70999998    2.93000007
   15.79861164  142.94700623    0.70999998    2.94000006
   15.80194473  146.88000488    0.69000000    2.94000006
   15.80388927  136.25199890    0.69000000    2.94000006
   15.80555534  139.52799988    0.69000000    2.93000007
   15.80888939  162.20700073    0.69000000    2.93000007
   15.81472206  162.20700073    0.67000002    2.93000007
   15.81861115  146.38600159    0.67000002    2.93000007
   15.82194424  145.15499878    0.64999998    2.93000007
   15.82527733  137.84700012    0.64999998    2.94000006
   15.82833290  131.80499268    0.64999998    2.93000007
   15.83166695  137.93499756    0.63000000    2.94000006
   15.83500004  149.94999695    0.64999998    2.94000006
   15.83722210  139.19599915    0.63000000    2.94000006
   15.83861065  147.27200317    0.63000000    2.94000006
   15.84194374  144.72700500    0.63000000    2.94000006
   15.84499931  149.27200317    0.63000000    2.94000006
   15.84833336  131.46499634    0.64999998    2.93000007
   15.85166740  140.47000122    0.64999998    2.94000006
   15.85750008  140.47000122    0.67000002    2.94000006
   15.86166668  125.13899994    0.67000002    2.93000007
   15.86472225  133.74299622    0.67000002    2.94000006
   15.86805534  134.04800415    0.67000002    2.94000006
   15.87055588  139.83399963    0.67000002    2.93000007
   15.87166691  131.64399719    0.67000002    2.93000007
   15.87500000  131.68899536    0.67000002    2.94000006
   15.87805557  122.72899628    0.69000000    2.91000009
   15.88138866  132.13099670    0.67000002    2.94000006
   15.88472176  134.60099792    0.67000002    2.94000006
   15.88777733  134.81599426    0.67000002    2.94000006
   15.89111137  115.60099792    0.67000002    2.93000007
   15.89416695  121.10299683    0.67000002    2.94000006
   15.90027714  121.10299683    0.67000002    2.93000007
   15.90444374  121.84600067    0.67000002    2.94000006
   15.90777779  125.63800049    0.67000002    2.94000006
   15.91083336  122.25900269    0.67000002    2.94000006
   15.91416645  134.94799805    0.69000000    2.94000006
   15.91750050  124.73100281    0.67000002    2.93000007
   15.92055607  124.91100311    0.67000002    2.94000006
   15.92388916  117.34500122    0.69000000    2.94000006
   15.92694473  117.37000275    0.69000000    2.93000007
   15.93027782  122.47799683    0.70999998    2.94000006
   15.93361092  123.61799622    0.70999998    2.94000006
   15.93666649  126.49199677    0.75000000    2.94000006
   15.93722248  126.29000092    0.75000000    2.94000006
   15.94305515  126.29000092    0.75000000    2.94000006
   15.94722271  126.98300171    0.76999998    2.93000007
   15.95055580  125.78700256    0.76999998    2.94000006
   15.95361137  130.71699524    0.76999998    2.94000006
   15.95694447  136.84800720    0.76999998    2.94000006
   15.96027756  126.88700104    0.76999998    2.94000006
   15.96361065  121.82299805    0.76999998    2.93000007
   15.96666622  132.66299438    0.73000002    2.94000006
   15.96999931  139.49400330    0.73000002    2.94000006
   15.97083282  132.31399536    0.73000002    2.94000006
   15.97361088  123.02200317    0.73000002    2.93000007
   15.97694397  134.20100403    0.73000002    2.94000006
   15.97999954  121.00900269    0.73000002    2.93000007
   15.98611164  121.00900269    0.75000000    2.94000006
   15.99000072  126.04299927    0.73000002    2.93000007
   15.99333382  121.80599976    0.73000002    2.94000006
   15.99666691  128.58099365    0.73000002    2.96000004
   15.99972248  127.84999847    0.73000002    2.93000007
   16.00305557  128.75199890    0.73000002    2.93000007
   16.00416756  126.59100342    0.73000002    2.93000007
   16.00666618  139.20100403    0.73000002    2.93000007
   16.01000023  120.59300232    0.73000002    2.94000006
   16.01305580  134.51400757    0.73000002    2.94000006
   16.01638794  132.39100647    0.73000002    2.94000006
   16.01972198  150.44500732    0.70999998    2.94000006
   16.02277756  125.44999695    0.70999998    2.93000007
   16.02888870  125.44999695    0.70999998    2.94000006
   16.03305435  122.82700348    0.70999998    2.94000006
   16.03610992  112.09200287    0.70999998    2.94000006
   16.03750038  119.50700378    0.70999998    2.94000006
   16.03972244  128.59700012    0.70999998    2.94000006
   16.04305458  127.87799835    0.70999998    2.94000006
   16.04638863  131.34700012    0.70999998    2.94000006
   16.04944420  129.75300598    0.70999998    2.94000006
   16.05277634  125.12100220    0.70999998    2.94000006
   16.05583191  138.57899475    0.70999998    2.94000006
   16.05916595  134.70899963    0.70999998    2.94000006
   16.06250000  133.69999695    0.69000000    2.94000006
   16.06555557  135.30200195    0.69000000    2.94000006
   16.07166672  135.30200195    0.67000002    2.94000006
   16.07583427  136.18600464    0.69000000    2.94000006
   16.07888985  135.38699341    0.70999998    2.94000006
   16.08222389  125.19300079    0.70999998    2.94000006
   16.08555603  139.57400513    0.73000002    2.94000006
   16.08861160  123.37400055    0.73000002    2.94000006
   16.09194565  132.07699585    0.73000002    2.94000006
   16.09527779  140.30999756    0.75000000    2.94000006
   16.09833336  137.60899353    0.73000002    2.93000007
   16.10166740  123.76499939    0.73000002    2.93000007
   16.10416794  123.76599884    0.73000002    2.93000007
   16.10527802  132.69900513    0.73000002    2.93000007
   16.10861206  133.74299622    0.73000002    2.94000006
   16.11444473  133.74299622    0.73000002    2.93000007
   16.11861038  133.96099854    0.75000000    2.94000006
   16.12194443  128.41200256    0.75000000    2.94000006
   16.12500000  127.28600311    0.75000000    2.93000007
   16.12833405  121.76699829    0.75000000    2.93000007
   16.13166618  128.30200195    0.76999998    2.93000007
   16.13472176  131.38699341    0.76999998    2.94000006
   16.13750076  122.34200287    0.76999998    2.93000007
   16.13833237  128.55299377    0.75000000    2.94000006
   16.14166641  119.24199677    0.75000000    2.94000006
   16.14472198  126.05799866    0.75000000    2.94000006
   16.14805603  129.31300354    0.73000002    2.94000006
   16.15138817  135.86099243    0.70999998    2.94000006
   16.15722275  135.86099243    0.70999998    2.94000006
   16.16138840  133.84899902    0.70999998    2.94000006
   16.16472244  125.16699982    0.70999998    2.94000006
   16.16805458  125.17400360    0.70999998    2.94000006
   16.17083359  129.76899719    0.70999998    2.94000006
   16.17138863  118.30599976    0.70999998    2.94000006
   16.17472076  125.32299805    0.70999998    2.94000006
   16.17777634  125.41999817    0.70999998    2.94000006
   16.18111038  135.52099609    0.69000000    2.94000006
   16.18444443  122.74299622    0.69000000    2.94000006
   16.18750000  133.61000061    0.67000002    2.94000006
   16.19083214  126.97499847    0.67000002    2.94000006
   16.19416618  129.65800476    0.69000000    2.94000006
   16.20027924  129.65800476    0.67000002    2.94000006
   16.20444489  130.08999634    0.69000000    2.94000006
   16.20750046  136.96699524    0.67000002    2.94000006
   16.21083450  128.78900146    0.69000000    2.96000004
   16.21416664  133.10800171    0.67000002    2.94000006
   16.21722221  125.83799744    0.67000002    2.94000006
   16.22055626  120.10099792    0.69000000    2.94000006
   16.22361183  131.85600281    0.67000002    2.94000006
   16.22694588  124.68299866    0.67000002    2.94000006
   16.23027802  134.03999329    0.67000002    2.94000006
   16.23333359  132.39100647    0.69000000    2.94000006
   16.23666763  124.52500153    0.67000002    2.94000006
   16.23750114  120.87100220    0.67000002    2.94000006
   16.24305534  120.87100220    0.67000002    2.94000006
   16.24722290  125.36699677    0.67000002    2.94000006
   16.25027847  122.52600098    0.69000000    2.94000006
   16.25361061  130.62100220    0.67000002    2.94000006
   16.25694466  134.97900391    0.67000002    2.94000006
   16.26000023  140.31100464    0.67000002    2.94000006
   16.26333427  134.50000000    0.67000002    2.94000006
   16.26666641  134.52200317    0.64999998    2.94000006
   16.26972198  132.15299988    0.64999998    2.94000006
   16.27083397  142.50100708    0.64999998    2.94000006
   16.27333260  145.17999268    0.67000002    2.94000006
   16.27666664  130.62699890    0.67000002    2.94000006
   16.28000069  137.20100403    0.69000000    2.94000006
   16.28583336  137.20100403    0.67000002    2.93000007
   16.28999901  133.59800720    0.69000000    2.93000007
   16.29333305  137.15699768    0.70999998    2.94000006
   16.29638863  135.59300232    0.69000000    2.94000006
   16.29972076  148.25799561    0.69000000    2.94000006
   16.30305481  134.19400024    0.69000000    2.93000007
   16.30416679  141.16499329    0.69000000    2.93000007
   16.30638885  135.30099487    0.69000000    2.94000006
   16.30972099  143.36999512    0.69000000    2.94000006
   16.31305504  148.68499756    0.69000000    2.93000007
   16.31611061  131.75100708    0.69000000    2.94000006
   16.31944466  136.72200012    0.70999998    2.94000006
   16.32250023  121.82499695    0.70999998    2.94000006
   16.32861137  121.82499695    0.70999998    2.94000006
   16.33277893  143.20199585    0.70999998    2.94000006
   16.33611107  140.14799500    0.70999998    2.94000006
   16.33750153  134.00100708    0.70999998    2.94000006
   16.33972359  133.38200378    0.70999998    2.94000006
   16.34305573  127.79900360    0.70999998    2.94000006
   16.34638977  129.90699768    0.73000002    2.94000006
   16.34944534  129.44500732    0.70999998    2.94000006
   16.35277748  129.53900146    0.70999998    2.93000007
   16.35611153  136.82099915    0.70999998    2.94000006
   16.35916710  128.09500122    0.70999998    2.94000006
   16.36250114  131.15400696    0.70999998    2.94000006
   16.36555672  135.10899353    0.73000002    2.94000006
   16.37166595  135.10899353    0.75000000    2.93000007
   16.37583351  123.71199799    0.75000000    2.94000006
   16.37888908  130.60600281    0.75000000    2.93000007
   16.38222313  119.55000305    0.76999998    2.93000007
   16.38555527  124.32700348    0.76999998    2.93000007
   16.38861084  121.21900177    0.76999998    2.93000007
   16.39194489  122.50000000    0.76999998    2.93000007
   16.39500046  124.47799683    0.76999998    2.93000007
   16.39833260  128.77499390    0.79000002    2.94000006
   16.40166664  134.38299561    0.76999998    2.93000007
   16.40416718  131.36300659    0.79000002    2.94000006
   16.40499878  131.91000366    0.79000002    2.94000006
   16.40833282  138.92599487    0.79000002    2.93000007
   16.41444397  138.92599487    0.79000002    2.93000007
   16.41860962  130.89900208    0.76999998    2.93000007
   16.42166519  128.41900635    0.76999998    2.93000007
   16.42499924  136.60699463    0.76999998    2.94000006
   16.42833328  144.59199524    0.76999998    2.93000007
   16.43138885  136.51600647    0.76999998    2.93000007
   16.43472099  129.32000732    0.75000000    2.93000007
   16.43750000  139.81700134    0.75000000    2.94000006
   16.43861008  133.89599609    0.75000000    2.94000006
   16.44166565  142.15899658    0.73000002    2.93000007
   16.44499969  141.64399719    0.73000002    2.94000006
   16.44805527  136.08500671    0.75000000    2.93000007
   16.45138931  138.82299805    0.75000000    2.93000007
   16.45722389  138.82299805    0.75000000    2.94000006
   16.46138954  140.28199768    0.75000000    2.93000007
   16.46472359  137.97399902    0.73000002    2.94000006
   16.46777916  139.07800293    0.73000002    2.93000007
   16.47083473  136.14799500    0.73000002    2.94000006
   16.47138977  133.40600586    0.73000002    2.94000006
   16.47472191  134.56799316    0.73000002    2.94000006
   16.47805595  140.59599304    0.73000002    2.93000007
   16.48111153  129.66000366    0.75000000    2.94000006
   16.48444557  143.41900635    0.75000000    2.94000006
   16.48777771  146.47799683    0.75000000    2.93000007
   16.49083328  138.67900085    0.75000000    2.93000007
   16.49416733  143.43400574    0.75000000    2.93000007
   16.50000000  143.43400574    0.73000002    2.94000006
   16.50416756  155.02900696    0.73000002    2.93000007
   16.50749969  153.40299988    0.73000002    2.94000006
   16.51083374  145.17599487    0.70999998    2.93000007
   16.51388931  141.64999390    0.70999998    2.94000006
   16.51722145  151.35299683    0.69000000    2.94000006
   16.52027702  138.78199768    0.69000000    2.94000006
   16.52361107  150.75000000    0.69000000    2.94000006
   16.52694511  138.45300293    0.69000000    2.94000006
   16.53000069  146.54600525    0.64999998    2.94000006
   16.53333282  151.82400513    0.64999998    2.94000006
   16.53666687  133.19900513    0.64999998    2.94000006
   16.53750038  123.38700104    0.64999998    2.94000006
   16.55805397  123.38700104    0.64999998    2.96000004
   16.56222153  135.86099243    0.69000000    2.94000006
   16.56555557  138.21099854    0.67000002    2.96000004
   16.56888962  128.94400024    0.67000002    2.94000006
   16.57083511  130.39599609    0.69000000    2.96000004
   16.57250023  132.11999512    0.67000002    2.94000006
   16.57555580  126.61699677    0.67000002    2.94000006
   16.57888985  126.98799896    0.64999998    2.96000004
   16.58194542  147.92999268    0.64999998    2.96000004
   16.58527756  147.62300110    0.67000002    2.96000004
   16.58861160  146.73599243    0.70999998    2.96000004
   16.59166718  141.93200684    0.75000000    2.94000006
   16.59500122  125.94100189    0.73000002    2.94000006
   16.60083389  125.94100189    0.73000002    2.93000007
   16.60499954  134.33900452    0.73000002    2.94000006
   16.60833359  136.72799683    0.73000002    2.94000006
   16.61138916  135.41200256    0.75000000    2.94000006
   16.61472321  134.00799561    0.73000002    2.94000006
   16.61805534  133.50100708    0.73000002    2.96000004
   16.62111092  128.07699585    0.73000002    2.94000006
   16.62444496  131.99600220    0.73000002    2.94000006
   16.62777710  130.21200562    0.73000002    2.94000006
   16.63083267  129.60899353    0.73000002    2.94000006
   16.63416672  116.05100250    0.73000002    2.94000006
   16.63722229  117.59700012    0.69000000    2.94000006
   16.63777733  123.81500244    0.69000000    2.94000006
   16.64361191  123.81500244    0.70999998    2.96000004
   16.64777756  131.03100586    0.70999998    2.94000006
   16.65111160  130.62399292    0.70999998    2.94000006
   16.65444374  119.57099915    0.70999998    2.94000006
   16.65749931  126.81400299    0.73000002    2.94000006
   16.66083336  134.24499512    0.70999998    2.96000004
   16.66416550  147.39799500    0.70999998    2.94000006
   16.66722107  135.68099976    0.70999998    2.96000004
   16.67055511  136.79499817    0.70999998    2.96000004
   16.67111015  130.82000732    0.70999998    2.96000004
   16.67416573  131.47799683    0.70999998    2.94000006
   16.67749977  136.62399292    0.70999998    2.94000006
   16.68055534  131.97200012    0.69000000    2.94000006
   16.68666649  131.97200012    0.69000000    2.94000006
   16.69083214  137.32899475    0.67000002    2.96000004
   16.69388771  139.58299255    0.67000002    2.96000004
   16.69722176  144.05700684    0.67000002    2.96000004
   16.70055580  162.09300232    0.67000002    2.96000004
   16.70361137  168.58799744    0.67000002    2.94000006
   16.70444489  166.09399414    0.67000002    2.94000006
   16.70722389  161.44000244    0.64999998    2.94000006
   16.71055603  147.83799744    0.64999998    2.94000006
   16.71361160  149.06100464    0.64999998    2.96000004
   16.71694565  161.43400574    0.64999998    2.94000006
   16.72027779  157.11999512    0.67000002    2.94000006
   16.72333336  137.13200378    0.67000002    2.96000004
   16.72944450  137.13200378    0.69000000    2.96000004
   16.73361206  140.94099426    0.69000000    2.96000004
   16.73694420  142.83500671    0.69000000    2.94000006
   16.73777771  133.45100403    0.70999998    2.94000006
   16.74055672  152.71099854    0.73000002    2.94000006
   16.74388885  151.47900391    0.73000002    2.94000006
   16.74694443  140.68099976    0.75000000    2.94000006
   16.75027847  137.22599792    0.75000000    2.94000006
   16.75361061  135.20700073    0.75000000    2.94000006
   16.75666618  145.31799316    0.75000000    2.94000006
   16.76000023  144.41799927    4.90999985    3.01999998
   16.76305580  133.06599426    0.07000000    0.25000000
   16.76638794  134.98800659    0.07000000    0.25000000
   16.77222252  134.98800659    0.07000000    0.25000000
   16.77638817  146.98899841    0.07000000    0.25000000
   16.77972221  142.64700317    0.07000000    0.25000000
   16.78277779  148.89900208    0.07000000    0.25000000
   16.78610992  157.40100098    0.07000000    0.25000000
   16.78944397  141.97999573    0.07000000    0.25000000
   16.79249954  151.99899292    0.07000000    0.25000000
   16.79583359  142.99499512    0.07000000    0.25000000
   16.79916573  123.01799774    0.07000000    0.25000000
   16.80222130  149.47599792    0.07000000    0.25000000
   16.80444336  137.00599670    0.07000000    0.25000000
   16.80583191  144.11199951    0.07000000    0.25000000
   16.80916595  138.95300293    0.07000000    0.25000000
   16.81499863  138.95300293    0.07000000    0.25000000
   16.81916809  137.87600708    0.07000000    0.25000000
   16.82250023  144.47200012    0.07000000    0.25000000
   16.82583427  130.04100037    0.07000000    0.25000000
   16.82888985  131.00500488    0.07000000    0.25000000
   16.83222389  156.84599304    0.07000000    0.25000000
   16.83527756  136.75399780    0.07000000    0.25000000
   16.83777809  147.83099365    0.07000000    0.25000000
   16.83889008  134.03500366    0.07000000    0.25000000
   16.84222221  148.30000305    0.07000000    0.25000000
   16.84527779  155.45500183    0.07000000    0.25000000
   16.84861183  152.16000366    0.07000000    0.25000000
   16.85194397  159.28999329    0.07000000    0.25000000
   16.85805511  159.28999329    0.07000000    0.25000000
   16.86222267  153.10400391    0.07000000    0.25000000
   16.86527824  142.41499329    0.07000000    0.25000000
   16.86861038  144.15299988    0.07000000    0.25000000
   16.87111092  155.38600159    0.07000000    0.25000000
   16.87222290  140.64999390    0.07000000    0.25000000
   16.87555504  146.12600708    0.07000000    0.25000000
   16.87861061  162.47000122    0.07000000    0.25000000
   16.88194466  152.28100586    0.07000000    0.25000000
   16.88527679  164.08700562    0.07000000    0.25000000
   16.88833237  152.33399963    0.07000000    0.25000000
   16.89166641  141.26100159    0.07000000    0.25000000
   16.89500046  140.61700439    0.07000000    0.25000000
   16.90083313  140.61700439    0.07000000    0.25000000
   16.90499878  137.13299561    0.07000000    0.25000000
   16.90833282  147.94400024    0.07000000    0.25000000
   16.91138840  143.15499878    0.07000000    0.25000000
   16.91472244  149.83000183    0.07000000    0.25000000
   16.91777802  135.57000732    0.07000000    0.25000000
   16.92111015  143.49200439    0.07000000    0.25000000
   16.92444420  146.93299866    0.07000000    0.25000000
   16.92749977  148.33200073    0.07000000    0.25000000
   16.93083191  149.75100708    0.07000000    0.25000000
   16.93416595  143.81900024    0.07000000    0.25000000
   16.93722153  149.72200012    0.07000000    0.25000000
   16.93777657  143.05599976    0.07000000    0.25000000
   16.94361115  143.05599976    0.07000000    0.25000000
   16.94777679  141.59599304    0.07000000    0.25000000
   16.95111275  155.05799866    0.07000000    0.25000000
   16.95416832  144.46200562    0.07000000    0.25000000
   16.95750046  142.24400330    0.07000000    0.25000000
   16.96083450  154.32200623    0.07000000    0.25000000
   16.96389008  142.09800720    0.07000000    0.25000000
   16.96722221  150.72599792    0.07000000    0.25000000
   16.97027779  147.53900146    0.07000000    0.25000000
   16.97111130  132.03900146    0.07000000    0.25000000
   16.97389030  144.84500122    0.07000000    0.25000000
   16.97722244  144.03300476    0.07000000    0.25000000
   16.98055649  139.66999817    0.07000000    0.25000000
   16.98638916  139.66999817    0.07000000    0.25000000
   16.99055672  146.95100403    0.07000000    0.25000000
   16.99388885  152.67799377    0.07000000    0.25000000
   16.99722290  139.63800049    0.07000000    0.25000000
   17.00027847  137.01400757    0.07000000    0.25000000
   17.00361061  146.60099792    0.07000000    0.25000000
   17.00444412  149.53900146    0.07000000    0.25000000
   17.00722313  150.51699829    0.07000000    0.25000000
   17.01055527  147.00599670    0.07000000    0.25000000
   17.01361084  145.45700073    0.07000000    0.25000000
   17.01694489  135.49600220    0.07000000    0.25000000
   17.02027702  143.31799316    0.07000000    0.25000000
   17.02333260  157.83500671    0.07000000    0.25000000
   17.02944374  157.83500671    0.07000000    0.25000000
   17.03361130  161.96299744    0.07000000    0.25000000
   17.03666687  153.06599426    0.07000000    0.25000000
   17.03805542  139.24600220    0.07000000    0.25000000
   17.04027748  146.53799438    0.07000000    0.25000000
   17.04361153  141.20599365    0.07000000    0.25000000
   17.04666710  133.98899841    0.07000000    0.25000000
   17.04999924  151.43299866    0.07000000    0.25000000
   17.05333328  141.03300476    0.07000000    0.25000000
   17.05666542  148.68200684    0.07000000    0.25000000
   17.05972099  156.42799377    0.07000000    0.25000000
   17.06305504  131.59300232    0.07000000    0.25000000
   17.06611061  146.71600342    0.07000000    0.25000000
   17.07222366  146.71600342    0.07000000    0.25000000
   17.07638931  148.50799561    0.07000000    0.25000000
   17.07944489  135.95799255    0.07000000    0.25000000
   17.08277893  141.56599426    0.07000000    0.25000000
   17.08611107  142.31399536    0.07000000    0.25000000
   17.08916664  141.60899353    0.07000000    0.25000000
   17.09250069  134.40499878    0.07000000    0.25000000
   17.09583473  145.02600098    0.07000000    0.25000000
   17.09889030  153.99200439    0.07000000    0.25000000
   17.10222244  135.72300720    0.07000000    0.25000000
   17.10472298  146.99800110    0.07000000    0.25000000
   17.10583305  147.41700745    0.07000000    0.25000000
   17.10916710  165.99200439    0.07000000    0.25000000
   17.11499977  165.99200439    0.07000000    0.25000000
   17.11916733  153.65899658    0.07000000    0.25000000
   17.12249947  152.45199585    0.07000000    0.25000000
   17.12555504  133.88299561    0.07000000    0.25000000
   17.12888908  142.98300171    0.07000000    0.25000000
   17.13222313  141.88600159    0.07000000    0.25000000
   17.13527679  139.21000671    0.07000000    0.25000000
   17.13805580  152.07299805    0.07000000    0.25000000
   17.13888931  159.14700317    0.07000000    0.25000000
   17.14222145  145.11099243    0.07000000    0.25000000
   17.14555550  141.26499939    0.07000000    0.25000000
   17.14861107  134.38400269    0.07000000    0.25000000
   17.15194321  132.35299683    0.07000000    0.25000000
   17.15777779  132.35299683    0.07000000    0.25000000
   17.16194344  138.65899658    0.07000000    0.25000000
   17.16527748  143.18400574    0.07000000    0.25000000
   17.16860962  143.68600464    0.07000000    0.25000000
   17.17138863  146.24400330    0.07000000    0.25000000
   17.17194366  134.67399597    0.07000000    0.25000000
   17.17527771  130.85400391    0.07000000    0.25000000
   17.17833328  137.03700256    0.07000000    0.25000000
   17.18166542  145.80400085    0.07000000    0.25000000
   17.18499947  139.51899719    0.07000000    0.25000000
   17.18805504  143.87100220    0.07000000    0.25000000
   17.19138718  144.35000610    0.07000000    0.25000000
   17.19472122  136.16999817    0.07000000    0.25000000
   17.20083427  136.16999817    0.07000000    0.25000000
   17.20499992  142.06199646    0.07000000    0.25000000
   17.20805550  148.69200134    0.07000000    0.25000000
   17.21138954  142.55499268    0.07000000    0.25000000
   17.21472359  150.28700256    0.07000000    0.25000000
   17.21777916  146.12300110    0.07000000    0.25000000
   17.22111130  151.38400269    0.07000000    0.25000000
   17.22416687  134.48500061    0.07000000    0.25000000
   17.22750092  135.46800232    0.07000000    0.25000000
   17.23083305  144.69999695    0.07000000    0.25000000
   17.23388863  138.29499817    0.07000000    0.25000000
   17.23722267  139.35699463    0.07000000    0.25000000
   17.23805618  144.28500366    0.07000000    0.25000000
   17.24361229  144.28500366    0.07000000    0.25000000
   17.24777794  153.47799683    0.07000000    0.25000000
   17.25083351  136.66000366    0.07000000    0.25000000
   17.25416756  145.35299683    0.07000000    0.25000000
   17.25749969  139.67300415    0.07000000    0.25000000
   17.26055527  151.83200073    0.07000000    0.25000000
   17.26388931  140.73599243    0.07000000    0.25000000
   17.26722145  157.52900696    0.07000000    0.25000000
   17.27027702  153.11799622    0.07000000    0.25000000
   17.27138901  150.44799805    0.07000000    0.25000000
   17.27388954  146.15800476    0.07000000    0.25000000
   17.27722168  149.84100342    0.07000000    0.25000000
   17.28055573  158.79299927    0.07000000    0.25000000
   17.28638840  158.79299927    0.07000000    0.25000000
   17.29055595  157.05499268    0.07000000    0.25000000
   17.29388809  150.72500610    0.07000000    0.25000000
   17.29694366  138.59599304    0.07000000    0.25000000
   17.30027771  144.09899902    0.07000000    0.25000000
   17.30360985  143.55000305    0.07000000    0.25000000
   17.30472183  150.97799683    0.07000000    0.25000000
   17.30694389  149.93899536    0.07000000    0.25000000
   17.31027794  136.58799744    0.07000000    0.25000000
   17.31361008  141.48100281    0.07000000    0.25000000
   17.31666756  149.40699768    0.07000000    0.25000000
   17.32000160  134.58799744    0.07000000    0.25000000
   17.32305717  142.27400208    0.07000000    0.25000000
   17.32916832  142.27400208    0.07000000    0.25000000
   17.33333397  149.10800171    0.07000000    0.25000000
   17.33666801  141.15400696    0.07000000    0.25000000
   17.33805656  147.90600586    0.07000000    0.25000000
   17.34027863  158.58099365    0.07000000    0.25000000
   17.34361267  145.77499390    0.07000000    0.25000000
   17.34694481  141.56100464    0.07000000    0.25000000
   17.35000038  145.10200500    0.07000000    0.25000000
   17.35333443  144.91900635    0.07000000    0.25000000
   17.35639000  144.52600098    0.07000000    0.25000000
   17.35972214  140.95799255    0.07000000    0.25000000
   17.36305618  143.79800415    0.07000000    0.25000000
   17.36611176  148.82800293    0.07000000    0.25000000
   17.37222290  148.82800293    0.07000000    0.25000000
   17.37611198   -1.00000000    0.07000000    0.25000000
   17.37944412  347.83700562    0.07000000    0.25000000
   17.38138962  214.60400391    0.07000000    0.25000000
   17.38166618  141.56100464    0.07000000    0.25000000
   17.38166618  145.10200500    0.07000000    0.25000000
   17.38194466  144.91900635    0.07000000    0.25000000
   17.38194466  144.52600098    0.07000000    0.25000000
   17.38194466  140.95799255    0.07000000    0.25000000
   17.38222313  143.79800415    0.07000000    0.25000000
   17.38222313  148.82800293    0.07000000    0.25000000
   17.38222313   -1.00000000    0.07000000    0.25000000
   17.38416672   -1.00000000    0.07000000    0.25000000
   17.38750076   -1.00000000    0.07000000    0.25000000
   17.39083290   -1.00000000    0.07000000    0.25000000
   17.39388847   -1.00000000    0.07000000    0.25000000
   17.39722252   -1.00000000    0.07000000    0.25000000
   17.40277672   -1.00000000    0.07000000    0.25000000
   17.40666580   -1.00000000    0.07000000    0.25000000
   17.40999985   -1.00000000    0.07000000    0.25000000
   17.41333389   -1.00000000    0.07000000    0.25000000
   17.41694450   -1.00000000    0.07000000    0.25000000
   17.42000008   -1.00000000    0.07000000    0.25000000
   17.42333221   -1.00000000    0.07000000    0.25000000
   17.42666626   -1.00000000    0.07000000    0.25000000
   17.42972183  427.21701050    0.07000000    0.25000000
   17.43194389   65.01809692    0.07000000    0.25000000
   17.43194389   -1.00000000    0.07000000    0.25000000
   17.43194389   -1.00000000    0.07000000    0.25000000
   17.43222237   -1.00000000    0.07000000    0.25000000
   17.43222237  427.21701050    0.07000000    0.25000000
   17.43222237   -1.00000000    0.07000000    0.25000000
   17.43249893   -1.00000000    0.07000000    0.25000000
   17.43249893   -1.00000000    0.07000000    0.25000000
   17.43249893   -1.00000000    0.07000000    0.25000000
   17.43277740   -1.00000000    0.07000000    0.25000000
   17.43472099  141.08299255    0.07000000    0.25000000
   17.43777657   -1.00000000    0.07000000    0.25000000
   17.44111061   -1.00000000    0.07000000    0.25000000
   17.44444275   -1.00000000    0.07000000    0.25000000
   17.44749832  326.70498657    0.07000000    0.25000000
   17.44972038  386.71899414    0.07000000    0.25000000
   17.45083427  359.04098511    0.07000000    0.25000000
   17.45222282  103.61699677    0.07000000    0.25000000
   17.45250130  141.08299255    0.07000000    0.25000000
   17.45250130   -1.00000000    0.07000000    0.25000000
   17.45250130   -1.00000000    0.07000000    0.25000000
   17.45277786   -1.00000000    0.07000000    0.25000000
   17.45277786  326.70498657    0.07000000    0.25000000
   17.45333481   80.62699890    0.07000000    0.25000000
   17.45666695   -1.00000000    0.07000000    0.25000000
   17.45972252   -1.00000000    0.07000000    0.25000000
   17.46305656  248.49299622    0.07000000    0.25000000
   17.46638870  502.78601074    0.07000000    0.25000000
   17.46833420  150.82800293    0.07000000    0.25000000
   17.46833420   80.62699890    0.07000000    0.25000000
   17.46861076   -1.00000000    0.07000000    0.25000000
   17.46861076   -1.00000000    0.07000000    0.25000000
   17.46861076  248.49299622    0.07000000    0.25000000
   17.46888924  502.78601074    0.07000000    0.25000000
   17.47083473  179.12899780    0.07000000    0.25000000
   17.47389030   -1.00000000    0.07000000    0.25000000
   17.47722244   -1.00000000    0.07000000    0.25000000
   17.48055649  141.58000183    0.07000000    0.25000000
   17.48361206  154.67799377    0.07000000    0.25000000
   17.48916626  154.67799377    0.07000000    0.25000000
   17.49333382   -1.00000000    0.07000000    0.25000000
   17.49638939   -1.00000000    0.07000000    0.25000000
   17.49972153   -1.00000000    0.07000000    0.25000000
   17.50333405   -1.00000000    0.07000000    0.25000000
   17.50666618   -1.00000000    0.07000000    0.25000000
   17.51000023   -1.00000000    0.07000000    0.25000000
   17.51305580   -1.00000000    0.07000000    0.25000000
   17.51638794   -1.00000000    0.07000000    0.25000000
   17.51944351   -1.00000000    0.07000000    0.25000000
   17.52277756   -1.00000000    0.07000000    0.25000000
   17.52611160   -1.00000000    0.07000000    0.25000000
   17.53610992   -1.00000000    0.07000000    0.25000000
   17.53916550   -1.00000000    0.07000000    0.25000000
   17.54249954   -1.00000000    0.07000000    0.25000000
   17.54583359   -1.00000000    0.07000000    0.25000000
   17.54888916   -1.00000000    0.07000000    0.25000000
   17.55222130   -1.00000000    0.07000000    0.25000000
   17.57944489   -1.00000000    0.07000000    0.25000000
   17.58277893   -1.00000000    0.07000000    0.25000000
   17.58611107   -1.00000000    0.07000000    0.25000000
   17.58916664   -1.00000000    0.07000000    0.25000000
   17.59250069   -1.00000000    0.07000000    0.25000000
   17.59583473   -1.00000000    0.07000000    0.25000000
   17.59889030   -1.00000000    0.07000000    0.25000000
   17.60222244   -1.00000000    0.07000000    0.25000000
   17.60555649   -1.00000000    0.07000000    0.25000000
   17.60888863   -1.00000000    0.07000000    0.25000000
   17.61194420   -1.00000000    0.07000000    0.25000000
   17.62277794   -1.00000000    0.07000000    0.25000000
   17.62611198   -1.00000000    0.07000000    0.25000000
   17.62916756   -1.00000000    0.07000000    0.25000000
   17.63249969   -1.00000000    0.07000000    0.25000000
   17.63583374   -1.00000000    0.07000000    0.25000000
   17.63916588   -1.00000000    0.07000000    0.25000000
   17.64249992   -1.00000000    0.07000000    0.25000000
   17.64583397   -1.00000000    0.07000000    0.25000000
   17.64888954   -1.00000000    0.07000000    0.25000000
   17.65222168   -1.00000000    0.07000000    0.25000000
   17.65555573   -1.00000000    0.07000000    0.25000000
   17.66527748   -1.00000000    0.07000000    0.25000000
   17.66860962   -1.00000000    0.07000000    0.25000000
   17.67194366   -1.00000000    0.07000000    0.25000000
   17.67527771   -1.00000000    0.07000000    0.25000000
   17.67860985   -1.00000000    0.07000000    0.25000000
   17.68166542   -1.00000000    0.07000000    0.25000000
   17.68499947   -1.00000000    0.07000000    0.25000000
   17.68805504   -1.00000000    0.07000000    0.25000000
   17.69138718   -1.00000000    0.07000000    0.25000000
   17.69472122   -1.00000000    0.07000000    0.25000000
   17.69777679   -1.00000000    0.07000000    0.25000000
   17.70805550   -1.00000000    0.07000000    0.25000000
   17.71138954   -1.00000000    0.07000000    0.25000000
   17.71444511   -1.00000000    0.07000000    0.25000000
   17.71777916   -1.00000000    0.07000000    0.25000000
   17.72111130   -1.00000000    0.07000000    0.25000000
   17.72416687   -1.00000000    0.07000000    0.25000000
   17.72750092   -1.00000000    0.07000000    0.25000000
   17.73083305   -1.00000000    0.07000000    0.25000000
   17.73388863   -1.00000000    0.07000000    0.25000000
   17.73722267   -1.00000000    0.07000000    0.25000000
   17.74083328   -1.00000000    0.07000000    0.25000000
   17.75083351   -1.00000000    0.07000000    0.25000000
   17.75416756   -1.00000000    0.07000000    0.25000000
   17.75749969   -1.00000000    0.07000000    0.25000000
   17.76055527   -1.00000000    0.07000000    0.25000000
   17.76388931   -1.00000000    0.07000000    0.25000000
   17.76722145   -1.00000000    0.07000000    0.25000000
   17.77027702   -1.00000000    0.07000000    0.25000000
   17.77388954   -1.00000000    0.07000000    0.25000000
   17.77694511   -1.00000000    0.07000000    0.25000000
   17.78027725   -1.00000000    0.07000000    0.25000000
   17.78361130   -1.00000000    0.07000000    0.25000000
   17.79388809   -1.00000000    0.07000000    0.25000000
   17.79694366   -1.00000000    0.07000000    0.25000000
   17.80027771   -1.00000000    0.07000000    0.25000000
   17.80360985   -1.00000000    0.07000000    0.25000000
   17.80722237   -1.00000000    0.07000000    0.25000000
   17.81027794   -1.00000000    0.07000000    0.25000000
   17.81361008   -1.00000000    0.07000000    0.25000000
   17.81666756   -1.00000000    0.07000000    0.25000000
   17.82000160   -1.00000000    0.07000000    0.25000000
   17.82333374   -1.00000000    0.07000000    0.25000000
   17.82638931   -1.00000000    0.07000000    0.25000000
   17.83666801   -1.00000000    0.07000000    0.25000000
   17.84027863   -1.00000000    0.07000000    0.25000000
   17.84333420   -1.00000000    0.07000000    0.25000000
   17.84666824   -1.00000000    0.07000000    0.25000000
   17.84972191   -1.00000000    0.07000000    0.25000000
   17.85305595   -1.00000000    0.07000000    0.25000000
   17.85639000   -1.00000000    0.07000000    0.25000000
   17.85944557   -1.00000000    0.07000000    0.25000000
   17.86277771   -1.00000000    0.07000000    0.25000000
   17.86611176   -1.00000000    0.07000000    0.25000000
   17.86916733   -1.00000000    0.07000000    0.25000000
   17.87944412   -1.00000000    0.07000000    0.25000000
   17.88277817   -1.00000000    0.07000000    0.25000000
   17.88583374   -1.00000000    0.07000000    0.25000000
   17.88916588   -1.00000000    0.07000000    0.25000000
   17.89249992   -1.00000000    0.07000000    0.25000000
   17.89555550   -1.00000000    0.07000000    0.25000000
   17.89888954   -1.00000000    0.07000000    0.25000000
   17.90222168   -1.00000000    0.07000000    0.25000000
   17.90527725   -1.00000000    0.07000000    0.25000000
   17.90888786   -1.00000000    0.07000000    0.25000000
   17.91222191   -1.00000000    0.07000000    0.25000000
   17.92222214   -1.00000000    0.07000000    0.25000000
   17.92555428   -1.00000000    0.07000000    0.25000000
   17.92888832   -1.00000000    0.07000000    0.25000000
   17.93194389   -1.00000000    0.07000000    0.25000000
   17.93527603   -1.00000000    0.07000000    0.25000000
   17.93861008   -1.00000000    0.07000000    0.25000000
   17.94194412   -1.00000000    0.07000000    0.25000000
   17.94527626   -1.00000000    0.07000000    0.25000000
   17.94833183   -1.00000000    0.07000000    0.25000000
   17.95166779   -1.00000000    0.07000000    0.25000000
   17.95499992   -1.00000000    0.07000000    0.25000000
   17.96527863   -1.00000000    0.07000000    0.25000000
   17.96833420   -1.00000000    0.07000000    0.25000000
   17.97166634   -1.00000000    0.07000000    0.25000000
   17.97527885   -1.00000000    0.07000000    0.25000000
   17.97861099   -1.00000000    0.07000000    0.25000000
   17.98166656   -1.00000000    0.07000000    0.25000000
