    HOUR (UT)   FLARE FACTOR    SKY TESTER    SUN TESTER
   12.90333271   -1.00000000   -1.00000000   -1.00000000
   12.95305538  210.08599854    4.90999985    2.11999989
   12.95638847  198.58799744    4.90999985    2.15000010
   12.95944405  214.39799500    4.90999985    2.17000008
   12.96277714  214.88699341    4.90999985    2.21000004
   12.96583271  202.27799988    4.90999985    2.23000002
   12.96916580  201.85699463    4.90999985    2.25000000
   12.97333336  201.85699463    4.90999985    2.25000000
   12.97749996  208.22200012    4.90999985    2.26999998
   12.98055553  182.94999695    4.90999985    2.25000000
   12.98388958  210.79600525    4.90999985    2.26999998
   12.98638916  215.66900635    4.90999985    2.26999998
   12.98750019  209.52400208    4.90999985    2.25000000
   12.99083328  237.52999878    4.90999985    2.26999998
   12.99416733  203.17599487    4.90999985    2.25000000
   12.99722290  220.37600708    4.90999985    2.25000000
   13.00055599  221.85000610    4.90999985    2.25000000
   13.00361156  192.44500732    4.90999985    2.25000000
   13.00694466  199.38999939    4.90999985    2.26999998
   13.01027775  216.06599426    4.90999985    2.26999998
   13.01611137  216.06599426    4.86999989    2.28999996
   13.02027798  211.32400513    4.59999990    2.28999996
   13.02361107  199.11999512    4.40999985    2.28999996
   13.02666664  201.27699280    4.19999981    2.28999996
   13.02999973  218.52799988    3.99000001    2.26999998
   13.03333378  225.89900208    3.76999998    2.25000000
   13.03638935  225.72700500    3.59999990    2.25000000
   13.03972244  224.12600708    3.48000002    2.25000000
   13.04277802  202.25199890    3.48000002    2.26999998
   13.04611111  218.20700073    3.50000000    2.28999996
   13.04944515  221.55299377    3.50000000    2.30999994
   13.05249977  206.23800659    3.46000004    2.32999992
   13.05305576  200.11999512    3.45000005    2.32999992
   13.05888939  200.11999512    3.21000004    2.32999992
   13.06305599  200.47500610    3.01999998    2.32999992
   13.06638908  201.07400513    2.82999992    2.32999992
   13.06972218  193.62899780    2.59999990    2.32999992
   13.07277775  190.70399475    2.40000010    2.32999992
   13.07611084  192.52699280    2.17000008    2.32999992
   13.07916641  215.64799500    1.98000002    2.32999992
   13.08249950  205.63699341    1.73000002    2.32999992
   13.08583260  200.93299866    1.63000000    2.32999992
   13.08638859  202.19299316    1.58000004    2.32999992
   13.08944416  186.84100342    1.51999998    2.32999992
   13.09277725  187.33099365    1.44000006    2.34999990
   13.09583282  194.26300049    1.39999998    2.34999990
   13.10194492  194.26300049    1.36000001    2.32999992
   13.10611153  189.91200256    1.36000001    2.34999990
   13.10916710  191.06100464    1.36000001    2.34999990
   13.11250019  184.11999512    1.39999998    2.34999990
   13.11555576  180.86199951    1.41999996    2.34999990
   13.11888885  175.46000671    1.53999996    2.34999990
   13.11972237  188.48899841    1.55999994    2.34999990
   13.12250042  185.46200562    1.63000000    2.34999990
   13.12583351  184.22799683    1.73000002    2.32999992
   13.12888908  184.14199829    1.83000004    2.32999992
   13.13222218  180.58099365    2.03999996    2.30999994
   13.13527775  193.99600220    2.13000011    2.32999992
   13.13861084  190.11399841    2.28999996    2.32999992
   13.14472198  190.11399841    2.42000008    2.32999992
   13.14888859  183.77200317    2.51999998    2.36999989
   13.15194416  176.61900330    2.57999992    2.36999989
   13.15305519  183.33799744    2.57999992    2.36999989
   13.15583324  191.12500000    2.59999990    2.36999989
   13.15916634  186.98500061    2.59999990    2.36999989
   13.16222191  185.95500183    2.61999989    2.36999989
   13.16555500  183.38200378    2.64000010    2.34999990
   13.16861153  177.76499939    2.69000006    2.36999989
   13.17194462  185.59300232    2.75000000    2.34999990
   13.17527771  193.32400513    2.84999990    2.34999990
   13.17833328  182.80799866    2.93000007    2.34999990
   13.18166733  186.00500488    2.96000004    2.32999992
   13.18750000  186.00500488    2.98000002    2.32999992
   13.19166660  178.36300659    2.98000002    2.34999990
   13.19499969  180.21200562    2.96000004    2.34999990
   13.19805527  185.48800659    2.91000009    2.34999990
   13.20138836  185.45399475    2.89000010    2.32999992
   13.20472240  186.98599243    2.86999989    2.34999990
   13.20777798  192.32299805    2.82999992    2.34999990
   13.21111107  183.65299988    2.76999998    2.34999990
   13.21416664  187.56700134    2.71000004    2.34999990
   13.21749973  193.54699707    2.71000004    2.36999989
   13.21972179  176.91900635    2.71000004    2.36999989
   13.22111034  173.74200439    2.73000002    2.36999989
   13.22444439  201.27600098    2.76999998    2.36999989
   13.23027706  201.27600098    2.73000002    2.36999989
   13.23444462  183.88999939    2.61999989    2.36999989
   13.23777771  183.45599365    2.48000002    2.36999989
   13.24111176  180.81300354    2.40000010    2.39000010
   13.24416733  172.28399658    2.32999992    2.39000010
   13.24750042  180.58500671    2.25000000    2.39000010
   13.25055599  167.36799622    2.15000010    2.40000010
   13.25305557  186.82600403    2.09999990    2.40000010
   13.25444412  183.17599487    2.05999994    2.40000010
   13.25777817  188.55200195    2.01999998    2.39000010
   13.26083374  187.19700623    2.01999998    2.39000010
   13.26416683  183.37699890    2.09999990    2.39000010
   13.26722240  182.65400696    2.21000004    2.39000010
   13.27333355  182.65400696    2.44000006    2.40000010
   13.27750015  175.38999939    2.61999989    2.40000010
   13.28055573  181.90299988    2.67000008    2.40000010
   13.28388977  161.28399658    2.73000002    2.40000010
   13.28638935  178.41900635    2.75000000    2.40000010
   13.28750038  169.41499329    2.76999998    2.40000010
   13.29083347  164.71400452    2.78999996    2.40000010
   13.29388905  171.03199768    2.84999990    2.40000010
   13.29722309  160.91799927    2.96000004    2.40000010
   13.30027771  160.13299561    3.05999994    2.40000010
   13.30361176  161.27400208    3.14000010    2.40000010
   13.30694485  173.69900513    3.25000000    2.40000010
   13.31000042  161.14599609    3.34999990    2.40000010
   13.31611156  161.14599609    3.59999990    2.40000010
   13.32027817  163.79200745    3.97000003    2.40000010
   13.32333374  166.72200012    4.30999994    2.40000010
   13.32666683  173.98100281    4.65999985    2.40000010
   13.32999992  171.89399719    4.90999985    2.40000010
   13.33305550  169.44900513    4.90999985    2.40000010
   13.33638859  170.00100708    4.90999985    2.42000008
   13.33972168  174.41299438    4.90999985    2.40000010
   13.34277725  181.96499634    4.90999985    2.40000010
   13.34611034  171.12199402    4.90999985    2.39000010
   13.34916592  179.11099243    4.90999985    2.36999989
   13.35249996  180.02299500    4.90999985    2.36999989
   13.35305595  184.50900269    4.90999985    2.36999989
   13.35888958  184.50900269    4.90999985    2.36999989
   13.36305618  181.94599915    4.90999985    2.36999989
   13.36638927  177.05499268    4.90999985    2.36999989
   13.36944485  171.91799927    4.90999985    2.36999989
   13.37277794  178.37300110    4.90999985    2.39000010
   13.37611103  183.58599854    4.90999985    2.34999990
   13.37916660  169.04299927    4.90999985    2.36999989
   13.38249969  175.27600098    4.90999985    2.36999989
   13.38583279  170.13099670    4.90999985    2.39000010
   13.38638878  184.00900269    4.90999985    2.39000010
   13.38944435  177.62100220    4.90999985    2.39000010
   13.39277744  176.05599976    4.90999985    2.39000010
   13.39583302  170.49600220    4.90999985    2.36999989
   13.40166664  170.49600220    4.19999981    2.39000010
   13.40638828  166.25799561    3.30999994    2.40000010
   13.40944386  167.74699402    2.42000008    2.42000008
   13.41277695  166.77600098    1.83000004    2.42000008
   13.41583252  164.82000732    1.60000002    2.40000010
   13.41916656  165.67999268    1.41999996    2.40000010
   13.41972256  169.10499573    1.39999998    2.40000010
   13.42277813  165.20100403    1.34000003    2.39000010
   13.42611122  168.76800537    1.36000001    2.39000010
   13.42916679  161.50300598    1.48000002    2.40000010
   13.43249989  175.46400452    1.66999996    2.42000008
   13.43583298  175.47099304    1.60000002    2.42000008
   13.43888855  169.47200012    1.55999994    2.42000008
   13.44472218  169.47200012    1.34000003    2.42000008
   13.44861126  174.90400696    1.23000002    2.42000008
   13.45194435  166.52999878    1.23000002    2.42000008
   13.45305538  164.05200195    1.23000002    2.42000008
   13.45555496  175.34100342    1.30999994    2.44000006
   13.45888901  172.04800415    1.33000004    2.44000006
   13.46194458  171.60899353    1.53999996    2.44000006
   13.46527767  169.64700317    1.53999996    2.44000006
   13.46861076  164.24899292    1.50000000    2.44000006
   13.47166634  157.14900208    1.48000002    2.44000006
   13.47499943  156.49800110    1.41999996    2.46000004
   13.47805500  165.60200500    1.38000000    2.44000006
   13.48138809  157.24499512    1.36000001    2.44000006
   13.48750019  157.24499512    1.34000003    2.44000006
   13.49166679  164.73899841    1.33000004    2.44000006
   13.49472237  164.27400208    1.28999996    2.44000006
   13.49805546  167.33599854    1.25000000    2.46000004
   13.50138855  152.21499634    1.23000002    2.46000004
   13.50444412  154.34599304    1.23000002    2.44000006
   13.50777817  156.66200256    1.14999998    2.46000004
   13.51111126  163.70799255    1.13000000    2.46000004
   13.51416683  160.53399658    1.13000000    2.46000004
   13.51749992  166.18499756    1.13000000    2.44000006
   13.51972198  150.26300049    1.26999998    2.46000004
   13.52111053  152.60400391    1.26999998    2.46000004
   13.52444458  155.12800598    1.28999996    2.46000004
   13.53027725  155.12800598    1.28999996    2.44000006
   13.53444481  168.66799927    2.00000000    2.44000006
   13.53777790  164.81700134    2.30999994    2.42000008
   13.54083347  160.38999939    2.50000000    2.42000008
   13.54416752  183.82200623    2.94000006    2.40000010
   13.54722309  164.19099426    3.43000007    2.39000010
   13.55055618  175.55099487    3.73000002    2.32999992
   13.55333328  189.51199341    3.93000007    2.30999994
   13.55416679  180.39700317    4.05999994    2.28999996
   13.55749989  184.65899658    4.53000021    2.26999998
   13.56055546  178.72700500    4.90999985    2.28999996
   13.56388950  186.43499756    4.90999985    2.25000000
   13.56722260  173.80299377    4.90999985    2.28999996
   13.57305527  173.80299377    4.90999985    2.28999996
   13.57722187  178.17599487    4.90999985    2.28999996
   13.58055592  183.97500610    4.90999985    2.25000000
   13.58361053  191.93299866    4.90999985    2.21000004
   13.58666611  191.48800659    4.90999985    2.23000002
   13.58722210  179.29800415    4.90999985    2.23000002
   13.59055519  174.14500427    4.90999985    2.21000004
   13.59361076  181.68899536    4.90999985    2.26999998
   13.59694386  225.17700195    4.90999985    2.21000004
   13.60027790  182.09800720    4.90999985    2.13000011
   13.60333347  186.36300659    4.90999985    2.25000000
   13.60666752  202.66200256    4.90999985    2.25000000
   13.60972214  183.82000732    4.90999985    2.23000002
   13.61611176  183.82000732    4.90999985    2.23000002
   13.62027836  177.96800232    4.90999985    2.23000002
   13.62333393  182.13999939    4.90999985    2.25000000
   13.62666702  153.84100342    4.90999985    2.26999998
   13.62972260  144.81599426    4.90999985    2.36999989
   13.63305569  157.69799805    4.90999985    2.40000010
   13.63638878  163.55700684    4.90999985    2.44000006
   13.63944435  149.67199707    4.90999985    2.46000004
   13.64277744  152.21899414    4.90999985    2.42000008
   13.64611053  170.77200317    4.90999985    2.39000010
   13.64916611  153.17500305    4.90999985    2.34999990
   13.65249920  174.53599548    4.90999985    2.28999996
   13.65333271  179.50999451    4.90999985    2.28999996
   13.65888882  179.50999451    4.90999985    2.36999989
   13.66305542  162.10800171    4.90999985    2.32999992
   13.66611099  160.22700500    4.90999985    2.36999989
   13.66944504  167.26100159    4.90999985    2.39000010
   13.67277813  158.06399536    4.90999985    2.42000008
   13.67583370  158.13999939    4.90999985    2.44000006
   13.67916679  157.27600098    4.90999985    2.44000006
   13.68222237  154.45100403    4.90999985    2.46000004
   13.68555546  144.13499451    4.90999985    2.48000002
   13.68666649  161.52000427    4.90999985    2.48000002
   13.68916702  159.09700012    4.90999985    2.48000002
   13.69250011  146.79400635    4.90999985    2.44000006
   13.69555569  171.99899292    4.90999985    2.44000006
   13.70166683  171.99899292    4.90999985    2.39000010
   13.70583344  153.51499939    4.90999985    2.36999989
   13.70916653  172.97399902    4.90999985    2.32999992
   13.71222210  167.87300110    4.90999985    2.30999994
   13.71555519  173.29699707    4.90999985    2.28999996
   13.71888828  180.08500671    4.90999985    2.30999994
   13.71999931  174.54600525    4.90999985    2.28999996
   13.72222137  182.76899719    4.90999985    2.26999998
   13.72555542  200.23199463    4.90999985    2.17000008
   13.72861099  210.07600403    4.90999985    2.21000004
   13.73194408  230.27400208    4.90999985    2.21000004
   13.73527813  186.81799316    4.90999985    2.13000011
   13.73833370  216.00999451    4.90999985    2.17000008
   13.74444485  216.00999451    4.90999985    2.15000010
   13.74861145  221.36199951    4.90999985    2.13000011
   13.75194454  180.71600342    4.90999985    2.07999992
   13.75333309  186.68600464    4.90999985    2.13000011
   13.75555515  184.45199585    4.90999985    2.25000000
   13.75888920  201.61599731    4.90999985    2.25000000
   13.76194477  184.74600220    4.90999985    2.25000000
   13.76527786  202.01100159    4.90999985    2.21000004
   13.76861095  204.16499329    4.90999985    2.11999989
   13.77166653  205.19200134    4.90999985    2.13000011
   13.77499962  222.71000671    4.90999985    2.15000010
   13.77833271  243.88200378    4.90999985    2.11999989
   13.78138828  198.44700623    4.90999985    2.11999989
   13.78750038  198.44700623    4.90999985    2.13000011
   13.79138947  239.31900024    4.90999985    2.11999989
   13.79472256  221.75500488    4.90999985    2.09999990
   13.79805565  182.10800171    4.90999985    2.00000000
   13.80111122  174.85299683    4.90999985    2.28999996
   13.80444431  179.42500305    4.90999985    2.25000000
   13.80777836  195.67999268    4.90999985    2.25000000
   13.81083393  200.50799561    4.90999985    2.09999990
   13.81416702  183.83999634    4.90999985    2.17000008
   13.81722260  236.67900085    4.90999985    2.17000008
   13.81999969  235.71499634    4.90999985    2.03999996
   13.82083321  250.11300659    4.90999985    2.00000000
   13.82416630  243.70100403    4.90999985    2.09999990
   13.83027744  243.70100403    4.90999985    2.05999994
   13.83444405  229.03599548    4.90999985    2.07999992
   13.83749962  212.36599731    4.90999985    2.07999992
   13.84083271  172.61199951    4.90999985    2.19000006
   13.84416676  172.87300110    4.90999985    2.28999996
   13.84722233  196.50500488    4.90999985    2.26999998
   13.85055637  180.14100647    4.90999985    2.25000000
   13.85333347  215.46800232    4.90999985    2.23000002
   13.85416698  227.59700012    4.90999985    2.19000006
   13.85750008  284.96600342    4.90999985    1.98000002
   13.86083412  252.14100647    4.90999985    2.03999996
   13.86388969  194.77200317    4.90999985    1.98000002
   13.86722279  175.50000000    4.90999985    2.15000010
   13.87305546  175.50000000    4.90999985    2.15000010
   13.87722206  234.20599365    4.90999985    2.00000000
   13.88055611  276.31201172    4.90999985    2.01999998
   13.88361073  272.60299683    4.90999985    2.03999996
   13.88666630  253.07099915    4.90999985    2.03999996
   13.88722229  276.27801514    4.90999985    2.03999996
   13.89055538  291.26400757    4.90999985    2.00000000
   13.89388847  214.39500427    4.90999985    1.86000001
   13.89694405  428.54098511    4.90999985    1.89999998
   13.89916611  344.11401367    4.90999985    1.83000004
   13.90027714  283.90701294    4.90999985    1.78999996
   13.90166664  390.97000122    4.90999985    1.78999996
   13.90305519  333.01199341    4.90999985    1.80999994
   13.90444374  385.47601318    4.90999985    1.83000004
   13.90583324  221.49800110    4.90999985    1.88000000
   13.90611076  194.77200317    4.90999985    1.98000002
   13.90611076  175.50000000    4.90999985    2.15000010
   13.90611076  234.20599365    4.90999985    2.00000000
   13.90638828  276.31201172    4.90999985    2.01999998
   13.90638828  272.60299683    4.90999985    2.03999996
   13.90638828  276.27801514    4.90999985    2.03999996
   13.90666676  291.26400757    4.90999985    2.00000000
   13.90666676  214.39500427    4.90999985    1.86000001
   13.90666676  428.54098511    4.90999985    1.89999998
   13.90722179  260.18399048    4.90999985    1.98000002
   13.91055489  349.82501221    4.90999985    1.94000006
   13.91249943  279.73999023    4.90999985    1.86000001
   13.91388893  245.14100647    4.90999985    1.89999998
   13.91388893  260.18399048    4.90999985    1.98000002
   13.91416645  349.82501221    4.90999985    1.94000006
   13.91527748  225.52900696    4.90999985    1.94000006
   13.91833401  288.71600342    4.90999985    2.01999998
   13.92166710  346.13101196    4.90999985    1.94000006
   13.92361164  221.14199829    4.90999985    1.94000006
   13.92388916  225.52900696    4.90999985    1.94000006
   13.92388916  288.71600342    4.90999985    2.01999998
   13.92388916  346.13101196    4.90999985    1.94000006
   13.92583370  309.64001465    4.90999985    2.03999996
   13.92805576  360.69500732    4.90999985    2.01999998
   13.92916679  469.15701294    4.90999985    1.96000004
   13.93055630  387.66900635    4.90999985    1.91999996
   13.93194485  355.29199219    4.90999985    1.88000000
   13.93333340  345.33499146    4.90999985    1.94000006
   13.93472195  450.46301270    4.90999985    1.98000002
   13.93611145  495.25201416    4.90999985    1.91999996
   13.93750000  360.96899414    4.90999985    1.88000000
   13.93888855  460.85299683    4.90999985    1.88000000
   13.94027805  369.65701294    4.90999985    1.88000000
   13.94166660  280.45599365    4.90999985    1.86000001
   13.94305515  415.09600830    4.90999985    1.85000002
   13.94444466  381.66198730    4.90999985    1.88000000
   13.94583321  384.16101074    4.90999985    1.91999996
   13.94722271  122.42299652    4.90999985    1.89999998
   13.94750023  309.64001465    4.90999985    2.03999996
   13.94805527   73.49040222    4.90999985    1.89999998
   13.95111084   -1.00000000   -1.00000000   -1.00000000
   13.97388840   -1.00000000   -1.00000000   -1.00000000
   13.97805500   -1.00000000    4.90999985    1.36000001
   13.98166656   -1.00000000    4.90999985    1.38000000
   13.98472214   -1.00000000    4.90999985    1.38000000
   13.98805618   -1.00000000    4.90999985    1.38000000
   13.99138927   -1.00000000    4.90999985    1.51999998
   13.99444485   -1.00000000    4.90999985    1.50000000
   13.99777794   67.20369720    4.90999985    1.58000004
   14.00111103   81.85649872    4.90999985    1.66999996
   14.00416660  136.12500000    4.90999985    1.71000004
   14.00749969  117.92500305    4.90999985    1.73000002
   14.01055527  114.33699799    4.90999985    1.71000004
   14.01666641  114.33699799    4.90999985    1.69000006
   14.02083302   -1.00000000    4.90999985    1.58000004
   14.02388859   -1.00000000    4.90999985    1.55999994
   14.02722168   75.89209747    4.90999985    1.58000004
   14.03027725   -1.00000000    4.90999985    1.53999996
   14.03361130   99.73719788    4.90999985    1.60000002
   14.03694534  105.17700195    4.90999985    1.76999998
   14.04000092  104.14399719    4.90999985    1.76999998
   14.04333401   87.20860291    4.90999985    1.71000004
   14.04666710  119.02799988    4.90999985    1.69000006
   14.04805565  112.76300049    4.90999985    1.73000002
   14.05027771  188.50500488    4.90999985    1.76999998
   14.05361176  279.25601196    4.90999985    1.83000004
   14.05944443  279.25601196    4.90999985    1.76999998
   14.06361103  390.22900391    4.90999985    1.83000004
   14.06555557  344.28298950    4.90999985    1.88000000
   14.06694412  412.05499268    4.90999985    1.88000000
   14.06833363  402.45300293    4.90999985    1.89999998
   14.06972218  121.91000366    4.90999985    1.91999996
   14.06972218  105.17700195    4.90999985    1.76999998
   14.06999969  104.14399719    4.90999985    1.76999998
   14.06999969   87.20860291    4.90999985    1.71000004
   14.06999969  119.02799988    4.90999985    1.69000006
   14.07027817  188.50500488    4.90999985    1.76999998
   14.07027817  279.25601196    4.90999985    1.83000004
   14.07027817  390.22900391    4.90999985    1.83000004
   14.07055569   -1.00000000    4.90999985    1.53999996
   14.07055569   99.73719788    4.90999985    1.60000002
   14.07111073  108.96700287    4.90999985    1.78999996
   14.07444477  151.63900757    4.90999985    1.69000006
   14.07750034  328.09201050    4.90999985    1.71000004
   14.07972240  307.66799927    4.90999985    1.85000002
   14.08083344  271.00698853    4.90999985    1.86000001
   14.08222198  409.72799683    4.90999985    1.85000002
   14.08361053  199.74099731    4.90999985    1.86000001
   14.08388901  108.96700287    4.90999985    1.78999996
   14.08388901  151.63900757    4.90999985    1.69000006
   14.08388901  328.09201050    4.90999985    1.71000004
   14.08444405  221.96499634    4.90999985    1.86000001
   14.08777714  387.55999756    4.90999985    1.83000004
   14.08972168  166.21499634    4.90999985    1.85000002
   14.09000015  221.96499634    4.90999985    1.86000001
   14.09000015  387.55999756    4.90999985    1.83000004
   14.09194374  185.83200073    4.90999985    1.78999996
   14.09527779  126.51399994    4.90999985    1.75000000
   14.09833336  264.99600220    4.90999985    1.78999996
   14.10166740  356.88800049    4.90999985    1.80999994
   14.10361195  450.44400024    4.90999985    1.85000002
   14.10500050  430.03399658    4.90999985    1.86000001
   14.10638905  362.16400146    4.90999985    1.91999996
   14.10777855  366.14700317    4.90999985    1.94000006
   14.10916710  421.87500000    4.90999985    1.89999998
   14.11055565  389.37399292    4.90999985    1.88000000
   14.11194515  377.44601440    4.90999985    1.88000000
   14.11333370  438.85699463    4.90999985    1.86000001
   14.11472225  356.00500488    4.90999985    1.88000000
   14.11611176  363.34298706    4.90999985    1.94000006
   14.11750031  361.87899780    4.90999985    1.98000002
   14.11888885  404.14599609    4.90999985    1.98000002
   14.12027836  370.51800537    4.90999985    1.98000002
   14.12166691  475.38000488    4.90999985    1.94000006
   14.12305546  435.77099609    4.90999985    1.89999998
   14.12444496  339.39898682    4.90999985    1.83000004
   14.12583351  208.21000671    4.90999985    1.80999994
   14.12583351  185.83200073    4.90999985    1.78999996
   14.12611103  126.51399994    4.90999985    1.75000000
   14.12611103  264.99600220    4.90999985    1.78999996
   14.12611103  356.88800049    4.90999985    1.80999994
   14.12666702  242.42999268    4.90999985    1.80999994
   14.13000011  434.96600342    4.90999985    1.83000004
   14.13194466  354.83999634    4.90999985    1.88000000
   14.13333321  304.38800049    4.90999985    1.91999996
   14.13472176  175.75700378    4.90999985    1.86000001
   14.13472176  242.42999268    4.90999985    1.80999994
   14.13500023  434.96600342    4.90999985    1.83000004
   14.13555527  143.35400391    4.90999985    1.83000004
   14.13861084   75.49199677    4.90999985    1.66999996
   14.14194393  145.98100281    4.90999985    1.66999996
   14.14499950  118.08100128    4.90999985    1.71000004
   14.14833355  323.51098633    4.90999985    1.75000000
   14.15027714   88.77110291    4.90999985    1.80999994
   14.15055561  143.35400391    4.90999985    1.83000004
   14.15055561   75.49199677    4.90999985    1.66999996
   14.15055561  145.98100281    4.90999985    1.66999996
   14.15083313  118.08100128    4.90999985    1.71000004
   14.15083313  323.51098633    4.90999985    1.75000000
   14.15277767  118.91999817    4.90999985    1.71000004
   14.15611076  225.17399597    4.90999985    1.86000001
   14.15916634  329.90701294    4.90999985    1.88000000
   14.16138840  316.59899902    4.90999985    1.85000002
   14.16249943  367.70199585    4.90999985    1.94000006
   14.16388893  280.04998779    4.90999985    1.98000002
   14.16527748  133.28300476    4.90999985    1.94000006
   14.16555500  118.91999817    4.90999985    1.71000004
   14.16555500  225.17399597    4.90999985    1.86000001
   14.16555500  329.90701294    4.90999985    1.88000000
   14.16638851   23.57019997    4.90999985    1.85000002
   14.16944504   -1.00000000    4.90999985    1.58000004
   14.17277813   -1.00000000    4.90999985    1.44000006
   14.17583370   -1.00000000    4.90999985    1.46000004
   14.17916679   -1.00000000    4.90999985    1.53999996
   14.18249989   -1.00000000    4.90999985    1.55999994
   14.18638897   -1.00000000    4.90999985    1.53999996
   14.19055557   89.15670013    4.90999985    1.58000004
   14.19388866  319.81900024    4.90999985    1.85000002
   14.19583321  112.95600128    4.90999985    1.86000001
   14.19611073   23.57019997    4.90999985    1.85000002
   14.19611073   -1.00000000    4.90999985    1.58000004
   14.19611073   -1.00000000    4.90999985    1.44000006
   14.19638920   -1.00000000    4.90999985    1.46000004
   14.19638920   -1.00000000    4.90999985    1.53999996
   14.19638920   -1.00000000    4.90999985    1.55999994
   14.19666672   89.15670013    4.90999985    1.58000004
   14.19666672  319.81900024    4.90999985    1.85000002
   14.19861126  339.11700439    4.90999985    1.73000002
   14.20055580  440.32699585    4.90999985    1.83000004
   14.20194435  308.13699341    4.90999985    1.94000006
   14.20333290  430.57501221    4.90999985    2.00000000
   14.20472240  279.08898926    4.90999985    2.00000000
   14.20611095  307.38699341    4.90999985    1.91999996
   14.20749950  381.93899536    4.90999985    1.88000000
   14.20888901  178.21200562    4.90999985    1.86000001
   14.20916653  339.11700439    4.90999985    1.73000002
   14.20972157  146.90100098    4.90999985    1.86000001
   14.21277714  383.88299561    4.90999985    1.73000002
   14.21500015  167.13600159    4.90999985    1.80999994
   14.21500015  146.90100098    4.90999985    1.86000001
   14.21500015  383.88299561    4.90999985    1.73000002
   14.21694374  108.09999847    4.90999985    1.78999996
   14.22027779  126.19699860    4.90999985    1.78999996
   14.22361088  130.01300049    4.90999985    1.73000002
   14.22666645  131.40299988    4.90999985    1.69000006
   14.22999954  120.31900024    4.90999985    1.69000006
   14.23555565  120.31900024    4.90999985    1.73000002
   14.23972225   82.53450012    4.90999985    1.78999996
   14.24305534   90.28880310    4.90999985    1.69000006
   14.24638939   -1.00000000    4.90999985    1.69000006
   14.24861145   36.71250153    4.90999985    1.63000000
   14.25000000   -1.00000000    4.90999985    1.63000000
   14.25333309   -1.00000000    4.90999985    1.53999996
   14.25638866   -1.00000000    4.90999985    1.46000004
   14.25972176   -1.00000000    4.90999985    1.39999998
   14.26305580   -1.00000000    4.90999985    1.39999998
   14.26611137   -1.00000000    4.90999985    1.38000000
   14.26944447   -1.00000000    4.90999985    1.44000006
   14.27250004   -1.00000000    4.90999985    1.51999998
   14.27861118   -1.00000000    4.90999985    1.50000000
   14.28277779   -1.00000000    4.90999985    1.44000006
   14.28583336   -1.00000000    4.90999985    1.38000000
   14.28916740   -1.00000000    4.90999985    1.38000000
   14.29250050   -1.00000000    4.90999985    1.34000003
   14.29555607   -1.00000000    4.90999985    1.41999996
   14.29888916   -1.00000000    4.90999985    1.38000000
   14.30222225   -1.00000000    4.90999985    1.41999996
   14.30527782   -1.00000000    4.90999985    1.44000006
   14.30861092   -1.00000000    4.90999985    1.41999996
   14.31166649   -1.00000000    4.90999985    1.33000004
   14.31500053   -1.00000000    4.90999985    1.50000000
   14.32138920   -1.00000000    4.90999985    1.48000002
   14.32555580   -1.00000000    4.90999985    1.39999998
   14.32861137   -1.00000000    4.90999985    1.26999998
   14.33194447   -1.00000000    4.90999985    1.25000000
   14.33527756   -1.00000000    4.90999985    1.30999994
   14.33833313   -1.00000000    4.90999985    1.28999996
   14.34166622   -1.00000000    4.90999985    1.41999996
   14.34499931   -1.00000000    4.90999985    1.51999998
   14.34805489   -1.00000000    4.90999985    1.39999998
   14.35166740   -1.00000000    4.90999985    1.26999998
   14.35500050   -1.00000000    4.90999985    1.23000002
   14.35833359   -1.00000000    4.90999985    1.26999998
   14.36833382   -1.00000000    4.90999985    1.46000004
   14.37138939   -1.00000000    4.90999985    1.44000006
   14.37472248   -1.00000000    4.90999985    1.41999996
   14.37805557   -1.00000000    4.90999985    1.50000000
   14.38111115   -1.00000000    4.90999985    1.55999994
   14.38472176   -1.00000000    4.90999985    1.44000006
   14.38805580   -1.00000000    4.90999985    1.36000001
   14.39138889   -1.00000000    4.90999985    1.36000001
   14.39444447   -1.00000000    4.90999985    1.55999994
   14.39777756   -1.00000000    4.90999985    1.51999998
   14.40083313   -1.00000000    4.90999985    1.46000004
   14.40694427   -1.00000000    4.90999985    1.41999996
   14.41111088   -1.00000000    4.90999985    1.41999996
   14.41444397   -1.00000000    4.90999985    1.38000000
   14.41777802   -1.00000000    4.90999985    1.44000006
   14.42111111   -1.00000000    4.90999985    1.44000006
   14.42444515   -1.00000000    4.90999985    1.48000002
   14.42750072   31.29129982    4.90999985    1.60000002
   14.43083382   28.74090004    4.90999985    1.69000006
   14.43388939  127.61599731    4.90999985    1.69000006
   14.43722248  155.16000366    4.90999985    1.75000000
   14.44055557  132.08500671    4.90999985    1.75000000
   14.44361115  471.50100708    4.90999985    1.86000001
   14.44583321  243.27000427    4.90999985    1.89999998
   14.44583321   31.29129982    4.90999985    1.60000002
   14.44583321   28.74090004    4.90999985    1.69000006
   14.44611073  127.61599731    4.90999985    1.69000006
   14.44611073  155.16000366    4.90999985    1.75000000
   14.44611073  132.08500671    4.90999985    1.75000000
   14.44638920  471.50100708    4.90999985    1.86000001
   14.44638920   -1.00000000    4.90999985    1.44000006
   14.44638920   -1.00000000    4.90999985    1.44000006
   14.44666672   -1.00000000    4.90999985    1.48000002
   14.44861126  141.18099976    4.90999985    1.85000002
   14.45166683  239.71000671    4.90999985    1.75000000
   14.45499992  525.88000488    4.90999985    1.85000002
   14.45694447  342.43600464    4.90999985    1.91999996
   14.45833302  414.77899170    4.90999985    1.94000006
   14.45972157  332.00299072    4.90999985    1.96000004
   14.46111107  225.26400757    4.90999985    1.89999998
   14.46111107  141.18099976    4.90999985    1.85000002
   14.46138859  239.71000671    4.90999985    1.75000000
   14.46138859  525.88000488    4.90999985    1.85000002
   14.46194458  175.76499939    4.90999985    1.86000001
   14.46527767  130.12100220    4.90999985    1.85000002
   14.46833324  124.50900269    4.90999985    1.78999996
   14.47166634   -1.00000000   -1.00000000   -1.00000000
   14.47499943   60.58089828    4.90999985    1.61000001
   14.47805500   -1.00000000    4.90999985    1.51999998
   14.48222160   -1.00000000    4.90999985    1.48000002
   14.48638916   -1.00000000    4.90999985    1.33000004
   14.48972225   -1.00000000    4.90999985    1.33000004
   14.49277782   -1.00000000    4.90999985    1.28999996
   14.49638939   -1.00000000    4.90999985    1.36000001
   14.49972248   -1.00000000    4.90999985    1.46000004
   14.50305557   -1.00000000    4.90999985    1.46000004
   14.50611115  137.76600647    4.90999985    1.55999994
   14.50944424   23.57019997    4.90999985    1.78999996
   14.51249981   -1.00000000    4.90999985    1.60000002
   14.51583290   -1.00000000    4.90999985    1.61000001
   14.51916599   -1.00000000    4.90999985    1.61000001
   14.52499962   -1.00000000    4.90999985    1.60000002
   14.52916622   -1.00000000    4.90999985    1.66999996
   14.53249931   -1.00000000    4.90999985    1.71000004
   14.53555584  113.48799896    4.90999985    1.75000000
   14.53888893   -1.00000000   -1.00000000   -1.00000000
   14.54222298  134.61700439    4.90999985    1.69000006
   14.54527855  128.06599426    4.90999985    1.73000002
   14.54861164  227.34899902    4.90999985    1.85000002
   14.55194473  149.79699707    4.90999985    1.83000004
   14.55500031  245.91999817    4.90999985    1.98000002
   14.55833340  355.49200439    4.90999985    2.13000011
   14.56027794  409.79400635    4.90999985    2.03999996
   14.56166649  329.54800415    4.90999985    2.00000000
   14.56305599  288.48800659    4.90999985    2.00000000
   14.56444454  225.16700745    4.90999985    2.03999996
   14.56444454   -1.00000000    4.90999985    1.71000004
   14.56472206  113.48799896    4.90999985    1.75000000
   14.56472206   -1.00000000   -1.00000000   -1.00000000
   14.56472206  134.61700439    4.90999985    1.69000006
   14.56500053  128.06599426    4.90999985    1.73000002
   14.56500053  227.34899902    4.90999985    1.85000002
   14.56500053  149.79699707    4.90999985    1.83000004
   14.56527805  245.91999817    4.90999985    1.98000002
   14.56527805  355.49200439    4.90999985    2.13000011
   14.56583309  257.82800293    4.90999985    2.21000004
   14.56916618  256.30099487    4.90999985    2.17000008
   14.57222176  283.72198486    4.90999985    2.13000011
   14.57555580  491.17599487    4.90999985    2.05999994
   14.57750034  521.92199707    4.90999985    1.96000004
   14.57888889  326.45599365    4.90999985    1.96000004
   14.58027744  236.25000000    4.90999985    2.00000000
   14.58027744  257.82800293    4.90999985    2.21000004
   14.58055592  256.30099487    4.90999985    2.17000008
   14.58055592  283.72198486    4.90999985    2.13000011
   14.58055592  491.17599487    4.90999985    2.05999994
   14.58111095  289.29901123    4.90999985    2.05999994
   14.58472157  346.00500488    4.90999985    2.05999994
   14.58666611  396.25201416    4.90999985    2.03999996
   14.58805561  384.22399902    4.90999985    2.01999998
   14.58944416  481.17498779    4.90999985    2.01999998
   14.59083271  395.97601318    4.90999985    2.00000000
   14.59222221  413.58999634    4.90999985    2.00000000
   14.59361076  404.15798950    4.90999985    2.01999998
   14.59499931  383.80700684    4.90999985    2.01999998
   14.59638882  346.13598633    4.90999985    2.03999996
   14.59777737  360.19000244    4.90999985    2.05999994
   14.59916592  334.94299316    4.90999985    2.07999992
   14.60055637  367.13299561    4.90999985    2.09999990
   14.60194492  256.83700562    4.90999985    2.09999990
   14.60333347  268.76098633    4.90999985    2.11999989
   14.60472298  377.72299194    4.90999985    2.13000011
   14.60611153  407.35501099    4.90999985    2.09999990
   14.60750008  431.19198608    4.90999985    2.05999994
   14.60888958  275.65701294    4.90999985    2.00000000
   14.61027813  177.38999939    4.90999985    1.89999998
   14.61027813  289.29901123    4.90999985    2.05999994
   14.61055565  346.00500488    4.90999985    2.05999994
   14.61111164  397.19000244    4.90999985    1.89999998
   14.61305618  466.65100098    4.90999985    1.89999998
   14.61444473  377.68399048    4.90999985    1.98000002
   14.61583328  302.48800659    4.90999985    1.98000002
   14.61722279  247.92500305    4.90999985    1.96000004
   14.61722279  397.19000244    4.90999985    1.89999998
   14.61777782  173.73300171    4.90999985    1.91999996
   14.62111092  104.73799896    4.90999985    1.88000000
   14.62416649  138.23699951    4.90999985    1.78999996
   14.62750053   48.20610046    4.90999985    1.85000002
   14.63083363   88.48339844    4.90999985    1.75000000
   14.63388920   52.71770096    4.90999985    1.75000000
   14.63805580   52.71770096    4.90999985    1.75000000
   14.64222240  128.59599304    4.90999985    1.83000004
   14.64555550  114.85600281    4.90999985    1.78999996
   14.64861107   38.23649979    4.90999985    1.64999998
   14.65111065   -1.00000000   -1.00000000   -1.00000000
   14.65222168   59.16439819    4.90999985    1.66999996
   14.65555477   79.18949890    4.90999985    1.69000006
   14.65888882   -1.00000000    4.90999985    1.73000002
   14.66194439  136.82400513    4.90999985    1.80999994
   14.66527748  154.27699280    4.90999985    1.86000001
   14.66833401  362.28601074    4.90999985    1.89999998
   14.67055607  126.99900055    4.90999985    1.96000004
   14.67055607   59.16439819    4.90999985    1.66999996
   14.67055607   79.18949890    4.90999985    1.69000006
   14.67083359   -1.00000000    4.90999985    1.73000002
   14.67083359  136.82400513    4.90999985    1.80999994
   14.67111111  154.27699280    4.90999985    1.86000001
   14.67111111  362.28601074    4.90999985    1.89999998
   14.67111111  128.59599304    4.90999985    1.83000004
   14.67138958  114.85600281    4.90999985    1.78999996
   14.67138958   38.23649979    4.90999985    1.64999998
   14.67333412  352.52999878    4.90999985    1.88000000
   14.67527771  138.71499634    4.90999985    1.94000006
   14.67722225  234.38299561    4.90999985    1.91999996
   14.68055630  385.59899902    4.90999985    1.94000006
   14.68249989  404.82299805    4.90999985    2.00000000
   14.68388939  360.32699585    4.90999985    2.00000000
   14.68527794  171.48800659    4.90999985    1.94000006
   14.68527794  234.38299561    4.90999985    1.91999996
   14.68555546  385.59899902    4.90999985    1.94000006
   14.68611145  306.46200562    4.90999985    1.86000001
   14.68805599  128.38400269    4.90999985    1.89999998
   14.69000053  121.06999969    4.90999985    1.85000002
   14.69333363   46.23220062    4.90999985    1.78999996
   14.69638920   38.02109909    4.90999985    1.63000000
   14.69972229  103.25599670    4.90999985    1.78999996
   14.70305538   -1.00000000    4.90999985    1.60000002
   14.70888901   -1.00000000    4.90999985    1.50000000
   14.71305561   -1.00000000    4.90999985    1.46000004
   14.71638870   31.14200020    4.90999985    1.58000004
   14.71944427   -1.00000000    4.90999985    1.53999996
   14.72305489   -1.00000000    4.90999985    1.41999996
   14.72638798   -1.00000000    4.90999985    1.46000004
   14.72972202   -1.00000000    4.90999985    1.34000003
   14.73277760   -1.00000000    4.90999985    1.36000001
   14.73611164   -1.00000000    4.90999985    1.41999996
   14.73916721   -1.00000000    4.90999985    1.46000004
   14.74250031   -1.00000000    4.90999985    1.58000004
   14.74583340   -1.00000000    4.90999985    1.73000002
   14.75166702   -1.00000000    4.90999985    1.71000004
   14.75583363   -1.00000000    4.90999985    1.61000001
   14.75916672   -1.00000000    4.90999985    1.48000002
   14.76249981   -1.00000000    4.90999985    1.51999998
   14.76555538   -1.00000000    4.90999985    1.44000006
   14.76888847   -1.00000000    4.90999985    1.39999998
   14.77222157   -1.00000000    4.90999985    1.44000006
   14.77527714   -1.00000000    4.90999985    1.51999998
   14.77861118   -1.00000000    4.90999985    1.44000006
   14.78166676   75.10140228    4.90999985    1.61000001
   14.78500080   64.74639893    4.90999985    1.80999994
   14.78833389  213.07600403    4.90999985    1.64999998
   14.78888893  132.15499878    4.90999985    1.73000002
   14.79472256  132.15499878    4.90999985    1.69000006
   14.79861164   -1.00000000    4.90999985    1.71000004
   14.89583302   -1.00000000   -1.00000000   -1.00000000
   15.08333302   -1.00000000   -1.00000000   -1.00000000
   15.20611095   -1.00000000   -1.00000000   -1.00000000
   15.29805565   -1.00000000    4.90999985    0.92000002
   15.30138874   -1.00000000    4.90999985    0.95999998
   15.30444431   -1.00000000    4.90999985    1.05999994
   15.30777836   -1.00000000    4.90999985    1.14999998
   15.31111145   -1.00000000    4.90999985    1.23000002
   15.31527805   -1.00000000    4.90999985    1.38000000
   15.31944466   -1.00000000    4.90999985    1.48000002
   15.32250023  111.57499695    4.90999985    1.60000002
   15.32583332  107.17099762    4.90999985    1.86000001
   15.32833290   88.65489960    4.90999985    1.86000001
   15.32972240   70.62159729    4.90999985    1.85000002
   15.33277798   48.71889877    4.90999985    1.76999998
   15.33611107  127.86100006    4.90999985    1.63000000
   15.33944416  253.09899902    4.90999985    1.78999996
   15.34249973  166.49800110    4.90999985    1.96000004
   15.34583282  472.63101196    4.90999985    1.88000000
   15.34777737  196.98699951    4.90999985    2.01999998
   15.34805489   48.71889877    4.90999985    1.76999998
   15.34805489  127.86100006    4.90999985    1.63000000
   15.34805489  253.09899902    4.90999985    1.78999996
   15.34833336  166.49800110    4.90999985    1.96000004
   15.34833336  472.63101196    4.90999985    1.88000000
   15.34833336   -1.00000000    4.90999985    1.48000002
   15.34861088  111.57499695    4.90999985    1.60000002
   15.34861088  107.17099762    4.90999985    1.86000001
   15.34861088   70.62159729    4.90999985    1.85000002
   15.35055637   89.24530029    4.90999985    1.85000002
   15.35388947   -1.00000000    4.90999985    1.71000004
   15.35694504   -1.00000000    4.90999985    1.50000000
   15.36027813   -1.00000000    4.90999985    1.16999996
   15.36361122   -1.00000000    4.90999985    1.07000005
   15.36861134   -1.00000000    4.90999985    1.41999996
   15.37305546   -1.00000000    4.90999985    1.51999998
   15.37638855   -1.00000000    4.90999985    1.36000001
   15.37944412   -1.00000000    4.90999985    1.23000002
   15.38305569   -1.00000000    4.90999985    1.26999998
   15.38638878   -1.00000000    4.90999985    1.28999996
   15.38972187   -1.00000000    4.90999985    1.28999996
   15.39277744   -1.00000000    4.90999985    1.33000004
   15.39611053   -1.00000000    4.90999985    1.46000004
   15.39944458   -1.00000000    4.90999985    1.26999998
   15.40249920   -1.00000000    4.90999985    1.26999998
   15.40583324   -1.00000000    4.90999985    1.14999998
   15.41555500   -1.00000000    4.90999985    1.11000001
   15.41888905   -1.00000000    4.90999985    1.21000004
   15.42194462   -1.00000000    4.90999985    1.19000006
   15.42527771   -1.00000000    4.90999985    1.21000004
   15.42833328   -1.00000000    4.90999985    1.16999996
   15.43166733   -1.00000000    4.90999985    1.26999998
   15.43500042   -1.00000000    4.90999985    1.23000002
   15.43805599   -1.00000000    4.90999985    1.14999998
   15.44138908   -1.00000000    4.90999985    1.19000006
   15.44472218   -1.00000000    4.90999985    1.23000002
   15.44777775   -1.00000000    4.90999985    1.28999996
   15.45833302   -1.00000000    4.90999985    1.25000000
   15.46166611   -1.00000000    4.90999985    1.25000000
   15.46472168   -1.00000000    4.90999985    1.41999996
   15.46805477   -1.00000000    4.90999985    1.41999996
   15.47138882   -1.00000000    4.90999985    1.28999996
   15.47444439   -1.00000000    4.90999985    1.36000001
   15.47777748   -1.00000000    4.90999985    1.26999998
   15.48083305   -1.00000000    4.90999985    1.30999994
   15.48444462   -1.00000000    4.90999985    1.33000004
   15.48777771   -1.00000000    4.90999985    1.33000004
   15.49111176   -1.00000000    4.90999985    1.38000000
   15.50111103   -1.00000000    4.90999985    1.34000003
   15.50444412   -1.00000000    4.90999985    1.25000000
   15.50777817   -1.00000000    4.90999985    1.28999996
   15.51083374   -1.00000000    4.90999985    1.25000000
   15.51416683   -1.00000000    4.90999985    1.25000000
   15.51749992   -1.00000000    4.90999985    1.36000001
   15.52083302   -1.00000000    4.90999985    1.36000001
   15.52416611   -1.00000000    4.90999985    1.44000006
   15.52722168   -1.00000000    4.90999985    1.61000001
   15.53055573   -1.00000000   -1.00000000   -1.00000000
   15.53388977  114.23899841    4.90999985    1.73000002
   15.54000092  114.23899841    4.90999985    1.76999998
   15.54416752   -1.00000000    4.90999985    1.55999994
   15.54750061   72.66000366    4.90999985    1.69000006
   15.54833412   39.06240082    4.90999985    1.75000000
   15.55111122   46.34429932    4.90999985    1.71000004
   15.55416679   -1.00000000    4.90999985    1.51999998
   15.55749989   -1.00000000    4.90999985    1.38000000
   15.56083393   -1.00000000    4.90999985    1.46000004
   15.56388950   -1.00000000    4.90999985    1.44000006
   15.56722260   -1.00000000    4.90999985    1.38000000
   15.57055569   -1.00000000    4.90999985    1.34000003
   15.57361126   -1.00000000    4.90999985    1.30999994
   15.57694435   -1.00000000    4.90999985    1.36000001
   15.58277798   -1.00000000    4.90999985    1.39999998
   15.58694458   -1.00000000    4.90999985    1.48000002
   15.59055519   -1.00000000    4.90999985    1.60000002
   15.59388828   -1.00000000    4.90999985    1.44000006
   15.59694386   -1.00000000    4.90999985    1.36000001
   15.60027790   -1.00000000    4.90999985    1.41999996
   15.60361195   -1.00000000    4.90999985    1.44000006
   15.60666752   -1.00000000    4.90999985    1.44000006
   15.61000061   -1.00000000   -1.00000000   -1.00000000
   15.61305618   83.55860138    4.90999985    1.66999996
   15.61500072   84.38230133    4.90999985    1.66999996
   15.61694431  157.24899292    4.90999985    1.64999998
   15.61999989  528.76800537    4.90999985    1.85000002
   15.62222195  379.99798584    4.90999985    1.86000001
   15.62333393  330.56100464    4.90999985    1.88000000
   15.62472248  204.83700562    4.90999985    1.91999996
   15.62500000   -1.00000000    4.90999985    1.36000001
   15.62500000   -1.00000000    4.90999985    1.41999996
   15.62500000   -1.00000000    4.90999985    1.44000006
   15.62527752   -1.00000000    4.90999985    1.44000006
   15.62527752   -1.00000000   -1.00000000   -1.00000000
   15.62527752   83.55860138    4.90999985    1.66999996
   15.62555599  157.24899292    4.90999985    1.64999998
   15.62555599  528.76800537    4.90999985    1.85000002
   15.62583351   -1.00000000    4.90999985    1.44000006
   15.62638855  275.68399048    4.90999985    2.07999992
   15.62944412  190.24200439    4.90999985    2.23000002
   15.63277817  188.04499817    4.90999985    2.34999990
   15.63638878  162.00199890    4.90999985    2.53999996
   15.63944435  163.06300354    4.90999985    2.53999996
   15.64555550  163.06300354    4.90999985    2.50000000
   15.64972210  184.43800354    4.90999985    2.28999996
   15.65305519  230.58700562    4.90999985    2.25000000
   15.65611076  231.70799255    4.90999985    2.26999998
   15.65861034  265.44299316    4.90999985    2.21000004
   15.65999985  232.75399780    4.90999985    2.13000011
   15.66333294  298.64401245    4.90999985    2.23000002
   15.66638851  169.61000061    4.90999985    2.13000011
   15.66972256  196.96600342    4.90999985    2.44000006
   15.67305565  170.70199585    4.90999985    2.44000006
   15.67611122  199.39900208    4.90999985    2.40000010
   15.67944431  195.05299377    4.90999985    2.39000010
   15.68249989  190.65499878    4.90999985    2.28999996
   15.68861103  190.65499878    4.90999985    2.32999992
   15.69250011  156.83700562    4.90999985    2.48000002
   15.69583321  156.51100159    4.90999985    2.53999996
   15.69916630  148.53599548    4.90999985    2.61999989
   15.70222187  159.06100464    4.90999985    2.66000009
   15.70555496  145.69599915    4.90999985    2.66000009
   15.70888901  146.41700745    4.90999985    2.66000009
   15.71194458  162.34700012    4.61999989    2.64000010
   15.71527767  148.83900452    3.80999994    2.64000010
   15.71833324  150.05799866    3.95000005    2.64000010
   15.72166634  134.47900391    3.99000001    2.64000010
   15.72499943  144.32099915    3.93000007    2.66000009
   15.72555542  139.95799255    3.93000007    2.66000009
   15.73138809  139.95799255    4.23999977    2.67000008
   15.73555565  148.62800598    4.88999987    2.66000009
   15.73861122  158.19599915    4.90999985    2.66000009
   15.74194431  148.65100098    4.90999985    2.64000010
   15.74527836  152.62600708    4.90999985    2.64000010
   15.74833393  140.21200562    4.90999985    2.66000009
   15.75166702  142.08799744    4.90999985    2.66000009
   15.75472260  144.31199646    4.90999985    2.67000008
   15.75805569  149.28999329    4.90999985    2.66000009
   15.75888920  136.81799316    4.90999985    2.66000009
   15.76166630  152.12899780    4.90999985    2.66000009
   15.76500034  143.95700073    4.90999985    2.66000009
   15.76833344  152.08500671    4.90999985    2.57999992
   15.77416611  152.08500671    4.90999985    2.59999990
   15.77833271  149.81199646    4.90999985    2.57999992
   15.78166676  165.93499756    4.90999985    2.53999996
   15.78472233  144.24499512    4.90999985    2.53999996
   15.78805637  130.29400635    4.90999985    2.55999994
   15.79111195  146.03900146    4.90999985    2.57999992
   15.79222298  138.70899963    4.90999985    2.57999992
   15.79472256  144.16000366    4.90999985    2.59999990
   15.79805565  162.84300232    4.90999985    2.55999994
   15.80138874  150.66299438    4.90999985    2.48000002
   15.80444431  158.55900574    4.90999985    2.44000006
   15.80777836  142.15100098    4.90999985    2.50000000
   15.81083393  141.43600464    4.90999985    2.57999992
   15.81694412  141.43600464    4.90999985    2.48000002
   15.82111073  155.69799805    4.90999985    2.50000000
   15.82444477  133.96699524    4.90999985    2.50000000
   15.82555580  136.28100586    4.90999985    2.50000000
   15.82805538  132.55799866    4.90999985    2.55999994
   15.83138847  153.19999695    4.90999985    2.46000004
   15.83472157  120.93800354    4.90999985    2.48000002
   15.83777714  123.24700165    4.90999985    2.50000000
   15.84111118  131.60299683    4.90999985    2.48000002
   15.84416676  142.01400757    4.90999985    2.50000000
   15.84749985  151.22700500    4.90999985    2.61999989
   15.85083389  133.97399902    4.90999985    2.53999996
   15.85388947  148.71499634    4.90999985    2.55999994
   15.86000061  148.71499634    4.90999985    2.36999989
   15.86388969  188.05799866    4.90999985    2.28999996
   15.86722279  158.26800537    4.90999985    2.39000010
   15.87055588  173.03100586    4.90999985    2.36999989
   15.87361145  157.55299377    4.90999985    2.32999992
   15.87694454  172.67700195    4.90999985    2.34999990
   15.88027763  159.31799316    4.90999985    2.32999992
   15.88333321  147.93400574    4.90999985    2.32999992
   15.88666630  160.09199524    4.90999985    2.39000010
   15.88972187  148.48800659    4.90999985    2.39000010
   15.89222240  154.45199585    4.90999985    2.42000008
   15.89333344  137.92700195    4.90999985    2.46000004
   15.89666653  142.90400696    4.90999985    2.53999996
   15.90277767  142.90400696    4.90999985    2.51999998
   15.90694427  145.55499268    4.90999985    2.51999998
   15.90999985  172.50199890    4.90999985    2.44000006
   15.91333294  154.69299316    4.90999985    2.40000010
   15.91666698  156.31199646    4.90999985    2.40000010
   15.91972256  218.12699890    4.90999985    2.21000004
   15.92305565  179.75700378    4.90999985    2.03999996
   15.92555618  126.14299774    4.90999985    1.76999998
   15.92666721   68.69490051    4.90999985    1.73000002
   15.93000031  129.58700562    4.90999985    1.75000000
   15.93333340  130.96400452    4.90999985    1.83000004
   15.93638897   -1.00000000    4.90999985    1.89999998
   15.93972206   -1.00000000    4.90999985    1.66999996
   15.94555569   -1.00000000    4.90999985    1.60000002
   15.94972229  340.53298950    4.90999985    1.76999998
   15.95166683  185.55499268    4.90999985    1.86000001
   15.95194435   -1.00000000    4.90999985    1.66999996
   15.95194435  340.53298950    4.90999985    1.76999998
   15.95194435  156.31199646    4.90999985    2.40000010
   15.95222187  218.12699890    4.90999985    2.21000004
   15.95222187  179.75700378    4.90999985    2.03999996
   15.95222187   68.69490051    4.90999985    1.73000002
   15.95249939  129.58700562    4.90999985    1.75000000
   15.95249939  130.96400452    4.90999985    1.83000004
   15.95249939   -1.00000000    4.90999985    1.89999998
   15.95444393  193.17500305    4.90999985    1.88000000
   15.95777798  174.25500488    4.90999985    2.28999996
   15.96111107  229.78700256    4.90999985    2.51999998
   15.96416664   23.57019997    4.90999985    1.71000004
   15.96749973  255.96299744    4.90999985    1.69000006
   15.97249985  255.96299744    4.90999985    1.46000004
   15.97666645   -1.00000000    4.90999985    1.78999996
   15.97999954   -1.00000000    4.90999985    1.50000000
   15.98305511   -1.00000000    4.90999985    1.60000002
   15.98555565  178.51199341    4.90999985    1.64999998
   15.98694515  206.69400024    4.90999985    1.73000002
   15.99000072   95.62770081    4.90999985    1.86000001
   15.99333382  291.61300659    4.90999985    1.96000004
   15.99666691  183.13400269    4.90999985    1.94000006
   15.99972248   80.93689728    4.90999985    1.80999994
   16.00305557  103.42199707    4.90999985    1.64999998
   16.00638962  216.54299927    4.90999985    1.85000002
   16.00944519  144.66400146    4.90999985    2.00000000
   16.01527786  144.66400146    4.90999985    1.71000004
   16.01944351  154.91600037    4.90999985    1.85000002
   16.02277756  216.78399658    4.90999985    1.89999998
   16.02611160  134.42599487    4.90999985    1.80999994
   16.02916718  265.87799072    4.90999985    1.80999994
   16.03249931  263.00100708    4.90999985    2.05999994
   16.03555489  280.92898560    4.90999985    2.03999996
   16.03888893  263.74301147    4.90999985    2.07999992
   16.04222107  207.15800476    4.90999985    2.17000008
   16.04527664  153.47700500    4.90999985    2.19000006
   16.04861069  164.87600708    4.90999985    2.30999994
   16.05194283  148.71899414    4.90999985    2.42000008
   16.05249977  152.29499817    4.90999985    2.42000008
   16.05833244  152.29499817    4.90999985    2.30999994
   16.06250000  153.63600159    4.90999985    2.28999996
   16.06555557  151.62800598    4.90999985    2.51999998
   16.06888962  150.60200500    4.90999985    2.39000010
   16.07194519  199.78100586    4.90999985    2.25000000
   16.07527924  152.38900757    4.90999985    2.03999996
   16.07861137  141.91499329    4.90999985    2.32999992
   16.08166695  138.47799683    4.90999985    2.39000010
   16.08500099  158.96699524    4.90999985    2.46000004
   16.08583450  149.82499695    4.90999985    2.46000004
   16.08861160  143.07400513    4.90999985    2.39000010
   16.09194565  141.08999634    4.90999985    2.59999990
   16.09500122  121.39399719    4.90999985    2.59999990
   16.10111237  121.39399719    4.90999985    2.64000010
   16.10527802  140.28900146    4.90999985    2.59999990
   16.10833359  138.45799255    4.90999985    2.55999994
   16.11166763  138.90499878    4.90999985    2.61999989
   16.11499977  131.79100037    4.90999985    2.59999990
   16.11833382  130.18299866    4.90999985    2.64000010
   16.11916733  134.39999390    4.90999985    2.67000008
   16.12166595  121.13300323    4.90999985    2.71000004
   16.12500000  124.17900085    4.90999985    2.73000002
   16.12805557  135.91299438    4.90999985    2.69000006
   16.13138962  133.23399353    4.90999985    2.67000008
   16.13472176  124.49600220    4.90999985    2.64000010
   16.13777733  123.36599731    4.90999985    2.69000006
   16.14388847  123.36599731    4.90999985    2.67000008
   16.14805603  134.04100037    4.90999985    2.66000009
   16.15138817  139.39799500    4.90999985    2.67000008
   16.15250015  129.16799927    4.90999985    2.67000008
   16.15499878  132.40400696    4.90999985    2.69000006
   16.15833282  128.07299805    4.90999985    2.71000004
   16.16138840  131.01199341    4.90999985    2.69000006
   16.16472244  138.82200623    4.90999985    2.69000006
   16.16805458  127.35399628    4.90999985    2.71000004
   16.17111015  136.82200623    4.90999985    2.69000006
   16.17444420  124.95999908    4.90999985    2.69000006
   16.17777634  126.55599976    4.90999985    2.69000006
   16.18083191  124.24199677    4.90999985    2.69000006
   16.18666649  124.24199677    4.90999985    2.71000004
   16.19083214  132.03399658    4.90999985    2.69000006
   16.19416618  135.73699951    4.90999985    2.69000006
   16.19749832  127.74199677    4.90999985    2.66000009
   16.20055580  130.96899414    4.90999985    2.64000010
   16.20388985  132.36399841    4.90999985    2.67000008
   16.20694542  131.57600403    4.90999985    2.66000009
   16.21027946  136.92799377    4.90999985    2.64000010
   16.21361160  132.65499878    4.90999985    2.67000008
   16.21666718  136.74200439    4.90999985    2.67000008
   16.21916771  140.57899475    4.90999985    2.67000008
   16.22027779  137.33900452    4.90999985    2.67000008
   16.22361183  136.47399902    4.90999985    2.66000009
   16.22972298  136.47399902    4.90999985    2.67000008
   16.23361206  129.13600159    4.57999992    2.67000008
   16.23694420  129.05799866    4.44999981    2.67000008
   16.24027824  124.88099670    4.30999994    2.67000008
   16.24333382  128.97700500    4.09999990    2.67000008
   16.24666786  135.78900146    3.95000005    2.67000008
   16.25000000  139.69599915    3.53999996    2.66000009
   16.25250053  128.68099976    3.16000009    2.67000008
   16.25333405  135.13000488    3.01999998    2.67000008
   16.25666618  133.25199890    2.66000009    2.67000008
   16.25972176  139.97700500    2.09999990    2.69000006
   16.26305580  139.16000366    1.86000001    2.67000008
   16.26638794  133.45899963    2.05999994    2.69000006
   16.27249908  133.45899963    2.19000006    2.67000008
   16.27666664  130.49800110    3.45000005    2.66000009
   16.27972221  152.50700378    4.59999990    2.59999990
   16.28305435  143.16499329    4.90999985    2.59999990
   16.28583336  125.90899658    4.90999985    2.64000010
   16.28666687  136.13200378    4.90999985    2.64000010
   16.28999901  146.11900330    4.90999985    2.64000010
   16.29305458  136.14700317    4.90999985    2.64000010
   16.31583214  136.14700317    4.90999985    2.59999990
   16.31972313  132.34100342    4.90999985    2.57999992
   16.32305717  129.62500000    4.90999985    2.55999994
   16.32638931  125.08599854    4.90999985    2.55999994
   16.32944489  138.87600708    4.90999985    2.57999992
   16.33277893  130.69200134    4.90999985    2.59999990
   16.33611107  114.86699677    4.90999985    2.64000010
   16.33916664  130.92599487    4.90999985    2.64000010
   16.34250069  108.11599731    4.90999985    2.61999989
   16.34555626  135.61799622    4.44999981    2.61999989
   16.34889030  135.41400146    4.40999985    2.59999990
   16.35222244  130.38099670    4.48999977    2.55999994
   16.35277748  130.87300110    4.61999989    2.55999994
   16.35833359  130.87300110    4.90999985    2.59999990
   16.36250114  125.03600311    4.67999983    2.61999989
   16.36583328  134.30200195    4.90999985    2.59999990
   16.36916733  128.96299744    4.90999985    2.53999996
   16.37222290  125.24600220    4.90999985    2.48000002
   16.37555504  138.40499878    4.90999985    2.53999996
   16.37861061  130.64100647    4.90999985    2.53999996
   16.38194466  125.03199768    4.90999985    2.61999989
   16.38527679  132.24499512    4.90999985    2.59999990
   16.38611031  137.22799683    4.90999985    2.59999990
   16.38861084  129.55900574    4.80999994    2.61999989
   16.39194489  127.43800354    4.00000000    2.61999989
   16.39527702  137.17500305    3.03999996    2.66000009
   16.40138817  137.17500305    1.11000001    2.67000008
   16.40555573  147.23899841    0.73000002    2.67000008
   16.40861130  142.51499939    0.56999999    2.67000008
   16.41194344  127.83999634    0.55000001    2.67000008
   16.41499901  126.38600159    0.56999999    2.69000006
   16.41833305  132.07800293    0.56999999    2.67000008
   16.41944313  135.44400024    0.58999997    2.67000008
   16.42194366  126.84799957    0.75000000    2.67000008
   16.42527771  130.02000427    0.92000002    2.69000006
   16.42860985  126.69300079    0.94000000    2.67000008
   16.43166542  126.90100098    1.34000003    2.67000008
   16.43499947  137.53399658    1.36000001    2.66000009
   16.43805504  114.20300293    1.48000002    2.66000009
   16.44416618  114.20300293    1.64999998    2.66000009
   16.44833183  123.77200317    1.61000001    2.66000009
   16.45138931  122.22200012    1.44000006    2.67000008
   16.45277786  122.07599640    1.44000006    2.67000008
   16.45499992  125.62500000    1.39999998    2.67000008
   16.45833397  129.99800110    1.26999998    2.66000009
   16.46166801  130.29699707    1.26999998    2.66000009
   16.46472359  135.02299500    1.23000002    2.67000008
   16.46805573  132.39900208    0.70999998    2.67000008
   16.47111130  127.25700378    0.56999999    2.67000008
   16.47444534  130.53799438    0.55000001    2.67000008
   16.47777748  127.25000000    0.55000001    2.67000008
   16.48083305  133.02799988    0.51999998    2.67000008
   16.48694420  133.02799988    0.61000001    2.67000008
   16.49111176  134.27900696    0.64999998    2.67000008
   16.49444389  132.39500427    0.64999998    2.67000008
   16.49749947  122.83499908    0.83999997    2.67000008
   16.50083351  136.99800110    0.86000001    2.67000008
   16.50416756  137.76899719    0.86000001    2.67000008
   16.50722313  128.47799683    0.86000001    2.67000008
   16.51055527  128.52999878    0.86000001    2.67000008
   16.51361084  130.34399414    1.14999998    2.67000008
   16.51694489  128.41000366    2.21000004    2.66000009
   16.51944351  132.34800720    2.48000002    2.67000008
   16.52055550  124.22699738    2.75000000    2.67000008
   16.52388954  124.35399628    4.26999998    2.67000008
   16.53000069  124.35399628    4.90999985    2.66000009
   16.53388786  128.53399658    4.90999985    2.61999989
   16.53722191  125.28700256    4.90999985    2.67000008
   16.54055595  131.76199341    4.51000023    2.61999989
   16.54361153  123.13999939    4.17999983    2.66000009
   16.54694366  123.33599854    3.32999992    2.66000009
   16.54999924  117.74299622    2.57999992    2.66000009
   16.55277634  116.97499847    2.28999996    2.67000008
   16.55360985  117.57700348    2.21000004    2.67000008
   16.55694389  123.91400146    1.83000004    2.66000009
   16.56027794  123.27400208    1.73000002    2.67000008
   16.56333351  114.47299957    1.80999994    2.67000008
   16.56666756  124.77700043    1.73000002    2.67000008
   16.57277870  124.77700043    1.36000001    2.66000009
   16.57694626  126.64800262    1.66999996    2.67000008
   16.58000183  125.88300323    1.14999998    2.67000008
   16.58333397  141.19799805    1.05999994    2.67000008
   16.58611107  149.47900391    0.98000002    2.67000008
   16.58694458  136.33900452    0.92000002    2.67000008
   16.59027863  135.13400269    0.89999998    2.67000008
   16.59361267  136.79899597    0.89999998    2.67000008
   16.59666824  129.66499329    0.89999998    2.67000008
   16.60000038  141.87500000    0.89999998    2.66000009
   16.60333443  135.76800537    0.67000002    2.67000008
   16.60639000  142.51600647    0.63000000    2.67000008
   16.60972214  129.21899414    0.61000001    2.67000008
   16.61555672  129.21899414    0.69000000    2.67000008
   16.61972237  132.49200439    0.92000002    2.67000008
   16.62305641  136.73800659    0.95999998    2.67000008
   16.62611198  141.46699524    0.95999998    2.67000008
   16.62944412  138.04100037    0.95999998    2.67000008
   16.63277817  134.65600586    0.95999998    2.67000008
   16.63583374  127.66799927    0.83999997    2.67000008
   16.63916588  143.00500488    0.81999999    2.67000008
   16.64222145  132.69599915    0.94000000    2.67000008
   16.64555550  145.46000671    0.94000000    2.67000008
   16.64888954  126.41500092    0.94000000    2.67000008
   16.65194321  121.52300262    0.94000000    2.67000008
   16.65277672  129.22200012    0.94000000    2.67000008
   16.65833282  129.22200012    0.75000000    2.67000008
   16.66250038  127.44200134    0.81999999    2.67000008
   16.66583252  126.51300049    0.83999997    2.67000008
   16.66888809  140.68400574    0.98000002    2.67000008
   16.67222214  141.33900452    0.89999998    2.66000009
   16.67555428  144.66200256    0.75000000    2.67000008
   16.67860985  139.60600281    0.56999999    2.67000008
   16.68194389  139.42399597    0.58999997    2.67000008
   16.68499947  137.03199768    0.69000000    2.67000008
   16.68610954  133.81799316    0.69000000    2.67000008
   16.68861008  136.86900330    0.73000002    2.67000008
   16.69194412  144.31500244    0.76999998    2.67000008
   16.69527626  129.82299805    0.76999998    2.67000008
   16.70111275  129.82299805    0.58999997    2.67000008
   16.70527840  125.42700195    0.50000000    2.66000009
   16.70861244  122.88999939    0.47999999    2.67000008
   16.71194458  128.03399658    0.50000000    2.67000008
   16.71500015  127.56999969    0.47999999    2.67000008
   16.71833420  127.52899933    0.51999998    2.66000009
   16.71944427  122.68499756    0.52999997    2.67000008
   16.72194481  137.78599548    0.52999997    2.67000008
   16.72555542  124.35500336    0.51999998    2.67000008
   16.72861099  119.45400238    0.47999999    2.67000008
   16.73194504  134.10499573    0.46000001    2.67000008
   16.73500061  130.01100159    0.47999999    2.67000008
   16.73833275  126.88200378    0.47999999    2.67000008
   16.74416733  126.88200378    0.51999998    2.66000009
   16.74833298  134.93099976    0.56999999    2.67000008
   16.75138855  128.10899353    0.56999999    2.67000008
   16.75277710  118.68499756    0.56999999    2.67000008
   16.75527763  128.96000671    0.69000000    2.67000008
   16.75833321  122.97100067    0.63000000    2.67000008
   16.76166725  124.38800049    0.56999999    2.67000008
   16.76472282  133.00100708    0.56999999    2.67000008
   16.76805496  122.67099762    0.56999999    2.67000008
   16.77138901  124.03900146    0.47999999    2.67000008
   16.77444458  118.67600250    0.47999999    2.67000008
   16.77777672  121.75800323    0.50000000    2.67000008
   16.78111076  126.76399994    0.50000000    2.67000008
   16.78694344  126.76399994    0.47999999    2.67000008
   16.79111099  123.96199799    0.46000001    2.67000008
   16.79416656  121.05200195    0.46000001    2.67000008
   16.79749870  120.37699890    0.44000000    2.67000008
   16.80083275  115.96600342    0.44000000    2.67000008
   16.80388832  122.00499725    0.41999999    2.67000008
   16.80722237  119.16600037    0.41999999    2.67000008
   16.81055450  128.08099365    0.41999999    2.67000008
   16.81361008  126.98500061    0.41999999    2.67000008
   16.81694603  123.23999786    0.41999999    2.66000009
   16.81944466  117.73999786    0.41999999    2.67000008
   16.82027817  119.70800018    0.41999999    2.67000008
   16.82361221  114.41899872    0.41999999    2.67000008
   16.82972336  114.41899872    0.41999999    2.67000008
   16.83388901  118.92500305    0.41999999    2.66000009
   16.83722305  119.41000366    0.41999999    2.67000008
   16.84027863  119.56800079    0.41999999    2.67000008
   16.84361267  115.72399902    0.41999999    2.67000008
   16.84694481  120.79399872    0.41999999    2.67000008
   16.85000038  114.62000275    0.41999999    2.67000008
   16.85277748  111.62200165    0.41999999    2.67000008
   16.85361099  126.17600250    0.41999999    2.67000008
   16.85694504  123.47799683    0.41999999    2.67000008
   16.86027908  128.90699768    0.41999999    2.67000008
   16.86333466  109.96700287    0.41999999    2.67000008
   16.86666679  121.99900055    0.44000000    2.67000008
   16.87277794  121.99900055    0.44000000    2.67000008
   16.87694550  121.33300018    0.44000000    2.67000008
   16.88000107  117.10900116    0.44000000    2.67000008
   16.88333321  122.38800049    0.44000000    2.67000008
   16.88611031  124.47499847    0.44000000    2.67000008
   16.88666725  121.29299927    0.46000001    2.66000009
   16.88999939  125.67500305    0.47999999    2.67000008
   16.89333344  122.35399628    0.47999999    2.67000008
   16.89638901  127.69100189    0.47999999    2.67000008
   16.89972115  125.61199951    0.50000000    2.67000008
   16.90305519  115.53099823    0.67000002    2.66000009
   16.90611076  125.41699982    0.79000002    2.67000008
   16.90944481  125.83799744    0.80000001    2.66000009
   16.91555595  125.83799744    1.30999994    2.67000008
   16.91972160  133.39100647    0.81999999    2.67000008
   16.92277718  125.14700317    0.58999997    2.67000008
   16.92611122  127.22000122    0.69000000    2.67000008
   16.92944336  133.11199951    0.76999998    2.67000008
   16.93249893  123.76399994    0.88000000    2.67000008
   16.93583298  127.21900177    0.92000002    2.67000008
   16.93888855  125.61599731    0.94000000    2.67000008
   16.94222069  135.48599243    0.95999998    2.67000008
   16.94555473  129.03999329    1.01999998    2.66000009
   16.94861031  126.37400055    1.14999998    2.67000008
   16.95194435  118.78900146    1.21000004    2.67000008
   16.95277786  134.94099426    1.21000004    2.67000008
   16.95833397  134.94099426    2.05999994    2.66000009
   16.96250153  125.74299622    2.36999989    2.66000009
   16.96583366  127.73300171    2.98000002    2.66000009
   16.96888924  127.48300171    3.66000009    2.67000008
   16.97222328  130.05000305    3.55999994    2.67000008
   16.97555542  114.92099762    3.43000007    2.66000009
   16.97861099  139.01199341    3.57999992    2.67000008
   16.98194504  137.69099426    3.64000010    2.66000009
   16.98500061  132.85800171    3.86999989    2.59999990
   16.98611069  141.85000610    3.97000003    2.55999994
   16.98888969  134.04400635    4.48999977    2.61999989
   16.99194527  145.80200195    4.57999992    2.64000010
   16.99527740  134.33599854    3.86999989    2.64000010
   17.00111198  134.33599854    4.07999992    2.66000009
   17.00527763  141.31500244    4.26999998    2.61999989
   17.00861168  144.90699768    4.46999979    2.64000010
   17.01166725  130.30400085    4.38999987    2.66000009
   17.01499939  134.83700562    4.38999987    2.64000010
   17.01833344  124.36900330    4.46999979    2.66000009
   17.01944351  141.44299316    4.48999977    2.64000010
   17.02194405  129.47399902    4.44999981    2.61999989
   17.02499962  143.77099609    4.42999983    2.61999989
   17.02833366  136.35899353    4.34999990    2.64000010
   17.03138924  123.00099945    4.36999989    2.67000008
   17.03472137  140.89100647    4.01999998    2.66000009
   17.03805542  144.27499390    3.70000005    2.61999989
   17.04416656  144.27499390    3.95000005    2.66000009
   17.04805565  131.36300659    3.61999989    2.66000009
   17.05138779  137.44799805    3.21000004    2.66000009
   17.05277634  133.92100525    3.03999996    2.66000009
   17.05499840  130.47200012    2.46000004    2.66000009
   17.05805397  130.90800476    1.94000006    2.67000008
   17.06138802  139.03599548    1.41999996    2.66000009
   17.06444359  132.80700684    1.03999996    2.67000008
   17.06777954  137.92999268    0.89999998    2.67000008
   17.07111168  130.53799438    0.79000002    2.67000008
   17.07416725  135.54600525    0.75000000    2.67000008
   17.07750130  134.18899536    0.76999998    2.67000008
   17.08083344  134.05299377    0.86000001    2.67000008
   17.08694458  134.05299377    0.86000001    2.67000008
   17.09111214  124.20300293    0.86000001    2.67000008
   17.09416771  134.52099609    0.86000001    2.67000008
   17.09749985  134.03100586    0.86000001    2.67000008
   17.10083389  137.91999817    0.88000000    2.67000008
   17.10388947  130.94500732    0.86000001    2.67000008
   17.10722351  138.05499268    0.86000001    2.67000008
   17.11027908  132.94999695    0.81999999    2.67000008
   17.11361122  128.62399292    0.80000001    2.67000008
   17.11694527  120.97299957    0.79000002    2.67000008
   17.11944389  127.78600311    0.80000001    2.67000008
   17.12055588  125.61000061    0.80000001    2.66000009
   17.12361145  135.60499573    0.81999999    2.67000008
   17.12972260  135.60499573    0.86000001    2.67000008
   17.13388824  136.83500671    0.83999997    2.67000008
   17.13694382  112.69699860    0.81999999    2.67000008
   17.14027786  113.11900330    0.73000002    2.67000008
   17.14361191  115.38300323    0.70999998    2.67000008
   17.14666748  125.43099976    0.63000000    2.67000008
   17.14999962  134.91000366    0.61000001    2.67000008
   17.15277672  127.97299957    0.61000001    2.67000008
   17.15361023  115.98000336    0.61000001    2.67000008
   17.15666580  124.58399963    0.58999997    2.67000008
   17.15999985  124.97000122    0.61000001    2.67000008
   17.16305542  126.30699921    0.61000001    2.67000008
   17.16638756  127.80599976    0.63000000    2.67000008
   17.17249870  127.80599976    0.61000001    2.66000009
   17.17666626  117.97899628    0.64999998    2.66000009
   17.18000031  122.31800079    0.67000002    2.66000009
   17.18305397  130.35099792    0.69000000    2.67000008
   17.18610954  123.59200287    0.73000002    2.67000008
   17.18694305  124.19499969    0.75000000    2.67000008
   17.18999863  120.29399872    0.76999998    2.67000008
   17.19333267  134.75500488    0.80000001    2.66000009
   17.19638824  117.48600006    0.83999997    2.67000008
   17.19972038  124.56199646    0.89999998    2.66000009
   17.20305634  120.54499817    0.95999998    2.67000008
   17.20611191  127.52899933    1.01999998    2.67000008
   17.20944595  139.76400757    1.01999998    2.66000009
   17.21555710  139.76400757    1.01999998    2.67000008
   17.21944427  139.75399780    1.03999996    2.67000008
   17.22277832  134.83200073    1.05999994    2.67000008
   17.22611237  132.44599915    1.09000003    2.66000009
   17.22916794  131.28599548    1.13000000    2.67000008
   17.23250008  128.10400391    1.16999996    2.66000009
   17.23555565  142.95799255    1.19000006    2.67000008
   17.23888969  121.16100311    1.13000000    2.67000008
   17.24222183  128.26800537    1.05999994    2.67000008
   17.24527740  134.72300720    0.98000002    2.67000008
   17.24861145  138.09399414    0.92000002    2.67000008
   17.25194359  123.65499878    0.81999999    2.66000009
   17.25277710  127.23999786    0.79000002    2.66000009
   17.25833321  127.23999786    0.67000002    2.66000009
   17.26250076  129.89999390    0.61000001    2.66000009
   17.26555634  125.34500122    0.58999997    2.67000008
   17.26888847  133.42399597    0.55000001    2.67000008
   17.27194405   -1.00000000    0.50000000    2.67000008
   17.27527809  124.23799896    0.50000000    2.67000008
   17.27861023  127.94899750    0.47999999    2.66000009
   17.28166580  141.05499268    0.46000001    2.67000008
   17.28499985  120.33399963    0.46000001    2.67000008
   17.28610992  126.26899719    0.46000001    2.67000008
   17.28861046  132.80900574    0.46000001    2.67000008
   17.29166603  127.28199768    0.44000000    2.66000009
   17.29500008  133.23500061    0.44000000    2.66000009
   17.30111122  133.23500061    0.44000000    2.67000008
   17.30527687  137.86399841    0.44000000    2.66000009
   17.30833244  136.11500549    0.44000000    2.67000008
   17.31166649  124.67600250    0.44000000    2.67000008
   17.32944489  127.75499725    0.44000000    2.66000009
   17.33166695  123.97399902    0.44000000    2.66000009
   17.33500099  132.91900635    0.46000001    2.67000008
   17.33805656  129.20500183    0.44000000    2.67000008
   17.34416771  129.20500183    0.46000001    2.67000008
   17.34833336  126.22100067    0.46000001    2.67000008
   17.35138893  133.22399902    0.46000001    2.67000008
   17.35472298  138.30499268    0.44000000    2.66000009
   17.35805511  125.21099854    0.44000000    2.66000009
   17.36111069  132.33399963    0.44000000    2.66000009
   17.36250114  134.32499695    0.44000000    2.67000008
   17.36472321  136.36300659    0.44000000    2.67000008
   17.36777878  129.23699951    0.44000000    2.66000009
   17.37111092   -1.00000000    0.44000000    2.66000009
   17.37444496   -1.00000000    0.44000000    2.67000008
   17.37750053  136.01899719    0.46000001    2.67000008
   17.38083267  131.98599243    0.44000000    2.66000009
   17.38694382  131.98599243    0.44000000    2.66000009
   17.39111137  115.89099884    0.44000000    2.66000009
   17.39444351  129.69599915    0.46000001    2.66000009
   17.39583397  119.02500153    0.46000001    2.67000008
   17.39805603  125.91899872    0.46000001    2.66000009
   17.40111160  125.81900024    0.46000001    2.67000008
   17.40444374  134.77699280    0.46000001    2.67000008
   17.40777779  129.48500061    0.46000001    2.67000008
   17.41083336  125.52100372    0.44000000    2.66000009
   17.41416550  130.45700073    0.44000000    2.67000008
   17.41749954  131.01300049    0.44000000    2.66000009
   17.42055511   -1.00000000    0.46000001    2.67000008
   17.42388916   -1.00000000    0.46000001    2.66000009
   17.42972183   -1.00000000    0.46000001    2.67000008
   17.43388748  134.30299377    0.47999999    2.66000009
   17.43722153  122.02400208    0.46000001    2.66000009
   17.44027710  124.06300354    0.46000001    2.66000009
   17.44361115  130.06300354    0.47999999    2.66000009
   17.44694328  124.33399963    0.46000001    2.66000009
   17.45000076  123.03700256    0.46000001    2.66000009
   17.45333481  123.58300018    0.47999999    2.66000009
   17.45666695  114.27200317    0.46000001    2.66000009
   17.45972252  115.80000305    0.46000001    2.66000009
   17.46250153  111.11799622    0.46000001    2.66000009
   17.46333504  116.38800049    0.46000001    2.66000009
   17.46638870  116.76000214    0.46000001    2.66000009
   17.47666740  127.96399689    0.46000001    2.66000009
   17.48000145  133.91099548    0.44000000    2.67000008
   17.48305511  127.24600220    0.44000000    2.67000008
   17.48638916  127.59300232    0.44000000    2.67000008
   17.48972321  121.72499847    0.44000000    2.66000009
   17.49277878  120.39600372    0.44000000    2.66000009
   17.49583435  121.65399933    0.44000000    2.66000009
   17.49666786  127.11599731    0.44000000    2.66000009
   17.49972153  127.71099854    0.44000000    2.66000009
   17.50305557  130.40699768    0.44000000    2.66000009
   17.50638962  118.58799744    0.44000000    2.66000009
   17.50944519  116.39900208    0.46000001    2.66000009
   17.51555634  116.39900208    0.46000001    2.66000009
   17.51972198  111.72499847    0.46000001    2.66000009
   17.52277756   -1.00000000    0.46000001    2.66000009
   17.52611160   -1.00000000    0.46000001    2.66000009
   17.52916718  294.47799683    0.46000001    2.66000009
   17.52972221  121.09400177    0.46000001    2.66000009
   17.53305435  136.02299500    0.46000001    2.66000009
   17.53610992  129.43699646    0.46000001    2.66000009
   17.53944397  135.02699280    0.46000001    2.66000009
   17.54277802  124.53099823    0.46000001    2.66000009
   17.54583359  123.47399902    0.46000001    2.66000009
   17.54916573  125.42299652    0.46000001    2.67000008
   17.55222130  123.69000244    0.44000000    2.66000009
   17.55833244  123.69000244    0.44000000    2.66000009
   17.56250000  116.27300262    0.46000001    2.66000009
   17.56305504  123.01300049    0.46000001    2.66000009
   17.56611061  175.52200317    0.46000001    2.66000009
   17.56944466  180.02400208    0.46000001    2.66000009
   17.57277870   -1.00000000    0.46000001    2.66000009
   17.57583427   -1.00000000    0.46000001    2.66000009
   17.57916832   -1.00000000    0.46000001    2.67000008
   17.58250046   -1.00000000    0.46000001    2.66000009
   17.58555603   96.34400177    0.46000001    2.66000009
   17.58889008  131.34899902    0.46000001    2.66000009
   17.59194565  129.06300354    0.46000001    2.66000009
   17.59527779  131.49400330    0.47999999    2.66000009
   17.59583473  124.53299713    0.47999999    2.66000009
   17.60111237  124.53299713    0.46000001    2.64000010
   17.60527802  123.90899658    0.47999999    2.66000009
   17.60861206  117.61299896    0.47999999    2.64000010
   17.61166763  131.33900452    0.47999999    2.66000009
   17.61499977  124.10299683    0.47999999    2.66000009
   17.61833382   -1.00000000    0.47999999    2.66000009
   17.62138939   -1.00000000    0.47999999    2.66000009
   17.62472153   -1.00000000    0.47999999    2.66000009
   17.62805557   -1.00000000    0.46000001    2.66000009
   17.63166618  134.73199463    0.46000001    2.64000010
   17.63472176  138.84800720    0.46000001    2.66000009
   17.63805580  127.24900055    0.44000000    2.66000009
   17.64416695  127.24900055    0.46000001    2.66000009
   17.64805603  130.65100098    0.44000000    2.66000009
   17.65138817  136.31300354    0.44000000    2.66000009
   17.65472221  130.41799927    0.44000000    2.66000009
   17.65777779  125.35399628    0.44000000    2.66000009
   17.66110992  125.42199707    0.44000000    2.66000009
   17.66250038  132.08700562    0.44000000    2.66000009
   17.66472244  125.83899689    0.44000000    2.66000009
   17.66805458   -1.00000000    0.44000000    2.66000009
   17.67111015   -1.00000000    0.44000000    2.66000009
   17.67444420   -1.00000000    0.44000000    2.66000009
   17.67749977   -1.00000000    0.44000000    2.66000009
   17.68083191   -1.00000000    0.44000000    2.66000009
   17.68694305   -1.00000000    0.44000000    2.66000009
   17.69111061  127.69899750    0.44000000    2.66000009
   17.69416618  124.67299652    0.44000000    2.66000009
   17.69583321  135.92700195    0.44000000    2.66000009
   17.69777679  125.12999725    0.46000001    2.66000009
   17.70111275  125.60600281    0.46000001    2.66000009
   17.70416832  133.25900269    0.44000000    2.66000009
   17.70750046  122.75399780    0.44000000    2.66000009
   17.71055603  123.94799805    0.44000000    2.66000009
   17.71389008  121.60600281    0.44000000    2.66000009
   17.71722221   -1.00000000    0.44000000    2.66000009
   17.72027779   -1.00000000    0.44000000    2.66000009
   17.72361183   -1.00000000    0.44000000    2.66000009
   17.72972298   -1.00000000    0.46000001    2.66000009
   17.73388863  130.77600098    0.46000001    2.64000010
   17.73722267  136.94500732    0.46000001    2.66000009
   17.74027824  129.74600220    0.46000001    2.64000010
   17.74361229  132.19799805    0.46000001    2.66000009
   17.74666786  126.65699768    0.46000001    2.66000009
   17.75000000  135.93299866    0.46000001    2.66000009
   17.75333405  126.66699982    0.46000001    2.66000009
   17.75638962  133.63800049    0.46000001    2.64000010
   17.75972176  123.15000153    0.46000001    2.66000009
   17.76250076  131.28500366    0.46000001    2.66000009
   17.76333427  129.85699463    0.46000001    2.66000009
   17.76666641  125.50000000    0.44000000    2.66000009
   17.77249908  125.50000000    0.44000000    2.66000009
   17.77666664  128.87100220    0.46000001    2.66000009
   17.78000069  135.38499451    0.44000000    2.67000008
   17.78305435  127.61599731    0.46000001    2.66000009
   17.78638840  129.17799377    0.47999999    2.66000009
   17.78972244  134.06900024    0.46000001    2.66000009
   17.79277802  130.55799866    0.50000000    2.66000009
   17.79583359  125.49900055    0.50000000    2.66000009
   17.79638863  134.91600037    0.50000000    2.66000009
   17.79972076  123.18299866    0.50000000    2.66000009
   17.80277634  125.64800262    0.50000000    2.66000009
   17.80611038  137.07299805    0.50000000    2.66000009
   17.80916595  123.04299927    0.50000000    2.66000009
   17.81555557  123.04299927    0.50000000    2.66000009
   17.81944466  127.00900269    0.50000000    2.64000010
   17.82277870  125.19300079    0.47999999    2.66000009
   17.82611275  123.06400299    0.47999999    2.66000009
   17.82916832  128.73699951    0.47999999    2.66000009
   17.82972336  131.23599243    0.47999999    2.66000009
   17.83305550  121.92800140    0.46000001    2.66000009
   17.83611107  124.13200378    0.44000000    2.64000010
   17.83944511  118.98100281    0.46000001    2.64000010
   17.84277916  122.33599854    0.44000000    2.64000010
   17.84583473  120.08999634    0.46000001    2.66000009
   17.84916687  125.01899719    0.44000000    2.66000009
   17.85250092  120.00599670    0.44000000    2.64000010
   17.85833359  120.00599670    0.44000000    2.66000009
   17.86250114  120.33999634    0.44000000    2.64000010
   17.86305618  128.56399536    0.44000000    2.66000009
   17.86611176  125.39499664    0.44000000    2.66000009
   17.86944389  123.14900208    0.44000000    2.66000009
   17.87249947  127.23300171    0.44000000    2.66000009
   17.87583351  128.97799683    0.44000000    2.66000009
   17.87916756  128.90400696    0.44000000    2.66000009
   17.88222313  131.19299316    0.44000000    2.64000010
   17.88555527  127.02799988    0.44000000    2.64000010
   17.88888931  131.77799988    0.44000000    2.66000009
   17.89194489  132.79499817    0.44000000    2.66000009
   17.89527702  128.03300476    0.44000000    2.64000010
   17.89638901  128.50500488    0.44000000    2.64000010
   17.90111160  128.50500488    0.44000000    2.66000009
   17.90527725  128.14799500    0.44000000    2.64000010
   17.90861130  133.04800415    0.44000000    2.64000010
   17.91166687  118.26399994    0.44000000    2.64000010
   17.91499901  130.46499634    0.44000000    2.64000010
   17.91833305  130.84899902    0.41999999    2.64000010
   17.92138863  128.91099548    0.44000000    2.64000010
   17.92472076  123.09700012    0.44000000    2.66000009
   17.92805481  127.78199768    0.44000000    2.66000009
   17.92972183  126.96399689    0.46000001    2.66000009
   17.93138885  127.22100067    0.46000001    2.64000010
   17.93472099  123.36799622    0.46000001    2.64000010
   17.93805504  122.16100311    0.46000001    2.64000010
   17.94388771  122.16100311    0.46000001    2.64000010
   17.94805527  122.58599854    0.47999999    2.64000010
   17.95138931  118.90100098    0.47999999    2.64000010
   17.95472336  118.24299622    0.47999999    2.64000010
   17.95777893  127.75599670    0.47999999    2.64000010
   17.96111107  119.66000366    0.47999999    2.64000010
   17.96305656  125.52500153    0.47999999    2.64000010
   17.96444511  121.21900177    0.47999999    2.64000010
   17.96777916  122.74800110    0.46000001    2.64000010
   17.97083473  117.90799713    0.46000001    2.64000010
   17.97416687  122.25299835    0.46000001    2.66000009
   17.97750092  120.75499725    0.46000001    2.64000010
   17.98055649  127.31300354    0.44000000    2.64000010
   17.98694420  127.31300354    0.44000000    2.64000010
   17.99111176  126.12000275    0.44000000    2.64000010
   17.99416733  104.12400055    0.44000000    2.64000010
   17.99638939  122.37100220    0.44000000    2.66000009
   17.99777794  124.37400055    0.44000000    2.64000010
   18.00111198  125.64700317    0.44000000    2.64000010
   18.00444412  123.49099731    0.44000000    2.66000009
   18.00749969  128.63699341    0.44000000    2.66000009
   18.01083374  121.77500153    0.44000000    2.64000010
   18.01388931  123.06500244    0.44000000    2.64000010
   18.01722145  117.04199982    0.44000000    2.64000010
   18.02055550  119.31099701    0.46000001    2.64000010
   18.02361107  123.18499756    0.44000000    2.64000010
   18.02972221  123.18499756    0.46000001    2.64000010
   18.03388786  120.30500031    0.44000000    2.64000010
   18.03694344  118.85199738    0.44000000    2.64000010
   18.04027748  116.69799805    0.46000001    2.64000010
   18.04361153  115.78800201    0.46000001    2.64000010
   18.04666710  116.86000061    0.46000001    2.64000010
   18.04999924  122.97299957    0.46000001    2.64000010
   18.05333328  123.45500183    0.44000000    2.64000010
   18.05638885  120.54299927    0.44000000    2.64000010
   18.05972099  125.28600311    0.46000001    2.64000010
   18.06277657  117.98000336    0.44000000    2.64000010
   18.06333351  119.53399658    0.44000000    2.64000010
   18.06666756  123.25900269    0.46000001    2.64000010
   18.07250023  123.25900269    0.44000000    2.64000010
   18.07666779  114.67600250    0.44000000    2.64000010
   18.08000183  120.12400055    0.44000000    2.64000010
   18.08305550  122.26599884    0.44000000    2.64000010
   18.08638954  119.91000366    0.44000000    2.64000010
   18.08944511  117.62000275    0.46000001    2.64000010
   18.09277916  116.69699860    0.46000001    2.64000010
   18.09611130  118.68699646    0.44000000    2.64000010
   18.09666824  121.27300262    0.44000000    2.64000010
   18.09972191  123.98400116    0.46000001    2.64000010
   18.10305595  111.32599640    0.46000001    2.64000010
   18.10639000  122.04299927    0.44000000    2.64000010
   18.10944557  115.58000183    0.44000000    2.64000010
   18.11527824  115.58000183    0.44000000    2.64000010
   18.11944389  117.16500092    0.46000001    2.64000010
   18.12277794  115.53500366    0.46000001    2.64000010
   18.12611198  130.39700317    0.46000001    2.64000010
   18.12916756  118.23600006    0.46000001    2.64000010
   18.13000107  120.60600281    0.46000001    2.64000010
   18.13277817  122.25700378    0.46000001    2.64000010
   18.13611031  118.07599640    0.46000001    2.61999989
   18.13916588  118.11599731    0.46000001    2.64000010
   18.14249992  118.11100006    0.47999999    2.64000010
   18.14555550  115.20099640    0.46000001    2.64000010
   18.14888954  113.49400330    0.47999999    2.64000010
   18.15222168  116.21800232    0.46000001    2.61999989
   18.15833282  116.21800232    0.46000001    2.64000010
   18.16222191  120.05200195    0.46000001    2.64000010
   18.16333389  119.99400330    0.46000001    2.64000010
   18.16611099  122.40699768    0.46000001    2.64000010
   18.16944313  119.44799805    0.46000001    2.61999989
   18.17249870  113.46299744    0.46000001    2.64000010
   18.17583275  109.55000305    0.46000001    2.64000010
   18.17888832  115.58100128    0.47999999    2.64000010
   18.18222237  120.88400269    0.47999999    2.64000010
   18.18555450  122.46499634    0.47999999    2.64000010
   18.18888855  117.68499756    0.47999999    2.61999989
   18.19222069  109.11699677    0.46000001    2.61999989
   18.19527626  116.63800049    0.46000001    2.64000010
   18.19666672  113.72399902    0.46000001    2.61999989
   18.20111275  113.72399902    0.46000001    2.64000010
   18.20527840  115.47899628    0.47999999    2.64000010
   18.20833397  109.33899689    0.47999999    2.64000010
   18.21166801  112.89099884    0.47999999    2.64000010
   18.21500015  114.72000122    0.47999999    2.64000010
   18.21805573  110.38700104    0.47999999    2.64000010
   18.22138977  117.00000000    0.46000001    2.64000010
   18.22472191  108.47299957    0.47999999    2.64000010
   18.22777748  124.41100311    0.47999999    2.64000010
   18.23000145  123.78299713    0.47999999    2.64000010
   18.23139000  127.75499725    0.46000001    2.61999989
   18.23472214  120.33300018    0.46000001    2.64000010
   18.23777771  123.52600098    0.46000001    2.61999989
   18.24388885  123.52600098    0.46000001    2.61999989
   18.24805641  120.25299835    0.46000001    2.61999989
   18.25138855  116.46700287    0.44000000    2.64000010
   18.25444412  119.79699707    0.46000001    2.64000010
   18.25777817  122.20899963    0.44000000    2.64000010
   18.26111031  124.47000122    0.44000000    2.64000010
   18.26333427  122.45999908    0.44000000    2.64000010
   18.26472282  117.09799957    0.44000000    2.64000010
   18.26805496  118.27300262    0.44000000    2.64000010
   18.27111053  112.52600098    0.44000000    2.64000010
   18.27444458  115.84400177    0.46000001    2.64000010
   18.27750015  116.98899841    0.46000001    2.64000010
   18.28083229  120.02100372    0.46000001    2.64000010
   18.28666687  120.02100372    0.46000001    2.61999989
   18.29083252  120.35600281    0.46000001    2.64000010
   18.29416656  110.38400269    0.47999999    2.61999989
   18.29666710  117.01699829    0.47999999    2.61999989
   18.29777718  121.29199982    0.50000000    2.61999989
   18.30111122  113.44799805    0.50000000    2.61999989
   18.30416679  117.73899841    0.50000000    2.61999989
   18.30749893  117.11299896    0.51999998    2.61999989
   18.31055450  113.63600159    0.51999998    2.61999989
   18.31388855  114.96800232    0.58999997    2.64000010
   18.31722260  110.77600098    0.63000000    2.61999989
   18.32027817  108.79699707    0.61000001    2.61999989
   18.32361221  108.84500122    0.61000001    2.64000010
   18.32972336  108.84500122    0.61000001    2.61999989
   18.34805679  107.33100128    0.55000001    2.64000010
   18.35111237  112.55000305    0.51999998    2.61999989
   18.35444450  117.14399719    0.51999998    2.64000010
   18.35750008  113.86499786    0.50000000    2.61999989
   18.36083412  123.22200012    0.50000000    2.61999989
   18.36416626  121.69999695    0.51999998    2.61999989
   18.36722183  139.14500427    0.50000000    2.61999989
   18.37277794  139.14500427    0.47999999    2.61999989
   18.37694550  132.88699341    0.50000000    2.61999989
   18.38000107  154.12600708    0.47999999    2.64000010
   18.38111115  142.12800598    0.50000000    2.61999989
   18.38361168  144.58999634    0.47999999    2.61999989
   18.38694382  146.32800293    0.50000000    2.64000010
   18.39027786  154.25700378    0.50000000    2.61999989
   18.39333344  177.53900146    0.50000000    2.61999989
   18.39666748  202.60600281    0.47999999    2.64000010
   18.39972115  222.90299988    0.47999999    2.61999989
   18.40305519  278.84799194    0.50000000    2.61999989
   18.40638924  327.93600464    0.50000000    2.61999989
   18.40833282  343.08099365    0.47999999    2.64000010
   18.40944481  356.05801392    0.47999999    2.64000010
   18.41110992  256.03500366    0.50000000    2.61999989
   18.41222191  167.24800110    0.50000000    2.61999989
   18.41250038  177.53900146    0.50000000    2.61999989
   18.41250038  202.60600281    0.47999999    2.64000010
   18.41277695  222.90299988    0.47999999    2.61999989
   18.41277695  278.84799194    0.50000000    2.61999989
   18.41277695  327.93600464    0.50000000    2.61999989
   18.41305542  154.12600708    0.47999999    2.64000010
   18.41305542  144.58999634    0.47999999    2.61999989
   18.41305542  146.32800293    0.50000000    2.64000010
   18.41333389  154.25700378    0.50000000    2.61999989
   18.41388893  107.23699951    0.47999999    2.61999989
   18.41694450  107.66600037    0.50000000    2.61999989
   18.42027664   68.58879852    0.50000000    2.64000010
   18.42333221   -1.00000000    0.47999999    2.64000010
   18.42666626   -1.00000000    0.47999999    2.61999989
   18.43305397   -1.00000000    0.50000000    2.61999989
   18.43722153   -1.00000000    0.50000000    2.61999989
   18.44055557   -1.00000000    0.50000000    2.61999989
   18.44361115   -1.00000000    0.50000000    2.61999989
   18.44722176   -1.00000000    0.50000000    2.61999989
   18.45027924   -1.00000000    0.50000000    2.61999989
   18.45361137   -1.00000000    0.50000000    2.64000010
   18.45666695   -1.00000000    0.50000000    2.61999989
   18.46000099   -1.00000000    0.50000000    2.61999989
   18.46333504   -1.00000000    0.50000000    2.61999989
   18.46638870   -1.00000000    0.51999998    2.61999989
   18.46972275   -1.00000000    0.50000000    2.61999989
   18.48000145   -1.00000000    0.50000000    2.59999990
   18.48333359   -1.00000000    0.50000000    2.64000010
   18.48666763   -1.00000000    0.51999998    2.61999989
   18.48999977   -1.00000000    0.51999998    2.61999989
   18.49333382   -1.00000000    0.50000000    2.61999989
   18.49638939   -1.00000000    0.51999998    2.61999989
   18.49972153   -1.00000000    0.51999998    2.59999990
   18.50277710   -1.00000000    0.50000000    2.61999989
   18.50611115   -1.00000000    0.51999998    2.59999990
   18.50916672   -1.00000000    0.51999998    2.61999989
   18.51250076   -1.00000000    0.51999998    2.61999989
   18.52277756   -1.00000000    0.50000000    2.61999989
   18.52611160   -1.00000000    0.51999998    2.61999989
   18.52944374   -1.00000000    0.50000000    2.61999989
   18.53249931   -1.00000000    0.50000000    2.59999990
   18.53583336   -1.00000000    0.50000000    2.61999989
   18.53888893   -1.00000000    0.51999998    2.61999989
   18.54222107   -1.00000000    0.51999998    2.59999990
   18.54527664   -1.00000000    0.51999998    2.61999989
   18.54888916   -1.00000000    0.51999998    2.59999990
   18.55222130   -1.00000000    0.50000000    2.61999989
   18.55527687   -1.00000000    0.51999998    2.59999990
   18.56583214   -1.00000000    0.50000000    2.59999990
   18.56888962   -1.00000000    0.51999998    2.61999989
   18.57222366   -1.00000000    0.51999998    2.59999990
   18.57527924   -1.00000000    0.51999998    2.59999990
   18.57861137   -1.00000000    0.50000000    2.59999990
   18.58194542   -1.00000000    0.50000000    2.61999989
   18.58527756   -1.00000000    0.50000000    2.61999989
   18.58833313   -1.00000000    0.51999998    2.61999989
   18.59166718   -1.00000000    0.51999998    2.59999990
   18.59500122   -1.00000000    0.51999998    2.59999990
   18.59805679   -1.00000000    0.51999998    2.59999990
   18.60888863   -1.00000000    0.52999997    2.61999989
   18.61222267   -1.00000000    0.52999997    2.59999990
   18.61583328   -1.00000000    0.52999997    2.59999990
   18.61888885   -1.00000000    0.52999997    2.59999990
   18.62222290   -1.00000000    0.52999997    2.59999990
   18.62527847   -1.00000000    0.52999997    2.59999990
   18.62861061   -1.00000000    0.52999997    2.59999990
   18.63166618   -1.00000000    0.55000001    2.59999990
   18.63500023   -1.00000000    0.52999997    2.59999990
   18.63833237   -1.00000000    0.55000001    2.59999990
   18.64138794   -1.00000000    0.55000001    2.59999990
   18.65138817   -1.00000000    0.55000001    2.59999990
   18.65472221   -1.00000000    0.55000001    2.59999990
   18.65777779   -1.00000000    0.55000001    2.57999992
   18.66110992   -1.00000000    0.55000001    2.59999990
   18.66416550   -1.00000000    0.55000001    2.57999992
   18.66749954   95.13130188    0.52999997    2.57999992
   18.67083359  104.13899994    0.55000001    2.59999990
   18.67388916  115.05500031    0.52999997    2.59999990
   18.67722130  107.56999969    0.52999997    2.57999992
   18.67972183  105.61299896    0.52999997    2.59999990
   18.68083191  107.92600250    0.55000001    2.59999990
   18.68416595  106.86199951    0.52999997    2.59999990
   18.69027710  106.86199951    0.55000001    2.59999990
   18.69444275  100.55200195    0.52999997    2.59999990
   18.69749832  111.22299957    0.52999997    2.59999990
   18.70083427  113.41200256    0.52999997    2.61999989
   18.70416832  109.76399994    0.52999997    2.57999992
   18.70722389  106.87300110    0.51999998    2.59999990
   18.71055603  108.93800354    0.51999998    2.59999990
   18.71305656  115.28900146    0.51999998    2.59999990
   18.71444511  123.28299713    0.51999998    2.59999990
   18.71750069  104.98000336    0.51999998    2.57999992
   18.72083473  112.05200195    0.51999998    2.59999990
   18.72389030  107.49500275    0.51999998    2.59999990
   18.72722244  107.84200287    0.51999998    2.59999990
   18.73305511  107.84200287    0.51999998    2.59999990
   18.73722267  115.11399841    0.51999998    2.59999990
   18.74055672  104.86199951    0.51999998    2.59999990
   18.74361229  102.70999908    0.51999998    2.57999992
   18.74638939  107.95400238    0.51999998    2.59999990
   18.74749947  108.99600220    0.51999998    2.59999990
   18.75055504  109.27300262    0.51999998    2.59999990
   18.75388908  111.34500122    0.51999998    2.59999990
   18.75694466  112.14399719    0.52999997    2.59999990
   18.76027870  115.08599854    0.51999998    2.57999992
   18.76361084  115.44599915    0.51999998    2.57999992
   18.76666641  106.69699860    0.52999997    2.59999990
   18.77000046  113.69599915    0.52999997    2.59999990
   18.77583313  113.69599915    0.51999998    2.57999992
   18.78000069  116.62899780    0.51999998    2.59999990
   18.78333282  109.31400299    0.52999997    2.59999990
   18.78638840  115.67199707    0.52999997    2.59999990
   18.78972244  110.75499725    0.52999997    2.57999992
   18.79305458  107.87699890    0.52999997    2.59999990
   18.79611015  109.88099670    0.52999997    2.57999992
   18.79944420   97.52239990    0.52999997    2.57999992
   18.80277634   99.81130219    0.52999997    2.57999992
   18.80583191  105.10900116    0.52999997    2.57999992
   18.80916595  114.35399628    0.52999997    2.57999992
   18.81222153  107.83399963    0.52999997    2.57999992
   18.81305504  107.96499634    0.51999998    2.57999992
   18.81888962  107.96499634    0.52999997    2.57999992
   18.82277870  105.14399719    0.51999998    2.57999992
   18.82611275  115.64499664    0.51999998    2.59999990
   18.82944489  106.29699707    0.51999998    2.57999992
   18.83250046  105.12599945    0.51999998    2.57999992
   18.83583450  115.70800018    0.51999998    2.57999992
   18.83916664  109.15899658    0.51999998    2.57999992
   18.84222221  114.94799805    0.52999997    2.59999990
   18.84555626  109.48500061    0.51999998    2.59999990
   18.84638977  109.94699860    0.51999998    2.57999992
   18.84916687  113.95099640    0.52999997    2.57999992
   18.85222244  119.14399719    0.52999997    2.57999992
   18.85555649  108.08200073    0.52999997    2.57999992
   18.86166763  108.08200073    0.52999997    2.57999992
   18.86583328  122.13200378    0.52999997    2.57999992
   18.86916733  110.20400238    0.52999997    2.57999992
   18.87249947  116.00299835    0.52999997    2.57999992
   18.87555504  114.66999817    0.52999997    2.57999992
