    HOUR (UT)   FLARE FACTOR    SKY TESTER    SUN TESTER
   11.25444412   -1.00000000   -1.00000000   -1.00000000
   11.29055595  103.56500244    1.83000004    1.64999998
   11.29388905  103.88999939    1.83000004    1.64999998
   11.29722309  110.92800140    1.80999994    1.64999998
   11.30027771  121.26200104    1.83000004    1.64999998
   11.30361176  115.91100311    1.83000004    1.66999996
   11.30666733  116.10900116    1.83000004    1.66999996
   11.31083393  116.10900116    1.80999994    1.66999996
   11.31500053  126.48799896    1.80999994    1.66999996
   11.31833363  130.39799500    1.80999994    1.66999996
   11.32138920  150.04800415    1.80999994    1.69000006
   11.32388878  132.39500427    1.80999994    1.69000006
   11.32527733  149.83799744    1.78999996    1.69000006
   11.32833290  128.26300049    1.78999996    1.69000006
   11.33166695  157.94599915    1.76999998    1.69000006
   11.33500004  144.77499390    1.76999998    1.69000006
   11.33805561  286.76599121    1.76999998    1.71000004
   11.34138870   -1.00000000    1.75000000    1.71000004
   11.34472179  297.33898926    1.76999998    1.73000002
   11.34805489  304.37600708    1.75000000    1.73000002
   11.35000038  266.06399536    1.75000000    1.73000002
   11.35111141  322.53698730    1.75000000    1.73000002
   11.35249996  277.27200317    1.76999998    1.73000002
   11.35388947  256.64001465    1.75000000    1.73000002
   11.35527802  259.36300659    1.75000000    1.73000002
   11.35666752  261.35800171    1.75000000    1.73000002
   11.35805607  279.25601196    1.75000000    1.73000002
   11.35944462  303.53399658    1.73000002    1.73000002
   11.36111164  251.70399475    1.73000002    1.73000002
   11.36222267  277.05200195    1.73000002    1.73000002
   11.36361122  241.72700500    1.71000004    1.75000000
   11.36388969  128.26300049    1.78999996    1.69000006
   11.36388969  157.94599915    1.76999998    1.69000006
   11.36416721  144.77499390    1.76999998    1.69000006
   11.36416721  286.76599121    1.76999998    1.71000004
   11.36416721   -1.00000000    1.75000000    1.71000004
   11.36444473  297.33898926    1.76999998    1.73000002
   11.36444473  304.37600708    1.75000000    1.73000002
   11.36444473  150.04800415    1.80999994    1.69000006
   11.36472225  149.83799744    1.78999996    1.69000006
   11.36527824  262.58599854    1.71000004    1.75000000
   11.36833382  265.86199951    1.71000004    1.75000000
   11.37166691  265.92001343    1.71000004    1.75000000
   11.37500000  245.15600586    1.69000006    1.75000000
   11.37805557  233.37100220    1.69000006    1.76999998
   11.38444424  233.37100220    1.69000006    1.78999996
   11.38861084  270.99398804    1.69000006    1.76999998
   11.39194393  239.09500122    1.64999998    1.76999998
   11.39527798  253.43099976    1.64999998    1.78999996
   11.39750004  235.70799255    1.64999998    1.78999996
   11.39888859  241.70799255    1.63000000    1.78999996
   11.40222168  256.21899414    1.63000000    1.78999996
   11.40527725  237.11199951    1.63000000    1.78999996
   11.40861034  236.47300720    1.60000002    1.80999994
   11.41194439  225.67799377    1.60000002    1.80999994
   11.41499996  221.36799622    1.58000004    1.80999994
   11.41833401  242.35899353    1.58000004    1.80999994
   11.42166710  221.78599548    1.58000004    1.80999994
   11.42750072  221.78599548    1.53999996    1.80999994
   11.43166733  231.35099792    1.51999998    1.83000004
   11.43472195  201.30400085    1.50000000    1.83000004
   11.43805599  216.08799744    1.48000002    1.85000002
   11.44138908  222.09899902    1.46000004    1.85000002
   11.44444466  209.87399292    1.44000006    1.85000002
   11.44777775  229.85499573    1.41999996    1.85000002
   11.45111084  202.58799744    1.41999996    1.86000001
   11.45416641  201.66200256    1.39999998    1.86000001
   11.45749950  188.87500000    1.39999998    1.86000001
   11.46055508  198.75599670    1.38000000    1.86000001
   11.46388912  188.19799805    1.38000000    1.86000001
   11.46444416  203.01300049    1.38000000    1.86000001
   11.47027779  203.01300049    1.34000003    1.88000000
   11.47444439  177.74200439    1.34000003    1.88000000
   11.47749996  192.64300537    1.33000004    1.86000001
   11.48083305  163.58299255    1.33000004    1.88000000
   11.48416710  153.31500244    1.33000004    1.88000000
   11.48722267  199.49299622    1.33000004    1.89999998
   11.49055576  182.92100525    1.33000004    1.89999998
   11.49388885  192.41000366    1.30999994    1.88000000
   11.49694443  194.48500061    1.28999996    1.89999998
   11.49777794  171.73800659    1.28999996    1.89999998
   11.50083351  192.58900452    1.26999998    1.89999998
   11.50388908  175.42300415    1.26999998    1.89999998
   11.50722218  171.23699951    1.26999998    1.91999996
   11.51305580  171.23699951    1.26999998    1.91999996
   11.51722240  194.75500488    1.26999998    1.91999996
   11.52055550  166.85600281    1.25000000    1.91999996
   11.52361107  190.91299438    1.25000000    1.94000006
   11.52694416  161.15899658    1.25000000    1.94000006
   11.52999973  164.35600281    1.23000002    1.94000006
   11.53111076  168.41400146    1.23000002    1.94000006
   11.53388977  169.66400146    1.23000002    1.94000006
   11.53694534  155.22200012    1.21000004    1.94000006
   11.54027843  176.91400146    1.16999996    1.94000006
   11.54361153  158.02999878    1.16999996    1.94000006
   11.54666710  174.22000122    1.16999996    1.94000006
   11.55000019  165.20500183    1.14999998    1.96000004
   11.55583382  165.20500183    1.14999998    1.96000004
   11.56000042  161.47000122    1.14999998    1.96000004
   11.56333351  194.03700256    1.13000000    1.98000002
   11.56444454  160.51499939    1.13000000    1.98000002
   11.56694412  163.64100647    1.13000000    1.98000002
   11.56999969  166.85200500    1.14999998    1.96000004
   11.57333374  165.03100586    1.14999998    1.98000002
   11.57666683  156.33500671    1.13000000    1.98000002
   11.57972240  164.53599548    1.14999998    1.98000002
   11.58305550  180.01199341    1.13000000    1.98000002
   11.58611107  174.26800537    1.11000001    1.98000002
   11.58944416  158.99600220    1.11000001    2.00000000
   11.59277725  172.14500427    1.11000001    2.00000000
   11.59888840  172.14500427    1.09000003    2.00000000
   11.60305595  149.05099487    1.09000003    2.00000000
   11.60611153  156.99499512    1.09000003    2.00000000
   11.60944462  146.81599426    1.09000003    2.00000000
   11.61250019  146.52299500    1.07000005    2.00000000
   11.61583328  151.35000610    1.07000005    2.00000000
   11.61916637  169.42799377    1.07000005    2.01999998
   11.62222195  175.89399719    1.07000005    2.01999998
   11.62555599  168.04100037    1.07000005    2.01999998
   11.62888908  179.35699463    1.07000005    2.01999998
   11.63111115  165.52000427    1.07000005    2.01999998
   11.63249969  163.10299683    1.07000005    2.01999998
   11.63555527  157.83099365    1.05999994    2.03999996
   11.64166641  157.83099365    1.05999994    2.03999996
   11.64583302  154.85000610    1.05999994    2.03999996
   11.64888859  144.83099365    1.05999994    2.03999996
   11.65222168  147.22300720    1.05999994    2.01999998
   11.65555477  166.93899536    1.03999996    2.03999996
   11.65861034  158.79100037    1.03999996    2.03999996
   11.66194439  153.71400452    1.03999996    2.05999994
   11.66444397  151.05200195    1.01999998    2.05999994
   11.66555500  148.91999817    1.01999998    2.05999994
   11.66861153  152.86799622    1.01999998    2.05999994
   11.67194462  152.86099243    1.01999998    2.05999994
   11.67500019  139.99899292    1.01999998    2.05999994
   11.67833328  147.60200500    1.01999998    2.05999994
   11.68444443  147.60200500    1.00000000    2.05999994
   11.68861103  140.31399536    1.00000000    2.07999992
   11.69194412  142.09800720    0.98000002    2.07999992
   11.69499969  140.28900146    0.95999998    2.07999992
   11.69777775  146.29299927    0.98000002    2.07999992
   11.69888878  158.27699280    0.98000002    2.07999992
   11.70194435  151.40199280    0.95999998    2.09999990
   11.70527744  145.81599426    0.94000000    2.09999990
   11.70833302  161.02000427    0.94000000    2.09999990
   11.71166611  141.68099976    0.94000000    2.07999992
   11.71500015  156.56700134    0.94000000    2.07999992
   11.71805477  153.22099304    0.94000000    2.09999990
   11.72138882  153.13900757    0.94000000    2.09999990
   11.72722149  153.13900757    0.94000000    2.09999990
   11.73138809  152.88800049    0.94000000    2.09999990
   11.73472214  138.09700012    0.94000000    2.09999990
   11.73777771  151.82299805    0.94000000    2.11999989
   11.74111176  143.27099609    0.94000000    2.11999989
   11.74444485  156.77799988    0.92000002    2.11999989
   11.74750042  148.88999939    0.89999998    2.11999989
   11.75083351  150.13600159    0.89999998    2.11999989
   11.75416660  150.75500488    0.89999998    2.11999989
   11.75722218  146.60200500    0.89999998    2.11999989
   11.76055527  167.35299683    0.89999998    2.11999989
   11.76361084  147.05000305    0.89999998    2.11999989
   11.76444435  148.34300232    0.89999998    2.11999989
   11.77027798  148.34300232    0.89999998    2.13000011
   11.77444458  141.32800293    0.89999998    2.13000011
   11.77750015  137.24499512    0.88000000    2.13000011
   11.78083324  143.53399658    0.89999998    2.13000011
   11.78388977  152.49499512    0.89999998    2.13000011
   11.78722286  156.99000549    0.89999998    2.13000011
   11.79055595  143.83900452    0.92000002    2.13000011
   11.79361153  138.57299805    1.23000002    2.13000011
   11.79694462  146.00999451    1.23000002    2.13000011
   11.79777813  139.91299438    1.23000002    2.13000011
   11.80083370  135.03900146    1.09000003    2.15000010
   11.80388927  145.43200684    1.09000003    2.13000011
   11.80722237  141.59300232    0.98000002    2.15000010
   11.81305599  141.59300232    0.89999998    2.15000010
   11.81722260  143.66299438    1.34000003    2.15000010
   11.82027817  132.91799927    1.36000001    2.15000010
   11.82361126  143.00100708    2.11999989    2.15000010
   11.82694435  137.56799316    2.07999992    2.13000011
   11.82999992  158.29600525    1.98000002    2.15000010
   11.83111095  122.90799713    1.98000002    2.15000010
   11.83388901  144.58399963    0.92000002    2.15000010
   11.83694458  141.00399780    0.95999998    2.15000010
   11.84027767  172.05000305    1.00000000    2.13000011
   11.84361076  149.78700256    1.01999998    2.11999989
   11.84666634  130.84599304    1.01999998    2.11999989
   11.85000038  142.16400146    2.28999996    2.17000008
   11.85583401  142.16400146    4.90999985    2.19000006
   11.86000061  132.92300415    4.90999985    2.19000006
   11.86333370  105.18900299    4.90999985    2.07999992
   11.86444473  119.47100067    4.90999985    1.96000004
   11.86694431  142.14199829    4.90999985    2.00000000
   11.86999989  310.80099487    4.90999985    1.85000002
   11.87222195  132.92300415    4.90999985    2.19000006
   11.87222195  105.18900299    4.90999985    2.07999992
   11.87222195  142.14199829    4.90999985    2.00000000
   11.87250042  310.80099487    4.90999985    1.85000002
   11.87250042  141.00399780    0.95999998    2.15000010
   11.87250042  172.05000305    1.00000000    2.13000011
   11.87277794  149.78700256    1.01999998    2.11999989
   11.87277794  130.84599304    1.01999998    2.11999989
   11.87277794  142.16400146    2.28999996    2.17000008
   11.87500000   -1.00000000    4.90999985    0.31999999
   11.87805557   -1.00000000    4.90999985    0.25999999
   11.88138866  112.03800201    4.90999985    0.52999997
   11.88444424  136.22999573    4.90999985    2.09999990
   11.88777733  182.19900513    4.90999985    2.09999990
   11.89277744  182.19900513    4.90999985    2.23000002
   11.89694405  142.27200317    4.90999985    2.23000002
   11.90027714  125.93499756    4.90999985    2.23000002
   11.90333271  145.22799683    4.71999979    2.23000002
   11.90583324  137.50100708    4.90999985    2.23000002
   11.90722179  133.73500061    4.90999985    2.23000002
   11.91055489  132.23899841    4.90999985    2.25000000
   11.91361046  140.67700195    4.90999985    2.25000000
   11.91694450  132.23800659    4.90999985    2.23000002
   11.92000008  137.21899414    4.90999985    2.25000000
   11.92333412  131.64300537    4.90999985    2.25000000
   11.92666721  133.73100281    4.90999985    2.25000000
   11.92972279  133.05200195    4.90999985    2.25000000
   11.93583298  133.05200195    4.90999985    2.25000000
   11.93972206  127.34799957    4.90999985    2.25000000
   11.94305515  135.36099243    3.93000007    2.23000002
   11.94638920  125.01399994    2.36999989    2.25000000
   11.94944477  136.38800049    1.38000000    2.25000000
   11.95277786  128.60299683    1.30999994    2.25000000
   11.95583344  133.71400452    1.23000002    2.23000002
   11.95916653  134.18499756    1.23000002    2.25000000
   11.96249962  129.32000732    1.16999996    2.23000002
   11.96583271  139.78799438    1.14999998    2.23000002
   11.96888828  142.14199829    1.21000004    2.21000004
   11.97222137  132.04100037    1.23000002    2.23000002
   11.97277737  145.22799683    1.23000002    2.23000002
   11.97861099  145.22799683    1.23000002    2.23000002
   11.98277760  131.61399841    1.38000000    2.23000002
   11.98583317  129.61300659    1.38000000    2.23000002
   11.98916721  130.05700684    1.36000001    2.25000000
   11.99222279  144.00500488    1.36000001    2.25000000
   11.99555588  142.27400208    1.34000003    2.25000000
   11.99888897  133.58099365    1.16999996    2.25000000
   12.00194454  131.43699646    1.28999996    2.25000000
   12.00527763  132.30000305    1.23000002    2.26999998
   12.00611115  132.99299622    1.26999998    2.26999998
   12.00916672  150.16600037    1.28999996    2.26999998
   12.01222229  122.19799805    1.28999996    2.26999998
   12.01555538  138.11999512    3.18000007    2.28999996
   12.02138901  138.11999512    3.23000002    2.28999996
   12.02555561  142.77900696    4.90999985    2.21000004
   12.02861118  126.74500275    4.90999985    2.30999994
   12.03194427  137.51800537    4.69999981    2.30999994
   12.03527832  131.57899475    4.90999985    2.30999994
   12.03833389  127.80000305    4.90999985    2.30999994
   12.03944492  127.63500214    4.90999985    2.30999994
   12.04194450  133.72700500    4.90999985    2.30999994
   12.04527855  135.37500000    4.90999985    2.23000002
   12.04861164  122.15299988    4.90999985    2.25000000
   12.05166721  136.61099243    4.90999985    2.32999992
   12.05500031  119.00299835    4.90999985    2.32999992
   12.05833340  121.94100189    4.90999985    2.32999992
   12.06416702  121.94100189    4.13999987    2.32999992
   12.06833363  125.27200317    4.38999987    2.30999994
   12.07166672  124.74700165    3.50000000    2.32999992
   12.07277775  124.98500061    1.76999998    2.32999992
   12.07499981  118.02400208    0.98000002    2.32999992
   12.07833290  123.55799866    0.83999997    2.30999994
   12.08166695  122.34999847    0.88000000    2.30999994
   12.08472157  122.14900208    0.98000002    2.30999994
   12.08805561  131.65499878    1.16999996    2.30999994
   12.09138870  132.32899475    1.30999994    2.30999994
   12.09444427  133.07299805    1.50000000    2.28999996
   12.09777737  129.10800171    1.86000001    2.28999996
   12.10083389  124.51000214    2.28999996    2.28999996
   12.10694504  124.51000214    4.90999985    2.28999996
   12.11111164  138.95199585    4.90999985    2.28999996
   12.11444473  119.29900360    4.90999985    2.30999994
   12.11777782  169.20199585    4.90999985    2.32999992
   12.12083340  130.69700623    4.90999985    1.71000004
   12.12416649  133.76100159    4.90999985    2.34999990
   12.12750053  138.08200073    4.90999985    2.36999989
   12.13055611  138.87699890    4.90999985    2.36999989
   12.13388920  117.73899841    4.90999985    2.39000010
   12.13694477  124.26000214    4.90999985    2.39000010
   12.13944435  115.13899994    4.90999985    2.40000010
   12.14055538  117.84500122    4.90999985    2.39000010
   12.14388847  130.70599365    4.90999985    2.39000010
   12.14999962  130.70599365    4.90999985    2.39000010
   12.15416622  123.48200226    4.90999985    2.36999989
   12.15722179  130.73199463    4.90999985    2.36999989
   12.16055489  135.24400330    4.90999985    2.39000010
   12.16361046  149.96099854    4.90999985    2.39000010
   12.16694450   -1.00000000    4.90999985    1.94000006
   12.17027855   -1.00000000    4.90999985    0.17000000
   12.17277813  146.29600525    4.90999985    0.23000000
   12.17361164  129.63200378    4.90999985    0.47999999
   12.17694473   94.98449707    4.90999985    0.89999998
   12.18027782  113.96199799    4.90999985    2.28999996
   12.18333340  118.66799927    4.90999985    1.94000006
   12.18666649  103.89499664    4.90999985    2.40000010
   12.19277763  103.89499664    4.90999985    2.30999994
   12.19694424  110.75199890    4.90999985    2.30999994
   12.19999981  121.42500305    4.90999985    2.42000008
   12.20333290  115.04900360    4.90999985    2.40000010
   12.20611095  108.45200348    4.90999985    2.40000010
   12.20694447   99.83660126    4.90999985    2.39000010
   12.21027756  107.65599823    4.90999985    2.36999989
   12.21361065  100.42700195    4.90999985    2.42000008
   12.21666622  111.19100189    4.90999985    2.30999994
   12.21999931  113.76200104    4.90999985    2.42000008
   12.22333336  100.83799744    4.90999985    2.42000008
   12.22638798  118.81999969    4.90999985    2.46000004
   12.22972202  118.82299805    4.90999985    2.44000006
   12.23555565  118.82299805    4.90999985    2.13000011
   12.23972225  146.32200623    4.90999985    1.61000001
   12.24305534   -1.00000000    4.90999985    0.83999997
   12.24611092   -1.00000000    4.90999985    0.38000000
   12.24944496   -1.00000000    4.90999985    1.00000000
   12.25277805   -1.00000000    4.90999985    0.25999999
   12.25583363  118.71800232    4.90999985    1.09000003
   12.25916672  108.46499634    4.90999985    2.17000008
   12.26222229   -1.00000000    4.90999985    0.64999998
   12.26555538   -1.00000000    4.90999985    0.15000001
   12.26888847   -1.00000000    4.90999985    0.15000001
   12.27194405   -1.00000000    4.90999985    0.19000000
   12.28249931   89.50509644    4.90999985    1.05999994
   12.28583336   -1.00000000    4.90999985    1.88000000
   12.28888893   -1.00000000    4.90999985    0.47999999
   12.30888939  119.11900330    4.90999985    0.76999998
   12.31194496  129.13400269    4.90999985    2.17000008
   12.31527805   -1.00000000    4.90999985    2.39000010
   12.32138920   -1.00000000    4.90999985    0.31999999
   12.32555580   -1.00000000    4.90999985    0.61000001
   12.32861137   -1.00000000    4.90999985    0.19000000
   12.33194447   -1.00000000    4.90999985    0.17000000
   12.33527756   -1.00000000    4.90999985    0.20999999
   12.33833313   -1.00000000    4.90999985    0.47999999
   12.34111118  110.77999878    4.90999985    0.94000000
   12.34222221  167.94400024    4.90999985    0.88000000
   12.34527779  119.21900177    4.90999985    2.40000010
   12.34861088  175.13299561    4.90999985    2.34999990
   12.35166740   23.57019997    4.90999985    1.78999996
   12.35500050   -1.00000000    4.90999985    0.30000001
   12.35833359   -1.00000000    4.90999985    0.09000000
   12.36833382   -1.00000000    4.90999985    0.11000000
   12.37138939   -1.00000000    4.90999985    0.11000000
   12.37500000   -1.00000000    4.90999985    0.13000000
   12.37833309   -1.00000000    4.90999985    0.11000000
   12.38138866   -1.00000000    4.90999985    0.13000000
   12.38472176   -1.00000000    4.90999985    0.86000001
   12.38805580   -1.00000000    4.90999985    0.36000001
   12.39111137   -1.00000000    4.90999985    0.56999999
   12.39444447   -1.00000000    4.90999985    0.17000000
   12.39777756   -1.00000000    4.90999985    0.13000000
   12.40083313   -1.00000000    4.90999985    0.09000000
   12.41111088   -1.00000000    4.90999985    0.09000000
   12.41444397   -1.00000000    4.90999985    0.09000000
   12.41750050   -1.00000000    4.90999985    2.23000002
   12.42083359   -1.00000000    4.90999985    2.46000004
   12.42388916   -1.00000000    4.90999985    2.46000004
   12.42722225   -1.00000000    4.90999985    2.32999992
   12.43055630  162.35699463    4.90999985    1.89999998
   12.43361092   -1.00000000    4.90999985    1.66999996
   12.43694496  183.50900269    4.90999985    0.15000001
   12.44027805   79.18620300    4.90999985    1.07000005
   12.44194412  102.99900055    4.90999985    1.83000004
   12.44388866  117.12300110    4.90999985    2.25000000
   12.45388889   -1.00000000    4.90999985    1.61000001
   12.45722198   -1.00000000   -1.00000000   -1.00000000
   12.46027756   -1.00000000    4.90999985    0.40000001
   12.46361065   -1.00000000    4.90999985    0.03000000
   12.46694374   -1.00000000    4.90999985    0.01000000
   12.46999931   -1.00000000    3.39000010    0.01000000
   12.47333336   -1.00000000    3.39000010    0.01000000
   12.47694397   -1.00000000    3.39000010    0.01000000
   12.47999954   -1.00000000    3.39000010    0.01000000
   12.48333359   -1.00000000    3.39000010    0.01000000
   12.48638916   -1.00000000    3.39000010    0.01000000
   12.49666691   -1.00000000    4.76000023    0.01000000
   12.50000000   -1.00000000    4.90999985    0.07000000
   12.50333309   -1.00000000    4.90999985    0.03000000
   12.50638866   -1.00000000    4.90999985    0.03000000
   12.51000023   -1.00000000    4.90999985    0.05000000
   12.51333332   -1.00000000    4.90999985    1.48000002
   12.51638889   -1.00000000    4.90999985    0.75000000
   12.51972198   -1.00000000    4.90999985    1.96000004
   12.52305508   -1.00000000    4.90999985    2.51999998
   12.52611065   -1.00000000    4.90999985    2.53999996
   12.52944374   -1.00000000    4.90999985    2.51999998
   12.53972244   -1.00000000    4.90999985    0.76999998
   12.54305553   -1.00000000    4.90999985    1.85000002
   12.54638958   -1.00000000    4.90999985    2.53999996
   12.54944515   -1.00000000    4.90999985    2.53999996
   12.55277824   -1.00000000    4.90999985    2.51999998
   12.55611134   -1.00000000    4.90999985    1.13000000
   12.55916691   -1.00000000    4.90999985    0.23000000
   12.56250000   -1.00000000    4.90999985    0.11000000
   12.56583309   -1.00000000    4.90999985    0.03000000
   12.56888866   -1.00000000    3.30999994    0.01000000
   12.57222176   -1.00000000    1.75000000    0.01000000
   12.58249950   -1.00000000    1.75000000    0.01000000
   12.58583260   -1.00000000    1.75000000    0.01000000
   12.58888817   -1.00000000    1.75000000    0.01000000
   12.59222221   -1.00000000    1.75000000    0.01000000
   12.59527779   -1.00000000    1.75000000    0.01000000
   12.59861088   -1.00000000    1.01999998    0.01000000
   12.60194492   -1.00000000    1.41999996    0.01000000
   12.60500050   -1.00000000    3.86999989    0.01000000
   12.60833359   -1.00000000    4.90999985    0.01000000
   12.61194515   -1.00000000    4.90999985    0.05000000
   12.61527824   -1.00000000    4.90999985    0.11000000
   12.62527752   -1.00000000    4.90999985    0.51999998
   12.62861156   -1.00000000    4.90999985    0.44000000
   12.63166714   -1.00000000    4.90999985    0.28000000
   12.63500023   -1.00000000    4.90999985    0.11000000
   12.63833332   -1.00000000    4.90999985    0.11000000
   12.64138889   -1.00000000    4.90999985    0.05000000
   12.64499950   -1.00000000    4.90999985    0.05000000
   12.64833355   -1.00000000    4.90999985    0.05000000
   12.65138817   -1.00000000    3.48000002    0.13000000
   12.65472221   -1.00000000    4.17999983    0.03000000
   12.65777779   -1.00000000    2.57999992    0.03000000
   12.66805553   -1.00000000    4.90999985    0.11000000
   12.67138958   -1.00000000    4.90999985    1.30999994
   12.67472267   -1.00000000    4.90999985    1.58000004
   12.67833328   -1.00000000    4.90999985    1.39999998
   12.68138885   -1.00000000    4.90999985    1.96000004
   12.68472195   -1.00000000    4.90999985    0.17000000
   12.68805599   -1.00000000    4.90999985    0.20999999
   12.69111156   -1.00000000    4.90999985    0.11000000
   12.69444466   -1.00000000    4.90999985    0.09000000
   12.69750023   -1.00000000    4.90999985    0.19000000
   12.70083332   -1.00000000    4.90999985    0.31999999
   12.71111107   -1.00000000    4.90999985    0.11000000
   12.71416664   -1.00000000    4.90999985    0.17000000
   12.71749973   -1.00000000    4.90999985    0.25000000
   12.72083282   -1.00000000    4.90999985    2.55999994
   12.72388840   -1.00000000    4.90999985    1.66999996
   12.72722149   -1.00000000    4.90999985    0.51999998
   12.73027706   -1.00000000    4.90999985    0.50000000
   12.73361111   -1.00000000    4.90999985    0.67000002
   12.73694515   -1.00000000    4.90999985    0.83999997
   12.74000072   -1.00000000    4.90999985    0.28000000
   12.74361134   -1.00000000    4.90999985    0.11000000
   12.75388908   -1.00000000    4.90999985    0.19000000
   12.75694466   -1.00000000    4.90999985    0.05000000
   12.76027775   -1.00000000    4.90999985    0.03000000
   12.76361084   -1.00000000    4.90999985    0.03000000
   12.76666641   -1.00000000    4.90999985    0.05000000
   12.76999950   -1.00000000    4.90999985    0.07000000
   12.77333355   -1.00000000    4.90999985    0.67000002
   12.77694416   -1.00000000    4.90999985    1.55999994
   12.77999973   -1.00000000    4.90999985    2.50000000
   12.78333378   -1.00000000    4.90999985    2.55999994
   12.78638935   -1.00000000    4.90999985    2.53999996
   12.79666710   -1.00000000    4.90999985    2.55999994
   12.80000019   -1.00000000    4.90999985    2.26999998
   12.80305576   -1.00000000    4.90999985    2.50000000
   12.80638885   -1.00000000    4.90999985    2.05999994
   12.81000042   -1.00000000    4.90999985    1.96000004
   12.81305599   -1.00000000    4.90999985    2.00000000
   12.81638908   -1.00000000    4.90999985    2.48000002
   12.81972218   -1.00000000    4.90999985    2.55999994
   12.82277775   -1.00000000    4.90999985    2.55999994
   12.82611084   -1.00000000    4.90999985    2.53999996
   12.82916641   -1.00000000    4.00000000    2.55999994
   12.83944416   -1.00000000    4.90999985    2.53999996
   12.84333324   -1.00000000    2.03999996    2.55999994
   12.84638882   -1.00000000    1.11000001    2.55999994
   12.84972191   -1.00000000    4.90999985    1.91999996
   12.85305595   -1.00000000    4.90999985    2.57999992
   12.85611153   -1.00000000    4.90999985    2.64000010
   12.85944462   -1.00000000    4.90999985    2.59999990
   12.86250019   -1.00000000    4.90999985    2.21000004
   12.86583328   -1.00000000    4.90999985    1.71000004
   12.86916637   -1.00000000    4.90999985    1.00000000
   12.87222195   -1.00000000    4.90999985    1.80999994
   12.88249969   -1.00000000    4.90999985    0.28000000
   12.88555527   -1.00000000    4.90999985    0.55000001
   12.88888836   -1.00000000    4.90999985    1.69000006
   12.89222240   -1.00000000    4.90999985    0.63000000
   12.89527798   -1.00000000    4.90999985    0.19000000
   12.89861107   -1.00000000    4.90999985    0.86000001
   12.90166664   -1.00000000    4.90999985    1.53999996
   12.90499973   -1.00000000    4.90999985    1.61000001
   12.90833282   -1.00000000    4.90999985    0.20999999
   12.91194439   -1.00000000    4.90999985    0.09000000
   12.91499996   -1.00000000    4.90999985    0.07000000
   12.92527771   -1.00000000    4.90999985    2.50000000
   12.92861176   -1.00000000    4.90999985    2.57999992
   12.93166733   -1.00000000    4.90999985    2.57999992
   12.93500042   -1.00000000    4.01999998    1.78999996
   12.93805599   -1.00000000    4.90999985    2.53999996
   12.94138908   -1.00000000    2.75000000    2.53999996
   12.94499969   -1.00000000    2.23000002    2.53999996
   12.94805527   -1.00000000    2.19000006    2.51999998
   12.95138836   -1.00000000    2.82999992    2.53999996
   12.95472240   -1.00000000    4.90999985    2.57999992
   12.95777798   -1.00000000    4.90999985    2.59999990
   12.96805477   -1.00000000    4.90999985    0.58999997
   12.97138882   -1.00000000    4.90999985    2.46000004
   12.97444439   -1.00000000    4.90999985    2.61999989
   12.97805500   -1.00000000    4.90999985    2.61999989
   12.98111057   -1.00000000    4.90999985    2.42000008
   12.98444462   -1.00000000    4.90999985    0.98000002
   12.98750019   -1.00000000    4.90999985    0.86000001
   12.99083328   -1.00000000    4.90999985    0.67000002
   12.99416733   -1.00000000    4.90999985    0.52999997
   12.99722290   -1.00000000    4.90999985    0.80000001
   13.00055599   -1.00000000    4.90999985    2.50000000
   13.01083374   -1.00000000    4.90999985    2.55999994
   13.01500034   -1.00000000    4.90999985    2.32999992
   13.01805496   -1.00000000    4.90999985    2.59999990
   13.02138901   -1.00000000    4.90999985    2.66000009
   13.02444458   -1.00000000    4.90999985    1.03999996
   13.02777767   -1.00000000    4.90999985    0.73000002
   13.03111076   -1.00000000    4.90999985    0.38000000
   13.03416729   -1.00000000    4.90999985    0.50000000
   13.03750038   -1.00000000    4.90999985    1.34000003
   13.04055595   -1.00000000    4.90999985    2.40000010
   13.04444504   -1.00000000    4.90999985    2.61999989
   13.05388927   -1.00000000    4.90999985    2.61999989
   13.05694485   -1.00000000    4.90999985    2.55999994
   13.06027794   -1.00000000    4.90999985    2.61999989
   13.06333351   -1.00000000    4.90999985    2.59999990
   13.06666660   -1.00000000    4.90999985    2.59999990
   13.06999969   -1.00000000    4.90999985    2.61999989
   13.07305527   -1.00000000    4.90999985    2.67000008
   13.07638836   -1.00000000    4.90999985    2.34999990
   13.07999992   -1.00000000    4.90999985    0.69000000
   13.08333302   -1.00000000    4.90999985    0.55000001
   13.08638859   -1.00000000    4.90999985    0.88000000
   13.09666634   -1.00000000    4.90999985    2.61999989
   13.09972191   -1.00000000    4.90999985    2.57999992
   13.10305595   -1.00000000    4.90999985    2.19000006
   13.10638905   -1.00000000    4.90999985    2.46000004
   13.10944462   -1.00000000    1.39999998    2.53999996
   13.11305618   -1.00000000    1.13000000    2.53999996
   13.11638927   -1.00000000    1.16999996    2.53999996
   13.11944485   -1.00000000    1.51999998    2.51999998
   13.12277794   -1.00000000    1.60000002    2.53999996
   13.12611103   -1.00000000    1.91999996    2.55999994
   13.12916660  139.73199463    1.89999998    2.55999994
   13.13555527  139.73199463    4.82999992    2.53999996
   13.13944435   90.07099915    4.90999985    2.53999996
   13.14277744  138.91700745    4.90999985    2.53999996
   13.14361095  233.01899719    4.90999985    2.59999990
   13.14638901   -1.00000000    4.90999985    1.14999998
   13.14972210   -1.00000000    4.90999985    0.20999999
   13.15305519   -1.00000000    4.90999985    0.15000001
   13.15611076   -1.00000000    4.90999985    0.15000001
   13.15944386   -1.00000000    4.90999985    0.11000000
   13.16277695   -1.00000000    4.90999985    0.05000000
   13.16583252   -1.00000000    4.90999985    0.05000000
   13.16916656   -1.00000000    4.90999985    0.03000000
   13.17222214   -1.00000000    4.90999985    0.03000000
   13.18222237   -1.00000000    4.90999985    0.67000002
   13.18555546   -1.00000000    4.90999985    0.17000000
   13.18888855   -1.00000000    4.90999985    0.13000000
   13.19194412   -1.00000000    4.90999985    0.41999999
   13.19527817   -1.00000000    4.90999985    0.25999999
   13.19833374   -1.00000000    4.90999985    0.98000002
   13.20166683   -1.00000000    4.90999985    2.59999990
   13.20499992   -1.00000000    4.90999985    2.15000010
   13.20805550   -1.00000000    4.90999985    1.76999998
   13.21166611   -1.00000000    4.90999985    1.26999998
   13.21500015   -1.00000000    4.90999985    2.57999992
   13.22527695   -1.00000000    4.90999985    2.39000010
   13.22833252   -1.00000000    4.90999985    2.40000010
   13.23166656   -1.00000000    4.90999985    2.46000004
   13.23472214   -1.00000000    4.90999985    2.50000000
   13.23805618   -1.00000000    4.90999985    2.53999996
   13.24138927   -1.00000000    4.90999985    2.50000000
   13.24472237   -1.00000000    4.90999985    2.55999994
   13.24805546   -1.00000000    4.90999985    2.53999996
   13.25111103   -1.00000000    4.53000021    2.55999994
   13.25444412   -1.00000000    4.03999996    2.59999990
   13.25777817   -1.00000000    4.90999985    2.57999992
   13.26805496   -1.00000000    3.30999994    2.55999994
   13.27111053   -1.00000000    3.36999989    2.57999992
   13.27444458   -1.00000000    4.90999985    2.23000002
   13.27805519   -1.00000000    4.90999985    2.61999989
   13.28138828   -1.00000000    4.90999985    2.57999992
   13.28444481   -1.00000000    2.11999989    2.53999996
   13.28777790   -1.00000000    4.82999992    2.57999992
   13.29111195   -1.00000000    2.03999996    2.50000000
   13.29416752   -1.00000000    4.90999985    2.61999989
   13.29750061   -1.00000000    4.90999985    2.26999998
   13.30083370   -1.00000000    4.90999985    2.25000000
   13.32527733   -1.00000000    4.90999985    2.25000000
   13.32833290   -1.00000000    4.90999985    2.46000004
   13.33166695   -1.00000000    4.90999985    1.53999996
   13.33472157   -1.00000000    4.90999985    2.55999994
   13.33805561   -1.00000000    4.90999985    2.69000006
   13.34138870   -1.00000000    4.90999985    2.66000009
   13.34444427   -1.00000000    4.90999985    2.67000008
   13.35388947   -1.00000000    4.90999985    2.67000008
   13.35722256   -1.00000000    4.90999985    0.79000002
   13.36083412   -1.00000000    4.90999985    0.64999998
   13.36416721   -1.00000000    4.90999985    1.61000001
   13.36722279   -1.00000000    4.90999985    2.69000006
   13.37055588   -1.00000000    4.90999985    2.67000008
   13.37361145   -1.00000000    4.90999985    2.66000009
   13.37694454   -1.00000000    4.90999985    2.67000008
   13.38027763   -1.00000000    4.90999985    2.67000008
   13.38333321   -1.00000000    4.90999985    2.64000010
   13.38666630   -1.00000000    4.90999985    2.64000010
   13.39666653   -1.00000000    4.90999985    0.30000001
   13.39999962   -1.00000000    4.90999985    0.17000000
   13.40333271   -1.00000000    4.90999985    0.47999999
   13.40638828   -1.00000000    4.90999985    1.38000000
   13.40972137   -1.00000000    4.90999985    0.50000000
   13.41277695   -1.00000000    4.90999985    0.69000000
   13.41611099   -1.00000000    4.90999985    0.09000000
   13.41944504   -1.00000000    3.78999996    0.05000000
   13.42250061   -1.00000000    3.46000004    0.03000000
   13.42611122   -1.00000000    2.07999992    0.01000000
   13.42916679   -1.00000000    2.07999992    0.01000000
   13.43972206   -1.00000000    2.07999992    0.01000000
   13.44277763   -1.00000000    2.07999992    0.01000000
   13.44611073   -1.00000000    2.07999992    0.01000000
   13.44916630   -1.00000000    1.16999996    0.01000000
   13.45249939   -1.00000000    4.90999985    0.03000000
   13.45583344   -1.00000000    4.90999985    0.09000000
   13.45944405   -1.00000000    4.90999985    0.07000000
   13.46277714   -1.00000000    4.90999985    0.09000000
   13.46583271   -1.00000000    4.90999985    1.39999998
   13.46916580   -1.00000000    4.90999985    2.42000008
   13.47222137   -1.00000000    4.90999985    1.03999996
   13.48249912   -1.00000000    4.90999985    1.88000000
   13.48555565   -1.00000000    4.90999985    1.75000000
   13.48888874   -1.00000000    4.90999985    0.15000001
   13.49250031   -1.00000000    4.90999985    0.03000000
   13.49583340   -1.00000000    3.26999998    0.01000000
   13.49916649   -1.00000000    3.26999998    0.01000000
   13.50222206   -1.00000000    3.26999998    0.01000000
   13.50555515   -1.00000000    3.26999998    0.01000000
   13.50888920   -1.00000000    3.26999998    0.01000000
   13.51194477   -1.00000000    3.26999998    0.01000000
   13.51527786   -1.00000000    4.90999985    0.01000000
   13.52527714   -1.00000000    4.90999985    1.83000004
   13.52861118   -1.00000000    4.90999985    2.66000009
   13.53166676  179.05900574    4.90999985    2.69000006
   13.53500080   -1.00000000    4.90999985    0.56999999
   13.53833389   -1.00000000    4.90999985    0.20999999
   13.54138947   -1.00000000    4.90999985    0.15000001
   13.54472256   -1.00000000    4.90999985    0.15000001
   13.54777813   -1.00000000    4.90999985    0.17000000
   13.55111122   -1.00000000    4.90999985    0.15000001
   13.55444431   -1.00000000    4.90999985    0.17000000
   13.55749989   -1.00000000    4.90999985    0.13000000
   13.56805515   -1.00000000    1.91999996    0.01000000
   13.57138920   -1.00000000    1.91999996    0.01000000
   13.57472229   -1.00000000    1.91999996    0.01000000
   13.57777786   -1.00000000    1.91999996    0.01000000
   13.58111095   -1.00000000    1.91999996    0.01000000
   13.58416653   -1.00000000    1.91999996    0.01000000
   13.58749962   -1.00000000    1.91999996    0.01000000
   13.59083271   -1.00000000    3.61999989    0.01000000
   13.59416676   -1.00000000    3.57999992    0.01000000
   13.59749985   -1.00000000    3.03999996    0.03000000
   13.60055637   -1.00000000    4.90999985    0.07000000
   13.61111164   -1.00000000    4.90999985    0.75000000
   13.61416721   -1.00000000    4.90999985    0.15000001
   13.61750031   -1.00000000    4.90999985    0.05000000
   13.62055588   -1.00000000    2.96000004    0.01000000
   13.62388897   -1.00000000    3.00000000    0.03000000
   13.62750053   -1.00000000    4.90999985    0.03000000
   13.63083363   -1.00000000    4.90999985    0.05000000
   13.63388920   -1.00000000    4.90999985    0.09000000
   13.63722229   -1.00000000    4.90999985    0.15000001
   13.64055538   -1.00000000    4.90999985    0.17000000
   14.00388908  111.53600311    4.53000021    2.67000008
   14.00694466  113.69499969    2.30999994    2.61999989
   14.01027775  119.23899841    1.61000001    2.66000009
   14.01361084  115.57399750    0.67000002    2.66000009
   14.01666641  110.54100037    0.69000000    2.66000009
   14.01999950  115.71700287    1.39999998    2.67000008
   14.02416611  115.71700287    1.80999994    2.67000008
   14.02833271  119.47399902    0.64999998    2.66000009
   14.03138828  118.49500275    0.67000002    2.66000009
   14.03472233  118.00800323    0.64999998    2.66000009
   14.03722286  114.96800232    0.67000002    2.66000009
   14.03833389  109.49299622    0.67000002    2.66000009
   14.04166698  124.00000000    0.67000002    2.66000009
   14.04500008  109.87899780    0.67000002    2.64000010
   14.04805565  120.85099792    0.67000002    2.64000010
   14.05138874  110.83000183    0.67000002    2.64000010
   14.05444431  113.60199738    0.69000000    2.66000009
   14.05777836  113.22200012    0.69000000    2.66000009
   14.06111145  115.60399628    0.76999998    2.67000008
   14.06694412  115.60399628    0.92000002    2.66000009
   14.07111073  116.31600189    0.86000001    2.66000009
   14.07416630  110.68199921    4.90999985    2.67000008
   14.07750034  111.45300293    3.82999992    2.66000009
   14.08083344  113.00499725    1.05999994    2.66000009
   14.08388901  116.46099854    1.41999996    2.64000010
   14.08722210  116.15699768    1.34000003    2.61999989
   14.09055519  107.30500031    1.11000001    2.64000010
   14.09361076  115.83100128    1.09000003    2.64000010
   14.09694386  116.53700256    1.26999998    2.64000010
   14.10000038  115.04199982    1.41999996    2.64000010
   14.10333347  113.51200104    1.58000004    2.64000010
   14.10388947  118.72499847    1.58000004    2.64000010
   14.10972214  118.72499847    1.60000002    2.61999989
   14.11388969  120.23799896    1.63000000    2.64000010
   14.11722279  123.33100128    1.60000002    2.64000010
   14.12027836  130.55700684    1.34000003    2.66000009
   14.12361145  119.60199738    1.34000003    2.66000009
   14.12694454  115.89299774    1.23000002    2.64000010
   14.13000011  118.66300201    1.48000002    2.64000010
   14.13333321  115.77999878    1.50000000    2.64000010
   14.13638878  117.12799835    1.69000006    2.64000010
   14.13722229  112.33899689    1.55999994    2.64000010
   14.14027786  114.24700165    1.46000004    2.64000010
   14.14333344  114.39900208    1.28999996    2.64000010
   14.14666653  121.45500183    1.25000000    2.64000010
   14.15249920  121.45500183    4.90999985    2.40000010
   14.15666676  111.27799988    4.90999985    2.59999990
   14.15999985   90.66570282    4.90999985    2.19000006
   14.16333294  107.01899719    4.90999985    2.76999998
   14.16638851  124.79399872    4.90999985    2.78999996
   14.16972256   -1.00000000    4.90999985    0.63000000
   14.17305565   -1.00000000    4.90999985    0.52999997
   14.17638874   -1.00000000    4.90999985    0.69000000
   14.17972279  151.27000427    4.90999985    1.88000000
   14.18277836   95.18139648    4.90999985    1.38000000
   14.18611145  112.93199921    4.90999985    2.76999998
   14.18916702  121.00499725    4.90999985    2.75000000
   14.19555569  121.00499725    4.69999981    2.69000006
   14.19972229  124.16400146    4.90999985    2.73000002
   14.20277786  115.55599976    4.90999985    2.75000000
   14.20388889  113.13800049    4.90999985    2.75000000
   14.20666695  124.69400024    4.90999985    2.73000002
   14.20972157  119.52999878    3.84999990    2.71000004
   14.21305561  103.67099762    4.90999985    2.71000004
   14.21638870   -1.00000000    4.90999985    2.00000000
   14.21944427   -1.00000000    4.90999985    1.14999998
   14.22277737  223.00300598    4.90999985    0.92000002
   14.22583294   -1.00000000    4.90999985    0.64999998
   14.22916603   98.45970154    4.90999985    2.23000002
   14.23249912   -1.00000000    4.90999985    2.71000004
   14.23833370   -1.00000000    4.90999985    0.98000002
   14.24250031  110.43199921    4.90999985    1.09000003
   14.24555588   72.17790222    4.90999985    2.48000002
   14.24888897  115.65799713    4.90999985    2.73000002
   14.25222206  125.63400269    4.90999985    2.66000009
   14.25527763  123.34999847    1.80999994    2.66000009
   14.25861073  121.61499786    2.01999998    2.64000010
   14.26194477  116.08699799    1.98000002    2.64000010
   14.26500034  120.53199768    2.46000004    2.64000010
   14.26833344  136.07800293    3.05999994    2.61999989
   14.27055550  127.53800201    3.78999996    2.59999990
   14.27194405  119.14700317    4.90999985    2.55999994
   14.27499962  139.00199890    4.90999985    2.50000000
   14.28111076  139.00199890    4.90999985    2.25000000
   14.28527832  186.72900391    4.90999985    2.28999996
   14.28861141  117.88300323    4.90999985    2.13000011
   14.29166698   -1.00000000    4.90999985    1.86000001
   14.29500008   -1.00000000    4.90999985    0.61000001
   14.29833412   -1.00000000    4.90999985    0.94000000
   14.30138874  288.16400146    4.90999985    0.67000002
   14.30388927  126.56500244    4.90999985    2.05999994
   14.30527782  104.55200195    4.90999985    2.05999994
   14.30833340  153.35200500    4.90999985    2.28999996
   14.31166649   -1.00000000    4.90999985    2.48000002
   14.31500053   -1.00000000    4.90999985    1.28999996
   14.31805515   -1.00000000    4.90999985    0.13000000
   14.32805538   -1.00000000    4.90999985    0.01000000
   14.33111095   -1.00000000    4.90999985    0.01000000
   14.33444405   -1.00000000    4.90999985    0.01000000
   14.33805561   -1.00000000    4.90999985    0.01000000
   14.34138870   -1.00000000    4.90999985    0.01000000
   14.34472179   -1.00000000    1.23000002    0.01000000
   14.34777737   -1.00000000    4.90999985    0.05000000
   14.35111141   -1.00000000    4.90999985    0.09000000
   14.35416698   -1.00000000    4.90999985    0.30000001
   14.35750008   -1.00000000    4.90999985    1.30999994
   14.36083412   -1.00000000   -1.00000000   -1.00000000
   14.71916580   -1.00000000    4.90999985    0.15000001
   15.06444454  252.64399719    0.58999997    2.69000006
   15.06777763  248.64999390    0.50000000    2.69000006
   15.07111073  146.63900757    0.86000001    2.69000006
   15.07416630  171.76499939    3.39000010    2.61999989
   15.07750034  134.28500366    4.90999985    2.55999994
   15.08083344  179.82899475    4.90999985    2.66000009
   15.08500004  179.82899475    4.90999985    2.75000000
   15.08888817   80.90529633    4.90999985    1.51999998
   15.09222221   98.99150085    4.90999985    2.64000010
   15.09555531  116.23699951    4.90999985    2.67000008
   15.09777737  124.44499969    4.73999977    2.64000010
   15.09916592  119.96800232    4.90999985    2.71000004
   15.10249996   -1.00000000    4.90999985    1.33000004
   15.10555553   -1.00000000    4.90999985    1.00000000
   15.10888958   -1.00000000    4.90999985    0.11000000
   15.11222267   -1.00000000    4.90999985    0.05000000
   15.11527824   -1.00000000    4.90999985    0.15000001
   15.21777725   -1.00000000   -1.00000000   -1.00000000
   15.32194424   -1.00000000   -1.00000000   -1.00000000
   15.42666721   -1.00000000   -1.00000000   -1.00000000
   15.65194416  106.38200378    4.90999985    2.76999998
   15.65499973  105.77700043    4.90999985    2.80999994
   15.65833282   -1.00000000    4.90999985    2.07999992
   15.66138840  273.22198486    4.90999985    1.69000006
   15.66472149   -1.00000000    4.90999985    0.70999998
   15.66805553   -1.00000000    4.90999985    0.15000001
   15.67611122   -1.00000000    4.90999985    1.41999996
   15.67944431   -1.00000000    4.90999985    0.28000000
   15.68249989   -1.00000000    4.90999985    0.46000001
   15.68611145   -1.00000000    4.90999985    0.64999998
   15.68944454  104.72899628    4.90999985    0.46000001
   15.69277763  115.71900177    4.90999985    2.78999996
   15.69583321  105.21099854    2.05999994    2.71000004
   15.69916630  110.60900116    3.84999990    2.67000008
   15.70222187  108.91500092    3.78999996    2.69000006
   15.70555496  112.92900085    3.82999992    2.67000008
   15.70888901  115.49299622    2.09999990    2.71000004
   15.71500015  115.49299622    2.03999996    2.69000006
   15.71916580  119.91500092    1.64999998    2.73000002
   15.72222137  112.10600281    1.61000001    2.73000002
   15.72555542  120.35800171    4.90999985    2.78999996
   15.72861099  196.82699585    4.90999985    2.01999998
   15.73194408   -1.00000000    4.90999985    0.51999998
   15.73527813   -1.00000000    4.90999985    0.51999998
   15.73833370   -1.00000000    4.90999985    0.28000000
   15.74166679  108.66300201    4.90999985    2.42000008
   15.74499989  123.71700287    4.90999985    2.59999990
   15.74805546  131.02099609    4.90999985    2.82999992
   15.75138855  143.02099609    4.90999985    2.64000010
   15.75194454  204.13699341    4.90999985    2.75000000
   15.75777817  204.13699341    4.90999985    2.75000000
   15.76194477  124.94999695    2.57999992    2.75000000
   15.76500034  116.26100159    4.90999985    2.76999998
   15.76833344  120.70099640    4.90999985    2.75000000
   15.77166653  111.97100067    0.67000002    2.73000002
   15.77472210  117.98200226    0.69000000    2.73000002
   15.77805519  124.01200104    0.69000000    2.71000004
   15.78138828  122.41500092    0.69000000    2.71000004
   15.78444481  118.34400177    0.75000000    2.73000002
   15.78527832  115.66699982    0.76999998    2.73000002
   15.78805637  113.76999664    0.76999998    2.71000004
   15.79138947  119.69400024    0.76999998    2.71000004
   15.79472256  128.09399414    0.75000000    2.73000002
   15.80055618  128.09399414    0.92000002    2.71000004
   15.80472279  111.45800018    1.44000006    2.67000008
   15.80805588  106.41899872    1.16999996    2.69000006
   15.81111145  116.28099823    1.23000002    2.71000004
   15.81444454  114.55599976    1.38000000    2.71000004
   15.81777763  114.48600006    1.60000002    2.69000006
   15.81861115  112.03500366    1.41999996    2.71000004
   15.82111073  117.43499756    1.23000002    2.71000004
   15.82444477  120.12400055    0.81999999    2.71000004
   15.82777786  118.70600128    0.73000002    2.73000002
   15.83083344  115.69699860    1.38000000    2.73000002
   15.83416653  116.04599762    1.13000000    2.73000002
   15.83749962  117.68299866    1.21000004    2.69000006
   15.84333324  117.68299866    1.23000002    2.71000004
   15.84749985  118.58399963    1.26999998    2.71000004
   15.85083389  114.55500031    1.01999998    2.71000004
   15.85194492  119.75599670    1.28999996    2.71000004
   15.85472298  120.01699829    1.48000002    2.69000006
   15.85777855  122.24900055    1.51999998    2.69000006
   15.86111164  121.63099670    1.39999998    2.71000004
   15.86416721  125.51200104    0.88000000    2.71000004
   15.86750031   99.27390289    0.88000000    2.71000004
   15.87083340  138.18099976    4.90999985    2.73000002
   15.87388897  136.96400452    4.90999985    1.33000004
   15.87722206  115.60700226    4.90999985    2.64000010
   15.88027763  119.94999695    0.63000000    2.73000002
   15.88638878  119.94999695    0.61000001    2.73000002
   15.89055538  110.70200348    0.61000001    2.73000002
   15.89361095  126.04000092    0.61000001    2.73000002
   15.89694405  122.01300049    0.64999998    2.73000002
   15.89999962  120.79199982    0.63000000    2.73000002
   15.90333271  118.49199677    0.67000002    2.73000002
   15.90666676  112.41500092    0.63000000    2.73000002
   15.90972137  108.93900299    0.63000000    2.73000002
   15.91305542  111.22200012    0.61000001    2.73000002
   15.91638851  110.70600128    0.61000001    2.73000002
   15.91861153  117.83499908    0.58999997    2.73000002
   15.92000008  119.84500122    0.58999997    2.73000002
   15.92305565  116.30799866    0.58999997    2.73000002
   15.92916679  116.30799866    0.61000001    2.73000002
   15.93333340  111.28199768    0.63000000    2.73000002
   15.93638897  112.78800201    0.61000001    2.73000002
   15.93972206  107.30300140    0.63000000    2.73000002
   15.94305515  115.25399780    0.63000000    2.73000002
   15.94611073  108.76399994    0.64999998    2.73000002
   15.94944477  107.08100128    0.64999998    2.73000002
   15.95194435  111.29199982    0.63000000    2.73000002
   15.95305538  113.61699677    0.63000000    2.73000002
   15.95638847  117.83200073    0.63000000    2.73000002
   15.95972157  118.43599701    0.63000000    2.73000002
   15.96277714  119.70500183    0.63000000    2.73000002
   15.96611118  126.92500305    0.61000001    2.73000002
   15.97194386  126.92500305    0.61000001    2.73000002
   15.97611046  120.50399780    0.61000001    2.73000002
   15.97944355  119.80300140    0.58999997    2.73000002
   15.98249912  111.85700226    0.61000001    2.73000002
   15.98527813  104.14399719    0.58999997    2.75000000
   15.98611164  111.73000336    0.58999997    2.75000000
   15.98944473  110.37500000    0.58999997    2.75000000
   15.99277782  118.17299652    0.61000001    2.75000000
   15.99583340  114.33999634    0.61000001    2.73000002
   15.99916649  115.18299866    0.58999997    2.73000002
   16.00250053  115.54499817    0.61000001    2.73000002
   16.00555611  117.35500336    0.58999997    2.73000002
   16.00888824  117.38400269    3.03999996    2.75000000
   16.01472282  117.38400269    0.67000002    2.76999998
   16.01888847  126.83699799    0.56999999    2.75000000
   16.02222252  117.30400085    0.58999997    2.73000002
   16.02555466  120.09200287    0.58999997    2.73000002
   16.02861023  114.34600067    0.58999997    2.73000002
   16.03194427  108.72899628    0.58999997    2.73000002
   16.03499985  118.80699921    0.64999998    2.73000002
   16.03833199  107.97899628    0.58999997    2.73000002
   16.04166603  119.86199951    0.56999999    2.73000002
   16.04472160  115.65399933    0.61000001    2.73000002
   16.04805565  107.26399994    0.81999999    2.73000002
   16.05138779  118.09799957    0.79000002    2.69000006
   16.05194283  114.42500305    0.79000002    2.69000006
   16.05777740  114.42500305    0.70999998    2.73000002
   16.06166649  116.01999664    0.61000001    2.73000002
   16.06499863  116.04699707    0.64999998    2.75000000
   16.06833458  111.88700104    4.90999985    2.82999992
   16.07139015   83.06279755    4.90999985    2.55999994
   16.07472229  108.41200256    4.90999985    2.82999992
   16.07805634  115.88999939    4.90999985    2.07999992
   16.08111191   96.85820007    4.90999985    1.46000004
   16.08444595  113.89299774    3.73000002    2.78999996
   16.08527756  117.54199982    1.61000001    2.78999996
   16.08805656  122.54399872    1.38000000    2.76999998
   16.09111214  112.00499725    1.63000000    2.76999998
   16.09444427  106.60800171    2.40000010    2.75000000
   16.10055542  106.60800171    4.90999985    2.86999989
   16.10472298   -1.00000000    4.90999985    1.28999996
   16.10777855   -1.00000000    4.90999985    0.25999999
   16.11111069   -1.00000000    4.90999985    0.23000000
   16.11444473   -1.00000000    4.90999985    0.20999999
   16.11750031  129.53100586    4.90999985    0.36000001
   16.11861038   90.52339935    4.90999985    0.31999999
   16.12138939   -1.00000000    4.90999985    1.63000000
   16.12444496   -1.00000000    4.90999985    0.63000000
   16.12777710   -1.00000000    4.90999985    1.85000002
   16.13083267  186.37300110    4.90999985    2.30999994
   16.13416672   91.53269958    4.90999985    2.80999994
   16.13750076  117.83000183    2.94000006    2.76999998
   16.14333344  117.83000183    0.61000001    2.73000002
   16.14749908   88.38819885    0.58999997    2.73000002
   16.15083313  120.21199799    0.56999999    2.73000002
   16.15194321  123.65499878    0.56999999    2.73000002
   16.15444374  107.14700317    0.55000001    2.73000002
   16.15749931   74.36979675    0.55000001    2.73000002
   16.16083336   95.30020142    0.55000001    2.73000002
   16.16388893  114.09600067    0.55000001    2.75000000
   16.16722107  117.79100037    0.55000001    2.73000002
   16.17055511  117.71299744    0.52999997    2.73000002
   16.17361069  107.39199829    0.52999997    2.73000002
   16.17694473  118.03700256    0.52999997    2.73000002
   16.18027687  112.95400238    0.55000001    2.73000002
   16.18610954  112.95400238    0.55000001    2.75000000
   16.19027710  118.11299896    0.56999999    2.73000002
   16.19361115  116.59200287    0.55000001    2.75000000
   16.19666672  118.07900238    0.55000001    2.73000002
   16.20000076  116.40499878    0.52999997    2.73000002
   16.20333481  114.43599701    0.52999997    2.75000000
   16.20639038  107.85500336    0.55000001    2.73000002
   16.20972252  126.82800293    0.55000001    2.73000002
   16.21305656  118.50000000    0.55000001    2.73000002
   16.21611214  117.68399811    0.55000001    2.73000002
   16.21861076  110.99900055    0.55000001    2.73000002
   16.22000122  111.70099640    0.56999999    2.73000002
   16.22305679  119.74099731    0.56999999    2.73000002
   16.22916794  119.74099731    0.56999999    2.73000002
   16.23305511  121.72699738    0.61000001    2.73000002
   16.23638916  110.61799622    0.63000000    2.73000002
   16.23972321  102.38200378    0.64999998    2.73000002
   16.24277878  114.28800201    0.63000000    2.73000002
   16.24611092  121.24700165    0.63000000    2.73000002
   16.24944496  120.45999908    0.63000000    2.73000002
   16.25194359  121.57800293    0.63000000    2.73000002
   16.25305557  119.12599945    3.05999994    2.73000002
   16.25611115   96.96379852    4.90999985    2.75000000
   16.25944519  108.58599854    4.90999985    2.66000009
   16.26250076  118.66600037    0.75000000    2.75000000
   16.26583290  110.52799988    0.64999998    2.73000002
   16.27194405  110.52799988    0.64999998    2.75000000
   16.27611160  111.65699768    0.64999998    2.73000002
   16.27916718  111.69699860    0.63000000    2.73000002
   16.28249931  102.06500244    0.61000001    2.73000002
   16.28527641  112.11900330    0.61000001    2.73000002
   16.28610992  116.90399933    0.63000000    2.73000002
   16.28944397  109.12899780    0.63000000    2.73000002
   16.29249954  121.08200073    0.61000001    2.73000002
   16.29583359  109.11299896    0.63000000    2.73000002
   16.29888916  106.34700012    0.63000000    2.73000002
   16.30222130  109.70500183    0.63000000    2.73000002
   16.30555534  110.57800293    0.61000001    2.75000000
   16.30861092  112.24299622    0.58999997    2.73000002
   16.31472206  112.24299622    0.56999999    2.73000002
   16.31888962   96.50370026    0.56999999    2.73000002
   16.32222366  111.42099762    0.56999999    2.73000002
   16.32527924  107.37799835    0.56999999    2.73000002
   16.32861137  102.33899689    0.58999997    2.73000002
   16.33166695   86.55139923    0.61000001    2.73000002
   16.33500099  114.45500183    0.61000001    2.73000002
   16.33833313  106.36100006    0.63000000    2.75000000
   16.34138870  110.28500366    0.61000001    2.75000000
   16.34472275  106.50599670    0.61000001    2.73000002
   16.34805679  113.62599945    0.58999997    2.73000002
   16.35111237  109.67900085    0.58999997    2.75000000
   16.35194397  107.01899719    0.58999997    2.73000002
   16.35750008  107.01899719    0.58999997    2.75000000
   16.36166763  105.48699951    0.69000000    2.73000002
   16.36499977  108.02999878    2.15000010    2.71000004
   16.36805534  105.85399628    1.98000002    2.71000004
   16.37138939  111.32199860    2.55999994    2.69000006
   16.37472153  104.99800110    2.91000009    2.71000004
   16.37777710  116.99299622    2.15000010    2.73000002
   16.38111115  121.02400208    2.17000008    2.71000004
   16.38444519  123.24400330    3.53999996    2.69000006
   16.38527679  123.12000275    4.17999983    2.57999992
   16.38805580  313.77499390    4.90999985    2.66000009
   16.38999939  115.37500000    4.90999985    1.83000004
   16.38999939  105.48699951    0.69000000    2.73000002
   16.39027786  108.02999878    2.15000010    2.71000004
   16.39027786  105.85399628    1.98000002    2.71000004
   16.39027786  111.32199860    2.55999994    2.69000006
   16.39055634  104.99800110    2.91000009    2.71000004
   16.39055634  116.99299622    2.15000010    2.73000002
   16.39055634  121.02400208    2.17000008    2.71000004
   16.39083290  123.24400330    3.53999996    2.69000006
   16.39277840  113.66999817    4.90999985    2.64000010
   16.39583397  125.13800049    4.09999990    2.64000010
   16.39916611  117.78900146    2.17000008    2.69000006
   16.40250015  118.22899628    0.92000002    2.73000002
   16.40555573  111.35800171    1.05999994    2.73000002
   16.41083336  111.35800171    0.61000001    2.73000002
   16.41499901  112.76499939    0.63000000    2.75000000
   16.41805458  104.32800293    0.61000001    2.73000002
   16.42138863  112.38300323    0.61000001    2.73000002
   16.42388916  111.78500366    0.56999999    2.73000002
   16.42527771  114.59600067    0.56999999    2.75000000
   16.42833328  112.50599670    0.56999999    2.73000002
   16.43166542  112.23300171    0.55000001    2.73000002
   16.43472099  120.55699921    0.55000001    2.75000000
   16.43805504  114.40799713    0.55000001    2.73000002
   16.44138718  119.18099976    0.56999999    2.73000002
   16.44444275  118.03099823    0.58999997    2.73000002
   16.44777679  112.84899902    0.58999997    2.73000002
   16.45361137  112.84899902    0.58999997    2.75000000
   16.45777893   97.38349915    0.56999999    2.73000002
   16.46111107  113.89399719    0.56999999    2.75000000
   16.46416664  116.03600311    0.56999999    2.73000002
   16.46750069  126.08200073    0.56999999    2.75000000
   16.47083473  119.02400208    0.56999999    2.75000000
   16.47416687  116.94000244    0.56999999    2.75000000
   16.47722244  120.13899994    0.56999999    2.75000000
   16.48055649  118.21199799    0.56999999    2.75000000
   16.48361206  109.02200317    0.58999997    2.75000000
   16.48694420  112.89099884    0.58999997    2.75000000
   16.49027824  107.88200378    0.61000001    2.73000002
   16.49083328  107.16200256    0.58999997    2.73000002
   16.49638939  107.16200256    0.61000001    2.73000002
   16.50055504  117.08799744    0.61000001    2.73000002
   16.50388908  113.65499878    0.63000000    2.73000002
   16.50722313  125.34799957    0.63000000    2.73000002
   16.51027870  117.40899658    0.63000000    2.73000002
   16.51361084  121.07700348    0.63000000    2.73000002
   16.51666641  113.32099915    0.63000000    2.73000002
   16.52000046  117.16200256    0.67000002    2.73000002
   16.52333260  116.04199982    0.64999998    2.73000002
   16.52416611  112.86299896    0.67000002    2.75000000
   16.52666664  119.08300018    0.80000001    2.73000002
   16.53000069  122.25800323    0.67000002    2.73000002
   16.53333282  111.67900085    0.67000002    2.73000002
   16.53944397  111.67900085    0.64999998    2.73000002
   16.54361153  110.64099884    0.61000001    2.73000002
   16.54666710  103.41699982    0.61000001    2.73000002
   16.54999924  106.83399963    0.61000001    2.75000000
   16.55305481  115.47200012    0.61000001    2.75000000
   16.55638885  114.34200287    0.58999997    2.75000000
   16.55749893  112.52899933    0.58999997    2.75000000
   16.55999947  106.77400208    0.55000001    2.75000000
   16.56333351  107.88099670    0.55000001    2.73000002
   16.56666756  111.25599670    0.56999999    2.73000002
   16.56972313  118.90699768    0.56999999    2.75000000
   16.57305717  115.55400085    0.58999997    2.73000002
   16.57611275  120.73200226    0.61000001    2.73000002
   16.58222389  120.73200226    0.58999997    2.75000000
   16.58638954  110.70600128    0.61000001    2.75000000
   16.58944511  117.20400238    0.63000000    2.73000002
   16.59083366  111.17500305    0.63000000    2.73000002
   16.59305573  116.19899750    0.61000001    2.75000000
   16.59638977  118.88200378    0.61000001    2.75000000
   16.59972191  122.23400116    0.61000001    2.73000002
   16.60277748  114.94200134    0.61000001    2.75000000
   16.60611153  104.04900360    0.58999997    2.75000000
   16.60916710  108.37599945    0.61000001    2.73000002
   16.61250114  117.72100067    0.63000000    2.73000002
   16.61583328  112.69999695    0.61000001    2.73000002
   16.61888885  105.32199860    0.61000001    2.73000002
   16.62500000  105.32199860    0.61000001    2.73000002
   16.62916756  116.05400085    0.58999997    2.75000000
   16.63249969  114.26999664    0.58999997    2.73000002
   16.63555527   97.51360321    0.63000000    2.75000000
   16.63888931   92.20809937    0.70999998    2.73000002
   16.64222145  127.13999939    2.84999990    2.69000006
   16.64527702  108.55699921    1.61000001    2.71000004
   16.64861107  115.85399628    1.13000000    2.71000004
   16.65194321  112.48000336    1.00000000    2.73000002
   16.66888809  153.45899963    4.90999985    2.55999994
   16.67305565  153.45899963    4.90999985    2.57999992
   16.67722130  109.91200256    4.90999985    2.71000004
   16.68027687  111.41600037    4.90999985    2.67000008
   16.68361092  118.14299774    2.25000000    2.73000002
   16.68694305  115.60399628    2.32999992    2.75000000
   16.68999863  121.79900360    0.98000002    2.73000002
   16.69333267  121.77899933    1.03999996    2.75000000
   16.69638824  107.67500305    1.09000003    2.75000000
   16.69972038  101.73200226    4.90999985    2.78999996
   16.70222282  116.17500305    4.90999985    2.82999992
   16.70333481  227.58000183    4.90999985    2.64000010
   16.70666695  102.81300354    4.90999985    2.48000002
   16.70972252  112.32900238    4.90999985    2.67000008
   16.71583366  112.32900238    4.90999985    2.69000006
   16.72000122  121.34700012    4.90999985    2.66000009
   16.72333336  114.41500092    4.90999985    2.46000004
   16.72638893  119.91699982    4.90999985    2.51999998
   16.72972298  105.59100342    4.90999985    2.64000010
   16.73277855  119.79499817    4.90999985    2.66000009
   16.73555565  126.88800049    4.90999985    2.64000010
   16.73638916  111.58799744    4.90999985    2.64000010
   16.73972321  124.69300079    4.90999985    2.64000010
   16.74305534  113.34300232    4.90999985    2.66000009
   16.74611092  114.36299896    4.90999985    2.66000009
   16.74944496  122.47899628    4.90999985    2.64000010
   16.75250053  127.89600372    4.90999985    2.64000010
   16.76277733   -1.00000000    4.90999985    0.81999999
   16.76583290  150.34599304    4.90999985    1.36000001
   16.76888847  122.74900055    4.90999985    2.36999989
   16.76944351  133.57499695    4.90999985    2.53999996
   16.77277756  122.96299744    4.90999985    2.59999990
   16.77611160  127.58000183    4.90999985    2.66000009
   16.77916718  130.35200500    4.90999985    2.61999989
   16.78249931  123.19999695    4.90999985    2.64000010
   16.78555489  117.64700317    4.90999985    2.61999989
   16.78888893  139.14399719    4.90999985    2.53999996
   16.79222107  128.76100159    4.90999985    2.57999992
   16.79527664  133.43200684    4.90999985    2.59999990
   16.80166626  133.43200684    3.45000005    2.67000008
   16.80555534  122.32800293    2.09999990    2.69000006
   16.80888748  122.52200317    2.03999996    2.71000004
   16.81222153  133.30099487    2.78999996    2.69000006
   16.81527710  122.02200317    2.86999989    2.69000006
   16.81861115  126.55599976    3.28999996    2.67000008
   16.82194519  128.33700562    2.86999989    2.67000008
   16.82500076  121.45600128    2.94000006    2.67000008
   16.82833481  114.63099670    3.73000002    2.69000006
   16.83139038  129.99899292    4.57999992    2.71000004
   16.83472252  129.29100037    4.38999987    2.67000008
   16.83666801  125.54399872    4.01999998    2.64000010
   16.83833313  119.58699799    3.66000009    2.66000009
   16.84444427  119.58699799    2.80999994    2.71000004
   16.84861183  121.57700348    3.11999989    2.71000004
   16.85166740  131.05200195    4.90999985    2.75000000
   16.85499954  126.08300018    4.53999996    2.75000000
   16.85805511  127.75399780    4.90999985    2.64000010
   16.86138916  124.71099854    4.00000000    2.71000004
   16.86472321  126.35800171    2.28999996    2.69000006
   16.86777878  120.49199677    1.48000002    2.71000004
   16.87000084  120.28900146    1.16999996    2.71000004
   16.87138939  122.32700348    1.05999994    2.71000004
   16.87472153  129.44500732    0.79000002    2.73000002
   16.87805557  120.38899994    0.70999998    2.71000004
   16.88111115  126.55599976    0.67000002    2.73000002
   16.88722229  126.55599976    0.69000000    2.71000004
   16.89138794  115.76599884    0.75000000    2.73000002
   16.89444351  120.55699921    0.69000000    2.73000002
   16.89777756  118.60199738    0.69000000    2.73000002
   16.90111160  124.84600067    0.64999998    2.73000002
   16.90333366  114.15599823    0.63000000    2.73000002
   16.90472221  122.03099823    0.63000000    2.73000002
   16.90805435  123.92199707    0.63000000    2.73000002
   16.91138840  125.30599976    0.63000000    2.73000002
   16.91444397  129.65600586    0.61000001    2.73000002
   16.91777802  116.70999908    0.58999997    2.73000002
   16.92083359  122.64099884    0.61000001    2.73000002
   16.92416573  115.44200134    0.61000001    2.73000002
   16.93000031  115.44200134    0.61000001    2.73000002
   16.93416595  122.85099792    0.61000001    2.73000002
   16.93666649  131.38099670    0.58999997    2.73000002
   16.93777657  118.70200348    0.58999997    2.73000002
   16.94111061  121.30000305    0.58999997    2.75000000
   16.94416618  122.75900269    0.61000001    2.73000002
   16.94749832  124.65899658    0.58999997    2.71000004
   16.95083427  115.43199921    0.58999997    2.73000002
   16.95388985  120.43499756    0.61000001    2.73000002
   16.95722389  122.88400269    0.58999997    2.73000002
   16.96027946  120.11699677    0.58999997    2.73000002
   16.96361160  116.41200256    0.58999997    2.73000002
   16.96694565  112.88700104    0.58999997    2.73000002
   16.97277832  112.88700104    0.64999998    2.71000004
   16.97694588  111.10600281    0.69000000    2.71000004
   16.98027802  121.86799622    0.73000002    2.71000004
   16.98361206  121.54199982    0.76999998    2.71000004
   16.98666763   99.09739685    0.92000002    2.71000004
   16.98999977  115.06999969    0.89999998    2.71000004
   16.99333382  126.12300110    0.89999998    2.71000004
   16.99638939  117.04399872    0.81999999    2.73000002
   16.99972153  115.01499939    0.81999999    2.71000004
   17.00305557  119.03399658    1.00000000    2.71000004
   17.00388908  122.14199829    1.00000000    2.71000004
   17.00638962  127.53199768    0.88000000    2.71000004
   17.00972176  115.32700348    0.94000000    2.73000002
   17.01583290  115.32700348    4.90999985    2.75000000
   17.02000046  118.11100006    1.13000000    2.71000004
   17.02305603  117.88700104    0.89999998    2.73000002
   17.02638817  122.26200104    0.92000002    2.71000004
   17.02944374  122.04799652    0.88000000    2.73000002
   17.03277779  124.64600372    0.86000001    2.71000004
   17.03610992  116.62599945    0.86000001    2.71000004
   17.03722191  119.77700043    0.86000001    2.71000004
   17.03944397  109.47399902    0.86000001    2.71000004
   17.04277802  115.53299713    0.86000001    2.71000004
   17.04611015  120.22399902    0.80000001    2.73000002
   17.04916573  113.43000031    0.80000001    2.71000004
   17.05249977  125.37200165    0.80000001    2.73000002
   17.05861092  125.37200165    0.79000002    2.73000002
   17.06277657  121.77600098    0.80000001    2.71000004
   17.06583214  112.64099884    0.76999998    2.71000004
   17.06916809  109.88300323    0.76999998    2.71000004
   17.07055664  116.72899628    0.76999998    2.73000002
   17.07277870  119.49800110    0.76999998    2.73000002
   17.07611275  115.49400330    0.79000002    2.73000002
   17.07916832  118.58799744    0.76999998    2.73000002
   17.08250046   83.34339905    0.80000001    2.71000004
   17.08583450   96.39939880    0.80000001    2.71000004
   17.08889008  104.08899689    0.81999999    2.73000002
   17.09222221   83.67859650    0.81999999    2.71000004
   17.09527779  105.85800171    0.83999997    2.71000004
   17.10138893  105.85800171    0.81999999    2.71000004
   17.10555649   89.87039948    0.79000002    2.73000002
   17.10888863   92.26550293    0.79000002    2.73000002
   17.11194420   74.43650055    0.80000001    2.71000004
   17.11527824  102.56300354    0.81999999    2.71000004
   17.11861038  106.75599670    0.88000000    2.71000004
   17.12166595   99.30460358    0.89999998    2.71000004
   17.12500000  120.14600372    0.92000002    2.71000004
   17.12833405  110.25800323    0.94000000    2.71000004
   17.13138962  109.85399628    0.94000000    2.71000004
   17.13472176   87.36000061    1.03999996    2.71000004
   17.13750076  112.31800079    1.11000001    2.71000004
   17.13861084  116.02500153    1.11000001    2.71000004
   17.14416695  116.02500153    1.14999998    2.71000004
   17.14833260  103.33200073    1.23000002    2.71000004
   17.15166664  129.77699280    1.26999998    2.71000004
   17.15499878  131.92199707    1.36000001    2.71000004
   17.15805435  123.23100281    1.30999994    2.71000004
   17.16138840  116.95800018    1.28999996    2.71000004
   17.16444397  123.12999725    1.30999994    2.71000004
   17.16777802  118.82700348    1.30999994    2.71000004
   17.17083359   91.55249786    1.28999996    2.71000004
   17.17138863  113.79199982    1.28999996    2.71000004
   17.17472076  115.51799774    1.26999998    2.71000004
   17.17805481  109.69200134    1.28999996    2.71000004
   17.18138885   -1.00000000    4.90999985    2.78999996
   17.19111061   -1.00000000    4.90999985    0.13000000
   17.19444275   -1.00000000    4.57999992    0.03000000
   17.19749832   -1.00000000    0.80000001    0.01000000
   17.20083427   -1.00000000    0.80000001    0.01000000
   17.20444489   -1.00000000    0.80000001    0.01000000
   17.20750046   -1.00000000    0.80000001    0.01000000
   17.21083450   -1.00000000    0.80000001    0.01000000
   17.21416664   -1.00000000    0.80000001    0.01000000
   17.21722221   -1.00000000    0.80000001    0.01000000
   17.22055626   -1.00000000    4.65999985    0.03000000
   17.22389030   -1.00000000    4.90999985    0.09000000
   17.23416710   -1.00000000    2.32999992    2.71000004
   17.23722267   -1.00000000    1.34000003    2.69000006
   17.24083328   -1.00000000    1.23000002    2.69000006
   17.24416733   -1.00000000    1.16999996    2.69000006
   17.24749947   -1.00000000    1.13000000    2.69000006
   17.25055504   -1.00000000    1.13000000    2.69000006
   17.25388908   -1.00000000    1.89999998    2.71000004
   17.25722313   -1.00000000    4.90999985    2.78999996
   17.26027870   -1.00000000    4.90999985    2.57999992
   17.26361084   -1.00000000    4.90999985    0.17000000
   17.26666641   -1.00000000    4.90999985    0.03000000
   17.27694511   -1.00000000    1.80999994    0.01000000
   17.28000069   -1.00000000    2.78999996    0.01000000
   17.28333282   -1.00000000    4.61999989    0.01000000
   17.28666687   -1.00000000    4.90999985    0.05000000
   17.28972244   -1.00000000    4.90999985    0.11000000
   17.29305458   -1.00000000    4.90999985    0.25000000
   17.29611015   -1.00000000    4.90999985    0.34000000
   17.29944420   -1.00000000    4.90999985    0.19000000
   17.30277634   -1.00000000    4.90999985    0.23000000
   17.30611038   -1.00000000    4.90999985    0.36000001
   17.30944443   -1.00000000    4.90999985    1.41999996
   17.31972313   -1.00000000    4.90999985    2.30999994
   17.32305717   -1.00000000    4.90999985    2.66000009
   17.32611275   -1.00000000    4.90999985    2.75000000
   17.32944489   -1.00000000    2.28999996    2.73000002
   17.33250046   -1.00000000    1.41999996    2.69000006
   17.33583450   -1.00000000    1.44000006    2.69000006
   17.33916664   -1.00000000    1.83000004    2.69000006
   17.34250069   -1.00000000    2.67000008    2.69000006
   17.34583473   -1.00000000    1.75000000    2.69000006
   17.34889030   -1.00000000    2.00000000    2.69000006
   17.35222244   -1.00000000    1.19000006    2.67000008
   17.36250114   -1.00000000    1.09000003    2.67000008
   17.36583328   -1.00000000    0.98000002    2.67000008
   17.36888885   -1.00000000    0.98000002    2.69000006
   17.37277794   -1.00000000    0.95999998    2.67000008
   17.37583351   -1.00000000    0.94000000    2.69000006
   17.37916756   -1.00000000    0.94000000    2.69000006
   17.38249969   -1.00000000    0.89999998    2.69000006
   17.38555527   -1.00000000    0.89999998    2.67000008
   17.38888931   -1.00000000    0.95999998    2.67000008
   17.39194489   -1.00000000    0.95999998    2.69000006
   17.39527702   -1.00000000    0.94000000    2.69000006
   17.40527725   -1.00000000    0.83999997    2.69000006
   17.40861130   -1.00000000    0.81999999    2.69000006
   17.41194344   -1.00000000    0.79000002    2.69000006
   17.41499901   -1.00000000    0.79000002    2.69000006
   17.41833305   -1.00000000    0.79000002    2.69000006
   17.42166519   -1.00000000    0.80000001    2.69000006
   17.42472076   -1.00000000    0.81999999    2.69000006
   17.42805481   -1.00000000    0.81999999    2.67000008
   17.43111038   -1.00000000    0.81999999    2.69000006
   17.43444443   -1.00000000    0.81999999    2.69000006
   17.43777657   -1.00000000    0.80000001    2.69000006
   17.44833183   -1.00000000    0.83999997    2.69000006
   17.45138931   -1.00000000    0.81999999    2.67000008
   17.45472336   -1.00000000    0.79000002    2.67000008
   17.45805550   -1.00000000    0.76999998    2.67000008
   17.46111107   -1.00000000    0.76999998    2.67000008
   17.46444511   -1.00000000    0.76999998    2.67000008
   17.46750069   -1.00000000    0.75000000    2.67000008
   17.47083473   -1.00000000    0.75000000    2.67000008
   17.47444534   -1.00000000    0.75000000    2.67000008
   17.47777748   -1.00000000    0.75000000    2.67000008
   17.48083305   -1.00000000    0.76999998    2.67000008
   17.49111176   -1.00000000    0.80000001    2.67000008
   17.49444389   -1.00000000    0.80000001    2.67000008
   17.49749947   -1.00000000    0.80000001    2.67000008
   17.50083351   -1.00000000    0.80000001    2.67000008
   17.50388908   -1.00000000    0.80000001    2.67000008
   17.50749969   -1.00000000    0.80000001    2.67000008
   17.51083374   -1.00000000    0.80000001    2.67000008
   17.51388931   -1.00000000    0.80000001    2.67000008
   17.51722145   -1.00000000    0.81999999    2.67000008
   17.52027702   -1.00000000    0.79000002    2.67000008
   17.52361107   -1.00000000    0.79000002    2.67000008
   17.53388786   -1.00000000    0.76999998    2.67000008
   17.53722191   -1.00000000    0.80000001    2.67000008
   17.53833199   72.04149628    0.80000001    2.67000008
   17.54083252   81.87950134    0.80000001    2.67000008
   17.54416656  108.01300049    0.79000002    2.67000008
   17.54749870  121.24900055    0.80000001    2.69000006
   17.55055428  113.99400330    0.80000001    2.67000008
   17.55388832  126.42199707    0.80000001    2.67000008
   17.55694389  129.95700073    0.80000001    2.66000009
   17.56027794  132.13499451    0.80000001    2.66000009
   17.56361008  123.19599915    0.81999999    2.67000008
   17.56666756  109.99600220    0.83999997    2.67000008
   17.57277870  109.99600220    1.16999996    2.67000008
   17.57694626  121.82599640    1.05999994    2.66000009
   17.58000183  121.12799835    1.05999994    2.67000008
   17.58333397  127.58300018    0.86000001    2.67000008
   17.58666801  119.96199799    0.86000001    2.67000008
   17.58972359  132.57600403    0.86000001    2.67000008
   17.59305573  121.27100372    0.86000001    2.67000008
   17.59638977  121.66899872    0.86000001    2.67000008
   17.59944534  136.20500183    0.83999997    2.67000008
   17.60277748  120.03500366    0.83999997    2.67000008
   17.60499954  123.91500092    0.81999999    2.67000008
   17.60639000  117.03800201    0.79000002    2.67000008
   17.60972214  129.76800537    0.76999998    2.67000008
   17.61555672  129.76800537    0.76999998    2.66000009
   17.61972237  127.63899994    0.76999998    2.67000008
   17.62305641  118.57199860    0.79000002    2.67000008
   17.62611198   75.35820007    0.76999998    2.67000008
   17.62944412  104.38200378    0.76999998    2.67000008
   17.63249969  108.75399780    0.76999998    2.67000008
   17.63583374  123.74400330    0.75000000    2.67000008
   17.63833237  120.13800049    0.76999998    2.67000008
   17.63944435  123.36100006    0.76999998    2.67000008
   17.64277840  128.12199402    0.76999998    2.67000008
   17.64611053  126.30899811    0.75000000    2.67000008
   17.64916611  112.18000031    0.75000000    2.67000008
   17.65250015  121.44000244    0.76999998    2.67000008
   17.65833282  121.44000244    0.76999998    2.67000008
   17.66250038  136.04200745    0.76999998    2.67000008
   17.66583252  131.31300354    0.76999998    2.67000008
   17.66888809  130.97200012    0.76999998    2.67000008
   17.68610954  125.75000000    0.73000002    2.67000008
   17.68916512  130.78399658    0.73000002    2.67000008
   17.69249916  123.08999634    0.75000000    2.67000008
   17.69555473  116.48999786    0.73000002    2.66000009
   17.70138931  116.48999786    0.70999998    2.66000009
   17.70555687  128.52900696    0.70999998    2.66000009
   17.70888901  122.66200256    0.70999998    2.67000008
   17.71194458  129.13699341    0.70999998    2.67000008
   17.71527863  130.15899658    0.70999998    2.67000008
   17.71861076  114.59100342    0.70999998    2.67000008
   17.71944427  126.26799774    0.70999998    2.67000008
   17.72194481  129.19000244    0.67000002    2.66000009
   17.72527885  131.77299500    0.67000002    2.66000009
   17.72861099  138.20399475    0.67000002    2.67000008
   17.73166656  105.09200287    0.67000002    2.67000008
   17.73500061  132.12800598    0.69000000    2.67000008
   17.73805618  132.18499756    0.70999998    2.67000008
   17.74444389  132.18499756    0.69000000    2.67000008
   17.74833298  121.66100311    0.67000002    2.67000008
   17.75166702  134.75999451    0.67000002    2.66000009
   17.75277710  111.46800232    0.67000002    2.67000008
   17.75527763  112.79599762    0.67000002    2.67000008
   17.75861168  121.27700043    0.69000000    2.67000008
   17.76194382  123.36000061    0.70999998    2.66000009
   17.76499939  133.20599365    0.67000002    2.66000009
   17.76833344  100.65399933    0.67000002    2.66000009
   17.77166557  125.62699890    0.67000002    2.66000009
   17.77472115  111.81900024    0.67000002    2.67000008
   17.77805519  124.02600098    0.67000002    2.66000009
   17.78111076  134.45199585    0.64999998    2.66000009
   17.78722191  134.45199585    0.67000002    2.66000009
   17.79138756  125.78600311    0.67000002    2.67000008
   17.79444313  110.66899872    0.64999998    2.66000009
   17.79777718  122.52500153    0.67000002    2.67000008
   17.80111122  121.84799957    0.64999998    2.67000008
   17.80416679  121.89199829    0.64999998    2.66000009
   17.80749893  119.44300079    0.64999998    2.67000008
   17.81055450  130.36500549    0.64999998    2.66000009
   17.81388855  119.41300201    0.63000000    2.67000008
   17.81722260  123.22599792    0.67000002    2.66000009
   17.81944466  131.02400208    0.67000002    2.66000009
   17.82083511  125.40699768    0.67000002    2.66000009
   17.82416725  119.28199768    0.67000002    2.66000009
   17.83000183  119.28199768    0.64999998    2.67000008
   17.83416748  124.11499786    0.64999998    2.67000008
   17.83750153  115.58499908    0.64999998    2.66000009
   17.84055710  122.30100250    0.67000002    2.66000009
   17.84388924  112.72499847    0.64999998    2.67000008
   17.84694481  122.61900330    0.64999998    2.67000008
   17.85027885  129.89700317    0.64999998    2.67000008
   17.85277748  127.78800201    0.64999998    2.66000009
   17.85388947  132.34899902    0.64999998    2.66000009
   17.85722351  112.15899658    0.64999998    2.66000009
   17.86055565  108.30100250    0.63000000    2.66000009
   17.86361122  127.72399902    0.64999998    2.66000009
   17.86694527  114.11199951    0.64999998    2.66000009
   17.87277794  114.11199951    0.63000000    2.66000009
   17.87694550  125.18099976    0.63000000    2.66000009
   17.88027763  119.89800262    0.63000000    2.66000009
   17.88333321  123.15599823    0.63000000    2.66000009
   17.88611031  124.45400238    0.67000002    2.66000009
   17.88694382  125.46700287    0.64999998    2.66000009
   17.89027786  122.84100342    0.67000002    2.66000009
   17.89361191  124.78399658    0.67000002    2.66000009
   17.89666748  131.37600708    0.67000002    2.66000009
   17.89999962  125.23500061    0.64999998    2.66000009
   17.90305519  125.15899658    0.64999998    2.67000008
   17.90638924  125.48500061    0.67000002    2.67000008
   17.90972137  130.55499268    0.64999998    2.67000008
   17.91583252  130.55499268    0.64999998    2.66000009
   17.91972160  125.04000092    0.64999998    2.67000008
   17.92305565  123.50199890    0.67000002    2.66000009
   17.92638779  123.50299835    0.64999998    2.66000009
   17.92944336  120.92199707    0.67000002    2.67000008
   17.93277740  120.09999847    0.69000000    2.66000009
   17.93610954  121.67900085    0.69000000    2.66000009
   17.93916512  129.12600708    0.69000000    2.66000009
   17.94249916  127.95300293    0.67000002    2.66000009
   17.94555473  122.06800079    0.69000000    2.66000009
   17.94888878  119.00399780    0.69000000    2.64000010
   17.95222282  123.81500244    0.70999998    2.66000009
   17.95277786  112.03600311    0.70999998    2.66000009
   17.95861244  112.03600311    0.70999998    2.66000009
   17.96277809  128.03399658    0.69000000    2.66000009
   17.96583366  119.50499725    0.70999998    2.66000009
   17.96916771  123.00800323    0.70999998    2.66000009
   17.97249985  119.60800171    0.70999998    2.66000009
   17.97555542  123.66999817    0.73000002    2.66000009
   17.97888947  118.36499786    0.70999998    2.67000008
   17.98194504  117.00099945    0.70999998    2.66000009
   17.98527718  123.80300140    0.89999998    2.67000008
   17.98611069  122.93399811    0.89999998    2.67000008
   17.98888969  120.98899841    0.98000002    2.66000009
   17.99222183  116.96299744    0.83999997    2.66000009
   17.99555588  102.44100189    0.76999998    2.66000009
   18.00138855  102.44100189    0.75000000    2.66000009
   18.00555611  103.05400085    0.76999998    2.66000009
   18.00888824  111.68499756    0.79000002    2.66000009
   18.01194382  123.55400085    0.79000002    2.66000009
   18.01527786  116.01599884    0.79000002    2.66000009
   18.01833344  124.59400177    0.76999998    2.66000009
   18.01944351  124.33399963    0.76999998    2.67000008
   18.02194405  114.63899994    0.76999998    2.66000009
   18.02527809  114.40599823    0.79000002    2.66000009
   18.02861023  124.09999847    0.76999998    2.66000009
   18.03166580  123.51699829    0.76999998    2.66000009
   18.03499985  113.17299652    0.76999998    2.66000009
   18.03833199  125.93599701    0.75000000    2.66000009
   18.04416656  125.93599701    0.75000000    2.64000010
   18.04833221  121.73200226    0.75000000    2.66000009
   18.05166626  117.23500061    0.73000002    2.66000009
   18.05277634  122.40899658    0.73000002    2.66000009
   18.05499840  111.61199951    0.73000002    2.66000009
   18.05833244  122.42600250    0.73000002    2.66000009
   18.06166649  126.71700287    0.73000002    2.66000009
   18.06472206  120.54299927    0.73000002    2.64000010
   18.06805611  117.90399933    0.73000002    2.66000009
   18.07139015  120.55999756    0.73000002    2.66000009
   18.07444572  111.92099762    0.73000002    2.66000009
   18.07777786   94.70249939    0.73000002    2.66000009
   18.08083344  114.20400238    0.75000000    2.66000009
   18.08722305  114.20400238    0.81999999    2.66000009
   18.09111214  124.27999878    0.88000000    2.66000009
   18.09444427  120.37699890    0.89999998    2.66000009
   18.09777832  124.97299957    0.92000002    2.67000008
   18.10083389  118.38700104    0.92000002    2.66000009
   18.10416794  118.88099670    0.92000002    2.66000009
   18.10750008  111.07900238    0.92000002    2.66000009
   18.11055565  118.35399628    0.89999998    2.66000009
   18.11388969  115.82800293    0.88000000    2.64000010
   18.11722183  114.41400146    0.89999998    2.64000010
   18.11944389  123.70400238    0.89999998    2.64000010
   18.12055588  124.66000366    0.88000000    2.64000010
   18.12388992  119.98500061    0.88000000    2.66000009
   18.13000107  119.98500061    0.88000000    2.66000009
   18.13416672  120.03600311    0.88000000    2.66000009
   18.13722229  123.10700226    0.83999997    2.66000009
   18.14055634  118.27899933    0.80000001    2.64000010
   18.14388847  115.02700043    0.80000001    2.64000010
   18.14694405  120.24299622    0.80000001    2.66000009
   18.15027809  115.66500092    0.81999999    2.64000010
   18.15277672  120.85600281    0.81999999    2.66000009
   18.15361023  116.99900055    0.81999999    2.66000009
   18.15694427  121.92199707    0.81999999    2.66000009
   18.16027832  118.15299988    0.83999997    2.66000009
   18.16333389  120.13099670    0.86000001    2.66000009
   18.16666603  121.62000275    0.83999997    2.64000010
   18.17277718  121.62000275    0.86000001    2.66000009
   18.17694473  109.56300354    0.89999998    2.66000009
   18.18027687  114.66300201    0.92000002    2.66000009
   18.18333244  119.13600159    0.92000002    2.66000009
   18.18610954  122.43399811    0.89999998    2.64000010
   18.18694305  121.12799835    0.92000002    2.64000010
   18.19027710  116.48799896    0.94000000    2.64000010
   18.19361115  113.96099854    0.95999998    2.66000009
   18.19666672  116.65100098    0.95999998    2.64000010
   18.20000076  123.65799713    0.95999998    2.64000010
   18.20333481  117.08200073    0.95999998    2.66000009
   18.20639038  111.26000214    0.98000002    2.64000010
   18.20972252  119.84400177    1.00000000    2.66000009
   18.21555710  119.84400177    1.01999998    2.66000009
   18.21972275  121.38400269    1.01999998    2.66000009
   18.22305679  116.08000183    1.03999996    2.64000010
   18.22611237  122.56600189    1.03999996    2.64000010
   18.22944450  122.67900085    1.03999996    2.64000010
   18.23277855  119.76200104    1.03999996    2.64000010
   18.23583412  117.87000275    1.03999996    2.64000010
   18.23916626  122.40599823    1.03999996    2.64000010
   18.24250031  121.93599701    1.03999996    2.64000010
   18.24583435  122.12000275    1.03999996    2.66000009
   18.24888992  111.25199890    1.03999996    2.64000010
   18.25222206  115.85299683    1.05999994    2.64000010
   18.25277710  115.22699738    1.05999994    2.64000010
   18.25861168  115.22699738    1.16999996    2.64000010
   18.26250076  122.58399963    1.11000001    2.64000010
   18.26583290  119.60099792    1.19000006    2.66000009
   18.26916695  114.15200043    1.19000006    2.66000009
   18.27222252  107.98100281    1.30999994    2.66000009
   18.27555466  112.05500031    4.90999985    2.67000008
   18.27888870  130.72099304    4.90999985    2.30999994
   18.28194427  105.91200256    4.90999985    1.85000002
   18.28527641  191.56199646    4.90999985    2.51999998
   18.28610992  207.57000732    4.90999985    2.51999998
   18.28916550  226.56799316    4.90999985    1.83000004
   18.29222107  111.00399780    4.90999985    2.05999994
   18.29555511  120.54799652    4.90999985    2.53999996
   18.30138779  120.54799652    4.90999985    2.53999996
   18.30555534  124.60900116    4.90999985    2.61999989
   18.30861092  118.06300354    3.09999990    2.66000009
   18.31194305  114.77400208    1.41999996    2.64000010
   18.31527710  118.16000366    1.16999996    2.64000010
   18.31833458  117.35099792    1.03999996    2.64000010
   18.31944466  113.81199646    1.03999996    2.64000010
   18.32222366  114.39800262    1.03999996    2.64000010
   18.32527924  114.01499939    1.05999994    2.64000010
   18.32861137  115.20800018    1.05999994    2.66000009
   18.33166695  115.56700134    1.03999996    2.64000010
   18.33500099  108.29599762    1.01999998    2.64000010
   18.33833313  108.41000366    1.00000000    2.66000009
   18.34416771  108.41000366    0.95999998    2.66000009
   18.34833336  108.40699768    0.94000000    2.64000010
   18.35166740  109.76399994    0.94000000    2.64000010
   18.35277748  109.01899719    0.94000000    2.64000010
   18.35527802  109.33100128    0.94000000    2.64000010
   18.35833359  111.42800140    1.00000000    2.66000009
   18.36166763  104.85900116    1.01999998    2.66000009
   18.36499977  114.79199982    1.01999998    2.66000009
   18.36805534  105.09600067    1.05999994    2.66000009
   18.37138939  107.33300018    1.03999996    2.66000009
   18.37472153  103.56099701    1.07000005    2.66000009
   18.37777710  115.43299866    1.09000003    2.66000009
   18.38111115  116.41500092    1.09000003    2.66000009
   18.38694382  116.41500092    4.90999985    2.67000008
   18.39111137  110.19899750    4.90999985    2.46000004
   18.39444351  104.68499756    4.90999985    2.64000010
   18.39749908  108.54900360    2.11999989    2.67000008
   18.40083313  105.74400330    1.11000001    2.66000009
   18.40416718  104.24199677    1.07000005    2.66000009
   18.40722275  101.22499847    1.07000005    2.66000009
   18.41055489  114.56999969    1.23000002    2.66000009
   18.41388893  114.55100250    1.38000000    2.66000009
   18.41694450  113.87000275    1.23000002    2.66000009
   18.41944313  107.25299835    1.23000002    2.66000009
   18.42083359  104.43000031    1.16999996    2.66000009
   18.42388916  110.00499725    1.00000000    2.66000009
   18.43000031  110.00499725    0.98000002    2.66000009
   18.43388748  111.38800049    0.95999998    2.66000009
   18.43722153  108.43099976    0.95999998    2.66000009
   18.44055557  112.83000183    0.95999998    2.67000008
   18.44361115  103.03500366    0.95999998    2.66000009
   18.44694328  108.69899750    0.98000002    2.64000010
   18.45027924  103.87699890    0.98000002    2.64000010
   18.45277786  107.83599854    0.98000002    2.66000009
   18.45388985  107.66899872    0.98000002    2.66000009
   18.45694542  111.64199829    0.98000002    2.64000010
   18.46027946  103.95800018    0.98000002    2.66000009
   18.46361160  104.12699890    0.95999998    2.66000009
   18.46666718  108.89099884    0.94000000    2.64000010
   18.47277832  108.89099884    0.95999998    2.66000009
   18.47694588  107.92299652    0.98000002    2.64000010
   18.48000145  108.01899719    0.98000002    2.66000009
   18.48333359  113.50499725    0.95999998    2.66000009
   18.48611069  106.42500305    0.95999998    2.66000009
   18.48694420  103.70899963    0.95999998    2.66000009
   18.48999977  101.62000275    0.95999998    2.66000009
   18.49333382   98.37640381    0.95999998    2.64000010
   18.49666786  104.44599915    0.95999998    2.64000010
   18.49972153  103.92500305    0.98000002    2.66000009
   18.50305557  101.45400238    1.05999994    2.64000010
   18.50638962  105.46900177    1.07000005    2.64000010
   18.50944519  110.51200104    1.07000005    2.64000010
   18.51555634  110.51200104    1.05999994    2.66000009
   18.51972198  116.01999664    1.05999994    2.64000010
   18.52305603  107.42400360    1.07000005    2.64000010
   18.52611160  115.91500092    1.09000003    2.64000010
   18.52944374  111.13800049    1.05999994    2.66000009
   18.53249931  109.84799957    1.05999994    2.66000009
   18.53583336  104.05699921    1.07000005    2.66000009
   18.53916550  108.29699707    1.07000005    2.66000009
   18.54222107  104.12500000    1.03999996    2.64000010
   18.54555511  103.18000031    1.03999996    2.64000010
   18.54888916  107.35500336    1.05999994    2.66000009
   18.55194283  112.44100189    1.07000005    2.64000010
   18.55277634  106.54799652    1.07000005    2.64000010
   18.55833244  106.54799652    1.07000005    2.64000010
   18.56250000  113.89299774    1.09000003    2.64000010
   18.56583214  113.69100189    1.09000003    2.64000010
   18.56888962  103.88999939    1.14999998    2.66000009
   18.57222366  110.66000366    1.14999998    2.64000010
   18.57555580  109.11100006    1.16999996    2.64000010
   18.57861137  114.61699677    1.14999998    2.64000010
   18.58194542  105.65899658    1.16999996    2.64000010
   18.58527756  111.11599731    1.21000004    2.64000010
   18.58611107  111.79900360    1.19000006    2.64000010
   18.58889008  111.99299622    1.19000006    2.64000010
   18.59194565  112.06900024    1.19000006    2.64000010
   18.59527779   -1.00000000    1.16999996    2.64000010
   18.60527802   -1.00000000    1.11000001    2.64000010
   18.60861206   -1.00000000    1.07000005    2.66000009
   18.61166763  112.80000305    1.07000005    2.64000010
   18.61499977  104.66300201    1.14999998    2.64000010
   18.61833382   97.84500122    1.25000000    2.64000010
   18.61944389  106.66400146    1.21000004    2.64000010
   18.62194443  115.65299988    1.19000006    2.64000010
   18.62500000  109.63300323    1.09000003    2.64000010
   18.62833405  110.56999969    1.13000000    2.64000010
   18.63166618  109.23899841    1.05999994    2.66000009
   18.63472176  109.12300110    1.03999996    2.66000009
   18.63805580  113.64499664    1.01999998    2.64000010
   18.64416695  113.64499664    0.95999998    2.64000010
   18.64833260  112.73699951    0.98000002    2.64000010
   18.65138817  103.90000153    0.98000002    2.64000010
   18.65277672  108.35600281    0.98000002    2.64000010
   18.65527725  106.74199677    1.03999996    2.64000010
   18.65833282  111.13200378    1.14999998    2.64000010
   18.66166687  102.49500275    1.03999996    2.64000010
   18.66499901  119.03800201    1.13000000    2.64000010
   18.66805458  110.97699738    1.01999998    2.66000009
   18.67138863  112.48200226    1.01999998    2.64000010
   18.67444420  105.37400055    0.95999998    2.64000010
   18.67777634  110.92099762    0.98000002    2.64000010
   18.68111038  109.57199860    0.95999998    2.64000010
   18.70361137   -1.00000000    0.92000002    2.64000010
   18.70694542   -1.00000000    0.92000002    2.64000010
   18.71000099   -1.00000000    0.92000002    2.64000010
   18.71333504   -1.00000000    0.92000002    2.64000010
   18.71638870   -1.00000000    0.89999998    2.64000010
   18.72000122   -1.00000000    0.86000001    2.64000010
   18.72333336   -1.00000000    0.83999997    2.66000009
   18.73388863   -1.00000000    0.88000000    2.64000010
   18.73722267   -1.00000000    0.88000000    2.64000010
   18.74027824   -1.00000000    0.92000002    2.64000010
   18.74361229   -1.00000000    0.89999998    2.66000009
   18.74666786   -1.00000000    0.92000002    2.64000010
   18.75000000   -1.00000000    0.88000000    2.64000010
   18.75361061   -1.00000000    0.88000000    2.66000009
   18.75694466   -1.00000000    0.88000000    2.64000010
   18.76027870   -1.00000000    0.89999998    2.66000009
   18.76333427   -1.00000000    0.89999998    2.66000009
   18.76666641   -1.00000000    0.88000000    2.64000010
   18.77666664   -1.00000000    1.00000000    2.64000010
   18.78000069   -1.00000000    1.00000000    2.64000010
   18.78333282   -1.00000000    1.09000003    2.64000010
   18.78666687   -1.00000000    1.11000001    2.64000010
   18.78999901   -1.00000000    1.11000001    2.64000010
   18.79333305   -1.00000000    1.13000000    2.64000010
   18.79638863   -1.00000000    1.14999998    2.64000010
   18.79972076   -1.00000000    1.14999998    2.64000010
   18.80305481   -1.00000000    1.16999996    2.64000010
   18.80611038   -1.00000000    1.19000006    2.64000010
   18.80944443   -1.00000000    1.19000006    2.64000010
   18.81944466   -1.00000000    1.16999996    2.64000010
   18.82277870   -1.00000000    1.14999998    2.61999989
   18.82611275   -1.00000000    1.14999998    2.61999989
   18.82916832   -1.00000000    1.14999998    2.64000010
   18.83250046   -1.00000000    1.13000000    2.64000010
   18.83583450   -1.00000000    1.09000003    2.64000010
   18.83889008   -1.00000000    1.09000003    2.64000010
   18.84222221   -1.00000000    0.95999998    2.64000010
   18.84555626   -1.00000000    0.95999998    2.64000010
   18.84861183   -1.00000000    0.95999998    2.64000010
   18.85194397   -1.00000000    0.95999998    2.64000010
   18.86250114   -1.00000000    0.92000002    2.64000010
   18.86555672   -1.00000000    0.92000002    2.64000010
   18.86888885   -1.00000000    0.89999998    2.64000010
   18.87222290   -1.00000000    0.89999998    2.64000010
   18.87527847   -1.00000000    0.92000002    2.64000010
   18.87861061   -1.00000000    0.94000000    2.64000010
   18.88166618   -1.00000000    0.94000000    2.64000010
   18.88500023   -1.00000000    0.98000002    2.64000010
   18.88861084   -1.00000000    1.00000000    2.64000010
   18.89166641   -1.00000000    1.01999998    2.64000010
   18.89500046   -1.00000000    1.01999998    2.64000010
   18.90527725   -1.00000000    1.03999996    2.64000010
   18.90861130   -1.00000000    1.03999996    2.64000010
   18.91166687   -1.00000000    1.03999996    2.64000010
   18.91499901   -1.00000000    1.03999996    2.64000010
   18.91805458   -1.00000000    1.09000003    2.61999989
   18.92166519   -1.00000000    1.30999994    2.64000010
   18.92499924   -1.00000000    1.46000004    2.64000010
   18.92833328   -1.00000000    3.05999994    2.44000006
   18.93138885   -1.00000000    3.18000007    1.63000000
   18.93472099   -1.00000000    4.48999977    2.09999990
   18.93805504   -1.00000000    4.40999985    2.26999998
   18.94805527   -1.00000000    1.25000000    2.61999989
   18.95138931   -1.00000000    1.25000000    2.61999989
   18.95472336   -1.00000000    1.21000004    2.61999989
   18.95805550   -1.00000000    1.21000004    2.61999989
   18.96138954   -1.00000000    1.13000000    2.64000010
   18.96444511   -1.00000000    1.13000000    2.61999989
   18.96777916   -1.00000000    1.13000000    2.64000010
   18.97111130   -1.00000000    1.13000000    2.64000010
   18.97416687   -1.00000000    1.14999998    2.64000010
   18.97750092   -1.00000000    1.13000000    2.61999989
   18.98055649   -1.00000000    1.21000004    2.64000010
   18.99083328   -1.00000000    1.19000006    2.61999989
   18.99416733   -1.00000000    1.19000006    2.61999989
   18.99749947   -1.00000000    1.21000004    2.61999989
   19.00055504   -1.00000000    1.21000004    2.61999989
   19.00388908   -1.00000000    1.14999998    2.61999989
   19.00722313   -1.00000000    1.13000000    2.64000010
   19.01027870   -1.00000000    1.13000000    2.64000010
   19.01361084   -1.00000000    1.09000003    2.61999989
   19.01666641   -1.00000000    1.13000000    2.61999989
   19.02027702   -1.00000000    1.16999996    2.64000010
   19.02361107   -1.00000000    1.26999998    2.61999989
   19.03388786   -1.00000000    1.39999998    2.61999989
   19.03694344   -1.00000000    1.50000000    2.61999989
   19.04027748   -1.00000000    1.53999996    2.61999989
   19.04361153   -1.00000000    1.48000002    2.61999989
   19.04666710   -1.00000000    1.41999996    2.61999989
   19.04999924   -1.00000000    1.41999996    2.61999989
   19.05360985   -1.00000000    1.41999996    2.61999989
   19.05666542   -1.00000000    1.53999996    2.59999990
   19.05999947   -1.00000000    1.55999994    2.61999989
   19.06305504   -1.00000000    1.48000002    2.61999989
   19.06638718   -1.00000000    1.48000002    2.59999990
   19.07666779   -1.00000000    1.51999998    2.61999989
   19.08000183   -1.00000000    1.51999998    2.61999989
   19.08305550   -1.00000000    1.44000006    2.61999989
   19.08638954   -1.00000000    1.33000004    2.61999989
   19.08972359   -1.00000000    1.25000000    2.61999989
   19.09305573   -1.00000000    1.25000000    2.61999989
   19.09611130   -1.00000000    1.21000004    2.61999989
   19.09944534   -1.00000000    1.14999998    2.61999989
   19.10277748   -1.00000000    1.11000001    2.61999989
   19.10583305   -1.00000000    1.11000001    2.59999990
   19.10916710   -1.00000000    1.11000001    2.61999989
   19.11944389   -1.00000000    1.14999998    2.59999990
   19.12277794   -1.00000000    1.13000000    2.59999990
   19.12583351   -1.00000000    1.14999998    2.61999989
   19.12916756   -1.00000000    1.14999998    2.61999989
   19.13249969   -1.00000000    1.13000000    2.61999989
   19.13555527   -1.00000000    1.13000000    2.61999989
   19.13888931   -1.00000000    1.13000000    2.59999990
   19.14222145   -1.00000000    1.11000001    2.59999990
   19.14527702   -1.00000000    1.09000003    2.59999990
   19.14861107   -1.00000000    1.09000003    2.59999990
   19.15166664   -1.00000000    1.09000003    2.61999989
   19.16222191   -1.00000000    1.05999994    2.61999989
   19.16555595   -1.00000000    1.05999994    2.59999990
   19.16888809   -1.00000000    1.03999996    2.59999990
   19.17194366   -1.00000000    1.03999996    2.59999990
   19.17527771   -1.00000000    1.00000000    2.59999990
   19.17860985   -1.00000000    0.98000002    2.59999990
   19.18166542   -1.00000000    0.98000002    2.59999990
   19.18499947   -1.00000000    0.98000002    2.59999990
   19.18861008   -1.00000000    1.05999994    2.59999990
   19.19166565   -1.00000000    1.07000005    2.61999989
   19.19499969   -1.00000000    1.09000003    2.59999990
   19.20527840   -1.00000000    1.09000003    2.59999990
   19.20833397   -1.00000000    1.14999998    2.59999990
   19.21166801   -1.00000000    1.19000006    2.59999990
   19.21472359   -1.00000000    1.25000000    2.59999990
   19.21805573   -1.00000000    1.25000000    2.59999990
   19.22166634   -1.00000000    1.25000000    2.59999990
   19.22472191   -1.00000000    1.25000000    2.59999990
   19.22805595   -1.00000000    1.23000002    2.57999992
   19.23139000   -1.00000000    1.26999998    2.59999990
   19.23444557   -1.00000000    1.25000000    2.57999992
   19.23777771   -1.00000000    1.25000000    2.57999992
   19.24805641   -1.00000000    1.44000006    2.57999992
   19.25138855   -1.00000000    1.39999998    2.57999992
   19.25499916   -1.00000000    1.30999994    2.57999992
   19.25805473   -1.00000000    1.26999998    2.57999992
   19.26138878   -1.00000000    1.25000000    2.55999994
   19.26444435   -1.00000000    1.25000000    2.55999994
   19.26777840   -1.00000000    1.19000006    2.55999994
   19.27111053   -1.00000000    1.16999996    2.55999994
   19.27416611   -1.00000000    1.14999998    2.57999992
   19.27750015   -1.00000000    1.05999994    2.57999992
   19.28083229   -1.00000000    1.05999994    2.57999992
   19.29083252   -1.00000000    1.05999994    2.55999994
   19.29416656   -1.00000000    1.03999996    2.57999992
   19.29722214   -1.00000000    1.01999998    2.57999992
   19.30055428   -1.00000000    1.01999998    2.57999992
   19.30388832   -1.00000000    1.00000000    2.57999992
   19.30694389   -1.00000000    1.01999998    2.57999992
   19.31027794   -1.00000000    1.03999996    2.57999992
   19.31361008   -1.00000000    1.03999996    2.55999994
   19.31666756   -1.00000000    1.09000003    2.55999994
   19.32027817   -1.00000000    1.13000000    2.55999994
   19.32333374   -1.00000000    1.13000000    2.55999994
   19.33361244   -1.00000000    1.23000002    2.53999996
   19.33694458   -1.00000000    1.25000000    2.55999994
   19.34027863   -1.00000000    1.28999996    2.55999994
   19.34333420   -1.00000000    1.33000004    2.55999994
   19.34666824   -1.00000000    1.26999998    2.55999994
   19.34972191   -1.00000000    1.21000004    2.55999994
   19.35361099   -1.00000000    1.21000004    2.55999994
   19.35666656   -1.00000000    1.19000006    2.55999994
   19.36000061   -1.00000000    1.11000001    2.55999994
   19.36305618   -1.00000000    1.11000001    2.55999994
   19.36638832   -1.00000000    1.07000005    2.55999994
   19.37666702   -1.00000000    1.09000003    2.55999994
   19.37972260   -1.00000000    1.11000001    2.55999994
   19.38305473   -1.00000000    1.11000001    2.55999994
   19.38666725   -1.00000000    1.13000000    2.55999994
   19.38972282   -1.00000000    1.11000001    2.55999994
   19.39305496   -1.00000000    1.13000000    2.55999994
   19.39611053   -1.00000000    1.14999998    2.53999996
   19.39944458   -1.00000000    1.16999996    2.55999994
   19.40277672   -1.00000000    1.16999996    2.55999994
   19.40583229   -1.00000000    1.30999994    2.53999996
   19.40916634   -1.00000000    1.38000000    2.53999996
   19.41944313   -1.00000000    1.50000000    2.53999996
   19.42305565   -1.00000000    1.46000004    2.53999996
   19.42638779   -1.00000000    1.44000006    2.53999996
   19.42944336   -1.00000000    1.41999996    2.53999996
   19.43277740   -1.00000000    1.41999996    2.53999996
   19.43610954   -1.00000000    1.44000006    2.53999996
   19.43916512   -1.00000000    1.51999998    2.53999996
   19.44249916   -1.00000000    1.51999998    2.53999996
   19.44583321   -1.00000000    1.60000002    2.53999996
   19.44888878   -1.00000000    1.53999996    2.53999996
   19.45222282   -1.00000000    1.48000002    2.53999996
   19.46222305   -1.00000000    1.26999998    2.53999996
   19.46555710   -1.00000000    1.07000005    2.53999996
   19.46861076   -1.00000000    1.11000001    2.53999996
   19.47194481   -1.00000000    1.11000001    2.53999996
   19.47527885   -1.00000000    1.13000000    2.53999996
   19.47833443   -1.00000000    1.07000005    2.53999996
   19.48166656   -1.00000000    1.13000000    2.53999996
   19.48472214   -1.00000000    1.14999998    2.53999996
   19.48833275   -1.00000000    1.23000002    2.53999996
   19.49166679   -1.00000000    1.26999998    2.53999996
   19.49472237   -1.00000000    1.21000004    2.51999998
   19.50499916   -1.00000000    1.21000004    2.51999998
   19.50833321   -1.00000000    1.16999996    2.51999998
   19.51166725   -1.00000000    1.16999996    2.51999998
   19.51472282   -1.00000000    1.64999998    2.51999998
   19.51805496   -1.00000000    2.25000000    2.51999998
   19.52138901   -1.00000000    2.25000000    2.51999998
   19.52472115   -1.00000000    2.78999996    2.51999998
   19.52777672   -1.00000000    1.76999998    2.51999998
   19.53111076   -1.00000000    1.41999996    2.50000000
   19.53444481   -1.00000000    1.44000006    2.51999998
   19.53750038   -1.00000000    1.50000000    2.50000000
   19.54805565   -1.00000000    1.48000002    2.51999998
   19.55111122   -1.00000000    1.53999996    2.51999998
   19.55472183   -1.00000000    1.61000001    2.50000000
   19.55805397   -1.00000000    1.61000001    2.50000000
   19.56110954   -1.00000000    1.60000002    2.51999998
   19.56444359   -1.00000000    1.60000002    2.50000000
   19.56777954   -1.00000000    1.60000002    2.51999998
   19.57083511   -1.00000000    1.58000004    2.51999998
   19.57416725   -1.00000000    1.60000002    2.50000000
   19.57722282   -1.00000000    1.55999994    2.51999998
   19.58055687   -1.00000000    1.55999994    2.51999998
   19.59083366   -1.00000000    1.44000006    2.50000000
   19.59388924   -1.00000000    1.60000002    2.51999998
   19.59722328   -1.00000000    1.58000004    2.51999998
   19.60055542   -1.00000000    1.11000001    2.51999998
   19.60361099   -1.00000000    1.09000003    2.53999996
   19.60694504   -1.00000000    1.09000003    2.53999996
   19.61027908   -1.00000000    1.09000003    2.53999996
   19.61361122   -1.00000000    1.05999994    2.51999998
   19.61666679   -1.00000000    1.07000005    2.51999998
   19.62027740   -1.00000000    1.21000004    2.53999996
   19.62361145   -1.00000000    1.25000000    2.51999998
   19.63361168   -1.00000000    1.26999998    2.51999998
   19.63694382   -1.00000000    1.28999996    2.51999998
   19.63999939   -1.00000000    1.26999998    2.51999998
   19.64333344   -1.00000000    1.39999998    2.51999998
   19.64666748   -1.00000000    1.38000000    2.51999998
   19.64972115   69.56259918    1.36000001    2.51999998
   19.65305519   82.44799805    1.36000001    2.51999998
   19.65361023   87.66940308    1.36000001    2.51999998
   19.65666580   77.53710175    1.21000004    2.51999998
   19.65999985  101.29199982    1.30999994    2.51999998
   19.66333389  105.84700012    1.34000003    2.51999998
   19.66638756   96.82620239    1.34000003    2.51999998
   19.67249870   96.82620239    1.38000000    2.51999998
   19.67666626  116.79399872    1.38000000    2.51999998
   19.67972183  104.15299988    1.36000001    2.51999998
   19.68305397  109.44599915    1.41999996    2.51999998
   19.68610954  107.07700348    1.44000006    2.50000000
   19.68694305  103.69300079    1.41999996    2.51999998
   19.68972206  113.78299713    1.80999994    2.50000000
   19.69305420  109.10399628    1.66999996    2.51999998
   19.69638824  106.05300140    1.71000004    2.51999998
   19.69944382  101.03199768    1.66999996    2.51999998
   19.70277786  103.28299713    1.61000001    2.51999998
   19.72389030  103.28299713    1.38000000    2.51999998
   19.72805595  110.85099792    1.33000004    2.51999998
   19.73139000  105.72299957    1.30999994    2.50000000
   19.73444557   98.69069672    1.28999996    2.50000000
   19.73777771  108.46099854    1.28999996    2.50000000
   19.74083328  110.97299957    1.23000002    2.50000000
   19.74416733  110.24299622    1.25000000    2.51999998
   19.74749947  112.43299866    1.19000006    2.50000000
   19.75055504  106.03900146    1.19000006    2.50000000
   19.75388908  116.21700287    1.16999996    2.51999998
   19.75472260  108.01100159    1.16999996    2.51999998
   19.75749969  111.66300201    1.16999996    2.50000000
   19.76055527  115.02700043    1.16999996    2.50000000
   19.76666641  115.02700043    1.14999998    2.50000000
   19.77083397  122.00299835    1.14999998    2.50000000
   19.77388954  115.44999695    1.19000006    2.50000000
   19.77722168  109.37599945    1.19000006    2.51999998
   19.78055573  114.55899811    1.19000006    2.51999998
   19.78361130  115.99299622    1.19000006    2.50000000
   19.78694344  110.83200073    1.16999996    2.50000000
   19.78805542  116.71900177    1.16999996    2.50000000
   19.79055595  118.32299805    1.16999996    2.51999998
   19.79361153  110.56900024    1.16999996    2.51999998
   19.79694366  118.37599945    1.19000006    2.51999998
   19.79999924  117.03500366    1.19000006    2.51999998
   19.80333328  115.19200134    1.19000006    2.51999998
   19.80944443  115.19200134    1.19000006    2.51999998
   19.81361008  118.50199890    1.21000004    2.51999998
   19.81694603  125.20300293    1.19000006    2.51999998
   19.82000160  119.74299622    1.21000004    2.51999998
   19.82166672  120.64900208    1.21000004    2.51999998
   19.82361221  114.35099792    1.33000004    2.51999998
   19.82694626  117.25299835    1.33000004    2.51999998
   19.83027840  116.65399933    1.48000002    2.51999998
   19.83333397  120.90000153    1.33000004    2.51999998
   19.83666801  116.87500000    1.30999994    2.51999998
   19.84000015  112.03199768    1.33000004    2.51999998
   19.84305573  111.14900208    1.38000000    2.51999998
   19.84638977  119.28800201    1.48000002    2.51999998
   19.85250092  119.28800201    1.66999996    2.51999998
   19.85639000  110.93299866    1.64999998    2.51999998
   19.85972214  119.32399750    1.64999998    2.51999998
   19.86305618  113.48999786    1.60000002    2.51999998
   19.86611176  119.87599945    1.44000006    2.51999998
   19.86944389  110.30500031    1.36000001    2.51999998
   19.87249947  112.60800171    1.25000000    2.51999998
   19.87583351  115.45200348    1.25000000    2.51999998
   19.87916756  113.82900238    1.26999998    2.51999998
   19.88222313  109.75599670    1.25000000    2.51999998
   19.88555527  111.86599731    1.25000000    2.50000000
   19.88833237  112.62400055    1.25000000    2.50000000
   19.88916588  123.62899780    1.28999996    2.51999998
   19.89527702  123.62899780    1.28999996    2.50000000
   19.89944458  121.49700165    1.26999998    2.51999998
   19.90250015  114.74700165    1.28999996    2.50000000
   19.90583229  118.04699707    1.30999994    2.50000000
   19.90888786  114.95899963    1.30999994    2.50000000
   19.91222191  114.96399689    1.44000006    2.51999998
   19.91555595  115.14800262    1.44000006    2.50000000
   19.91860962  125.41899872    1.44000006    2.50000000
   19.92166519  111.40599823    1.44000006    2.50000000
   19.92222214  114.66300201    1.44000006    2.50000000
   19.92555428  118.10700226    1.51999998    2.50000000
   19.92888832  119.47699738    1.53999996    2.50000000
   19.93194389  125.35600281    1.53999996    2.50000000
   19.93805504  125.35600281    1.53999996    2.48000002
   19.94222069  121.89700317    1.51999998    2.50000000
   19.94527626  106.72899628    1.51999998    2.50000000
   19.94861031  118.67099762    1.51999998    2.50000000
   19.95194435  115.73799896    1.53999996    2.50000000
   19.95499992  112.84999847    1.53999996    2.48000002
   19.95527840  115.91100311    1.53999996    2.50000000
   19.95861244  116.05000305    1.51999998    2.48000002
   19.96194458  109.91200256    1.51999998    2.50000000
   19.96500015  111.64299774    1.51999998    2.50000000
   19.96833420  108.70999908    1.50000000    2.50000000
   19.97166634  112.54499817    1.50000000    2.50000000
   19.97472191  118.85299683    1.50000000    2.50000000
   19.98083305  118.85299683    1.48000002    2.50000000
   19.98500061  107.67299652    1.48000002    2.50000000
   19.98833275  110.10500336    1.46000004    2.48000002
   19.98861122  120.16799927    1.46000004    2.48000002
   19.99194527  117.36799622    1.48000002    2.48000002
   19.99527740  108.75000000    1.48000002    2.48000002
   19.99833298  115.29299927    1.48000002    2.48000002
   20.00166702  117.00700378    1.46000004    2.48000002
   20.00499916  113.91300201    1.46000004    2.48000002
   20.00833321  104.08499908    1.44000006    2.48000002
   20.01138878  111.04599762    1.38000000    2.48000002
   20.01472282  108.47399902    1.39999998    2.48000002
   20.01777840  108.86699677    1.41999996    2.50000000
   20.02361107  108.86699677    1.50000000    2.48000002
   20.02777672  118.12599945    1.50000000    2.48000002
   20.03111076  113.03600311    1.51999998    2.48000002
   20.03444481  118.94200134    1.51999998    2.48000002
   20.03750038  119.25499725    1.53999996    2.50000000
   20.04083252  108.42600250    1.51999998    2.48000002
   20.04388809  116.00900269    1.50000000    2.48000002
   20.04722214  122.14600372    1.51999998    2.48000002
   20.05055428  114.46700287    1.50000000    2.48000002
   20.05360985  111.74199677    1.50000000    2.48000002
   20.05499840  106.45400238    1.48000002    2.50000000
   20.05749893  103.42400360    1.46000004    2.48000002
   20.06055450  108.51999664    1.41999996    2.48000002
   20.06666756  108.51999664    1.39999998    2.48000002
   20.07083511  105.22499847    1.36000001    2.48000002
   20.07389069  110.25199890    1.30999994    2.48000002
   20.07722282  107.68800354    1.30999994    2.48000002
   20.08027840  105.63700104    1.30999994    2.48000002
   20.08361244  104.23100281    1.34000003    2.48000002
   20.08694458  112.34899902    1.34000003    2.48000002
   20.08833313  107.23999786    1.34000003    2.48000002
   20.09055710  111.34899902    1.36000001    2.48000002
   20.09361267  125.96299744    1.36000001    2.48000002
   20.09694481  112.75099945    1.36000001    2.46000004
   20.10000038  124.80500031    1.38000000    2.48000002
   20.10333443  117.43000031    1.38000000    2.46000004
   20.10944557  117.43000031    1.33000004    2.48000002
   20.11361122  102.65299988    1.30999994    2.48000002
   20.11666679  109.70500183    1.26999998    2.48000002
   20.12000084  118.97000122    1.26999998    2.48000002
   20.12194443  112.89099884    1.26999998    2.48000002
   20.12361145  113.51799774    1.26999998    2.48000002
   20.12694550  110.47499847    1.26999998    2.48000002
   20.13027763  114.74600220    1.25000000    2.48000002
   20.13333321  113.40000153    1.25000000    2.46000004
   20.13666725  111.09400177    1.25000000    2.46000004
   20.13972282  104.92800140    1.25000000    2.46000004
   20.14305496  107.48400116    1.25000000    2.46000004
   20.14638901  117.04699707    1.25000000    2.46000004
   20.15222168  117.04699707    1.23000002    2.48000002
   20.15638924  118.68199921    1.25000000    2.46000004
   20.15972137  104.61100006    1.23000002    2.48000002
   20.16277695  109.96299744    1.23000002    2.46000004
   20.16611099  109.37200165    1.23000002    2.46000004
   20.16944313  104.85600281    1.23000002    2.46000004
   20.17249870  114.94799805    1.23000002    2.46000004
   20.17583275  110.08100128    1.21000004    2.46000004
   20.17916679  107.83799744    1.21000004    2.46000004
   20.18222237   99.44180298    1.19000006    2.46000004
   20.18555450  111.94699860    1.21000004    2.48000002
   20.18861008  108.81900024    1.21000004    2.48000002
   20.18916512  108.07099915    1.21000004    2.48000002
   20.19499969  108.07099915    1.21000004    2.46000004
   20.19916534  111.47299957    1.25000000    2.46000004
   20.20250130  110.26300049    1.25000000    2.48000002
   20.20583344  103.19499969    1.25000000    2.46000004
   20.20888901  103.59400177    1.23000002    2.46000004
   20.21222305   96.82029724    1.25000000    2.46000004
   20.21527863  109.14700317    1.25000000    2.46000004
   20.21861076   93.45760345    1.25000000    2.46000004
   20.22194481  109.17800140    1.23000002    2.46000004
   20.22222328  101.61699677    1.23000002    2.46000004
   20.22555542  110.15699768    1.25000000    2.46000004
   20.22888947  103.00599670    1.25000000    2.46000004
   20.23194504  111.29000092    1.23000002    2.46000004
   20.23805618  111.29000092    1.23000002    2.46000004
   20.24222183  122.53700256    1.23000002    2.46000004
   20.24527740  124.34200287    1.23000002    2.46000004
   20.24861145  143.76800537    1.23000002    2.46000004
   20.25166702  167.40400696    1.23000002    2.46000004
   20.25499916  149.52200317    1.21000004    2.46000004
   20.25555611  195.99600220    1.21000004    2.46000004
   20.25888824  307.48199463    1.21000004    2.46000004
   20.26083374   91.20700073    1.21000004    2.46000004
   20.26111031  143.76800537    1.23000002    2.46000004
   20.26111031  167.40400696    1.23000002    2.46000004
   20.26111031  149.52200317    1.21000004    2.46000004
   20.26138878  307.48199463    1.21000004    2.46000004
   20.26138878  110.15699768    1.25000000    2.46000004
   20.26138878  103.00599670    1.25000000    2.46000004
   20.26166725  111.29000092    1.23000002    2.46000004
   20.26166725  122.53700256    1.23000002    2.46000004
   20.26166725  124.34200287    1.23000002    2.46000004
   20.26361084   -1.00000000    1.21000004    2.46000004
   20.26694489   -1.00000000    1.19000006    2.46000004
   20.27027702   -1.00000000    1.28999996    2.44000006
   20.27333260   -1.00000000    1.38000000    2.44000006
   20.27666664   -1.00000000    1.46000004    2.46000004
   20.28583336   -1.00000000    1.66999996    2.44000006
   20.28888893   -1.00000000    1.75000000    2.44000006
   20.29222107   -1.00000000    2.00000000    2.44000006
   20.29555511   -1.00000000    2.05999994    2.44000006
   20.29888916   -1.00000000    2.09999990    2.44000006
   20.30222130   -1.00000000    2.05999994    2.42000008
   20.30527687   -1.00000000    2.01999998    2.42000008
   20.30861092   -1.00000000    1.89999998    2.44000006
