    HOUR (UT)   FLARE FACTOR    SKY TESTER    SUN TESTER
   11.64833355   -1.00000000   -1.00000000   -1.00000000
   11.67527771  109.77799988    4.90999985    1.83000004
   11.67833328   88.90570068    4.90999985    1.80999994
   11.68166733   94.68869781    4.90999985    1.86000001
   11.68500042   89.74320221    4.90999985    1.89999998
   11.68805599   86.04219818    4.90999985    1.94000006
   11.69138908   89.58159637    4.90999985    1.91999996
   11.69555569   89.58159637    4.90999985    1.91999996
   11.69972229   90.98660278    4.53999996    1.94000006
   11.70277786   94.92649841    4.23999977    1.91999996
   11.70638847   91.57340240    4.00000000    1.94000006
   11.70833302   86.69920349    3.97000003    1.94000006
   11.71000004   93.87149811    3.95000005    1.94000006
   11.71333313   89.86540222    3.84999990    1.94000006
   11.71638870   90.86129761    3.78999996    1.94000006
   11.71972179   89.82800293    3.64000010    1.94000006
   11.72305489   88.91549683    3.64000010    1.94000006
   11.72611046   89.11039734    3.09999990    1.94000006
   11.72944355   89.94899750    2.75000000    1.96000004
   11.73277760   88.50650024    2.51999998    1.96000004
   11.73833370   88.50650024    2.42000008    1.96000004
   11.74250031   86.61299896    2.40000010    1.96000004
   11.74583340   86.11039734    2.39000010    1.96000004
   11.74888897   88.00489807    2.34999990    1.98000002
   11.75222206   85.72859955    2.34999990    1.98000002
   11.75555515   86.66729736    2.32999992    1.98000002
   11.75888920   88.95890045    2.30999994    1.98000002
   11.76194477   89.04630280    2.26999998    1.98000002
   11.76527786   87.15550232    2.25000000    2.00000000
   11.76833344   86.19460297    2.21000004    2.00000000
   11.77166653   87.53839874    2.19000006    2.00000000
   11.77499962   89.74810028    2.17000008    2.00000000
   11.77555561   91.28790283    2.15000010    2.00000000
   11.78111076   91.28790283    2.13000011    2.01999998
   11.78527832   86.29820251    2.11999989    2.01999998
   11.78861141   92.89029694    2.09999990    2.01999998
   11.79166698   88.00180054    2.09999990    2.01999998
   11.79500008   84.42269897    2.09999990    2.01999998
   11.79833412   86.58460236    2.07999992    2.01999998
   11.80138874   89.96980286    2.07999992    2.03999996
   11.80472279   90.45950317    2.07999992    2.03999996
   11.80805588   95.81199646    2.07999992    2.03999996
   11.80888939   87.26190186    2.07999992    2.03999996
   11.81138897   93.87619781    2.05999994    2.03999996
   11.81472206   86.02899933    2.05999994    2.03999996
   11.81805515   97.57209778    2.05999994    2.03999996
   11.82416630   97.57209778    2.05999994    2.05999994
   11.82805538   86.57219696    2.05999994    2.05999994
   11.83138847   88.37850189    2.05999994    2.05999994
   11.83472157   90.71279907    2.03999996    2.03999996
   11.83777714   92.80570221    2.05999994    2.05999994
   11.84111118   93.86170197    2.03999996    2.05999994
   11.84222221   97.41529846    2.03999996    2.05999994
   11.84472179   91.10379791    2.03999996    2.05999994
   11.84805489   92.24060059    2.03999996    2.05999994
   11.85138893   94.74449921    2.01999998    2.07999992
   11.85444450   93.36979675    2.01999998    2.07999992
   11.85777855   98.17739868    2.00000000    2.07999992
   11.86083412   89.79699707    2.00000000    2.07999992
   11.86694431   89.79699707    2.00000000    2.07999992
   11.87111092   97.68890381    1.98000002    2.09999990
   11.87416649   87.20089722    1.98000002    2.09999990
   11.87555599   88.06559753    1.98000002    2.09999990
   11.87777805   89.13590240    1.96000004    2.09999990
   11.88111115   84.20320129    1.98000002    2.09999990
   11.88444424   85.88739777    1.98000002    2.09999990
   11.88749981   84.65190125    1.98000002    2.09999990
   11.89083290   84.47389984    1.98000002    2.09999990
   11.89416695   83.76570129    1.98000002    2.11999989
   11.89722252   91.57050323    1.98000002    2.11999989
   11.90055561   99.32209778    1.96000004    2.11999989
   11.90361118   89.46679688    1.91999996    2.11999989
   11.90972137   89.46679688    1.91999996    2.13000011
   11.91388893   92.49150085    1.86000001    2.11999989
   11.91722298   96.11910248    1.86000001    2.13000011
   11.92027855   85.17140198    1.85000002    2.13000011
   11.92361164   87.73449707    1.83000004    2.13000011
   11.92694473   90.97589874    1.83000004    2.13000011
   11.93000031   92.80370331    1.83000004    2.13000011
   11.93333340   86.15779877    1.80999994    2.13000011
   11.93638897   86.89649963    1.80999994    2.15000010
   11.93972206   86.10530090    1.78999996    2.15000010
   11.94222260   87.57569885    1.80999994    2.13000011
   11.94333363   90.00849915    1.80999994    2.13000011
   11.94666672   84.77269745    1.80999994    2.13000011
   11.95249939   84.77269745    1.80999994    2.15000010
   11.95666695   87.45069885    1.80999994    2.15000010
   11.96000004   85.38469696    1.78999996    2.15000010
   11.96305561   88.22419739    1.76999998    2.15000010
   11.96638870   83.95559692    1.76999998    2.17000008
   11.96972179   88.20739746    1.76999998    2.17000008
   11.97277737   92.53220367    1.76999998    2.17000008
   11.97555542   84.10510254    1.76999998    2.17000008
   11.97638798   85.34439850    1.76999998    2.17000008
   11.97972202   95.14140320    1.76999998    2.17000008
   11.98305511   90.43669891    1.73000002    2.17000008
   11.98611164   84.15039825    1.73000002    2.17000008
   11.98944473   83.97039795    1.73000002    2.17000008
   11.99527836   83.97039795    1.73000002    2.19000006
   11.99944496   84.44719696    1.73000002    2.19000006
   12.00277805   89.67340088    1.73000002    2.19000006
   12.00611115   86.69090271    1.73000002    2.19000006
   12.00888920   84.22100067    1.73000002    2.19000006
   12.00972176   88.45850372    1.73000002    2.19000006
   12.01305580   85.34760284    1.73000002    2.21000004
   12.01638889   90.23130035    1.73000002    2.19000006
   12.01944447   85.06970215    1.73000002    2.19000006
   12.02277756   83.48339844    1.73000002    2.19000006
   12.02611065   81.74060059    1.71000004    2.21000004
   12.02916622   86.44619751    1.71000004    2.21000004
   12.03249931   85.05919647    1.71000004    2.19000006
   12.03833389   85.05919647    1.66999996    2.19000006
   12.04250050   83.66739655    1.61000001    2.21000004
   12.04555607   83.31539917    1.61000001    2.21000004
   12.04888916   84.57769775    1.61000001    2.23000002
   12.05194473   85.38220215    1.61000001    2.23000002
   12.05527782   84.46600342    1.58000004    2.23000002
   12.05861092   86.83319855    1.55999994    2.23000002
   12.06166649   85.66519928    1.55999994    2.23000002
   12.06500053   88.31030273    1.55999994    2.23000002
   12.06833363   83.08450317    1.55999994    2.23000002
   12.07138920   82.48120117    1.55999994    2.23000002
   12.07472229   86.32759857    1.55999994    2.23000002
   12.07555580   85.07029724    1.55999994    2.23000002
   12.08111095   85.07029724    1.53999996    2.25000000
   12.08527756   82.59480286    1.53999996    2.23000002
   12.08861065   86.33830261    1.51999998    2.23000002
   12.09166622   89.29139709    1.51999998    2.23000002
   12.09499931   88.86070251    1.51999998    2.23000002
   12.09805489   82.54350281    1.51999998    2.25000000
   12.10138893   92.89099884    1.51999998    2.23000002
   12.10472298   82.73580170    1.50000000    2.25000000
   12.10777855   86.24269867    1.50000000    2.25000000
   12.10888958   91.60929871    1.50000000    2.25000000
   12.11138916   84.78559875    1.50000000    2.25000000
   12.11472225   86.90390015    1.50000000    2.25000000
   12.11805534   96.12979889    1.50000000    2.25000000
   12.12388897   96.12979889    1.48000002    2.26999998
   12.12805557   82.11260223    1.48000002    2.26999998
   12.13138866   90.79720306    1.48000002    2.26999998
   12.13444424   83.27089691    1.46000004    2.26999998
   12.13777733   85.65650177    1.46000004    2.26999998
   12.14111137   83.62079620    1.46000004    2.26999998
   12.14222240   85.68720245    1.46000004    2.26999998
   12.14444447   89.21119690    1.46000004    2.28999996
   12.14777756   82.80229950    1.46000004    2.28999996
   12.15111065   90.56870270    1.46000004    2.28999996
   12.15416622   87.04709625    1.46000004    2.28999996
   12.15749931  101.70300293    1.46000004    2.28999996
   12.16083336   87.71810150    1.44000006    2.26999998
   12.16666698   87.71810150    1.46000004    2.28999996
   12.17083359   90.42620087    1.44000006    2.28999996
   12.17416668   89.30539703    1.44000006    2.28999996
   12.17555618   87.10359955    1.46000004    2.28999996
   12.17777824   88.80339813    1.44000006    2.30999994
   12.18111134   94.71009827    1.44000006    2.28999996
   12.18444443   87.21060181    1.44000006    2.28999996
   12.18750000   86.16059875    1.44000006    2.30999994
   12.19083309   88.35220337    1.44000006    2.30999994
   12.19416714   90.58969879    1.44000006    2.30999994
   12.19722271   83.81099701    1.44000006    2.30999994
   12.20055580   86.54229736    1.41999996    2.30999994
   12.20388889   82.72109985    1.41999996    2.30999994
   12.20972157   82.72109985    1.44000006    2.30999994
   12.21361065   90.92140198    1.41999996    2.32999992
   12.21694374   97.93769836    1.41999996    2.30999994
   12.22027779   93.05690002    1.41999996    2.30999994
   12.22333336   90.59850311    1.41999996    2.30999994
   12.22666645   86.77439880    1.41999996    2.30999994
   12.22999954   90.72889709    1.41999996    2.30999994
   12.23305511   97.24400330    1.41999996    2.30999994
   12.23638916   89.01899719    1.41999996    2.30999994
   12.23972225   89.30390167    1.41999996    2.30999994
   12.24222279   91.70719910    1.39999998    2.30999994
   12.24305534   91.11049652    1.39999998    2.30999994
   12.24638939   89.85299683    1.39999998    2.32999992
   12.25249958   89.85299683    1.39999998    2.32999992
   12.25666714   89.73650360    1.38000000    2.32999992
   12.25972176   98.68520355    1.39999998    2.32999992
   12.26305580   91.25650024    1.38000000    2.34999990
   12.26638889   97.08830261    1.38000000    2.32999992
   12.26944447   91.18270111    1.36000001    2.34999990
   12.27277756   84.34680176    1.34000003    2.32999992
   12.27555561   84.49019623    1.34000003    2.34999990
   12.27638817   83.18139648    1.34000003    2.34999990
   12.27972221   85.71549988    1.34000003    2.34999990
   12.28305531   84.58750153    1.34000003    2.34999990
   12.28611183   85.77700043    1.34000003    2.34999990
   12.28944492   84.54949951    1.34000003    2.34999990
   12.29527855   84.54949951    1.33000004    2.36999989
   12.29944515   82.68930054    1.33000004    2.34999990
   12.30277824   87.93620300    1.30999994    2.34999990
   12.30583382   87.90640259    1.30999994    2.34999990
   12.30888939   85.23850250    1.30999994    2.34999990
   12.30944443   85.11769867    1.30999994    2.34999990
   12.31277752   89.08570099    1.33000004    2.34999990
   12.31611156   86.44680023    1.30999994    2.36999989
   12.31916618   82.43489838    1.28999996    2.36999989
   12.32250023   79.62380219    1.28999996    2.36999989
   12.32583332   79.64389801    1.28999996    2.36999989
   12.32888889   82.47100067    1.28999996    2.36999989
   12.33222198   80.04450226    1.26999998    2.36999989
   12.33805561   80.04450226    1.26999998    2.36999989
   12.34222221   81.47460175    1.25000000    2.36999989
   12.34555531   81.86920166    1.25000000    2.36999989
   12.34861088   87.69100189    1.25000000    2.39000010
   12.35194492   82.89389801    1.25000000    2.39000010
   12.35527802   92.51879883    1.23000002    2.36999989
   12.35861111   81.91390228    1.23000002    2.39000010
   12.36166668   84.76450348    1.23000002    2.36999989
   12.36500072   81.91670227    1.23000002    2.39000010
   12.36805534   82.76709747    1.21000004    2.39000010
   12.37166691   84.37969971    1.21000004    2.39000010
   12.37472248   84.76529694    1.21000004    2.39000010
   12.37555599   82.72769928    1.21000004    2.39000010
   12.38111115   82.72769928    1.21000004    2.39000010
   12.38500023   87.50599670    1.21000004    2.39000010
   12.38833332   88.04660034    1.19000006    2.39000010
   12.39166641   87.75479889    1.19000006    2.39000010
   12.39472198   90.44750214    1.16999996    2.39000010
   12.39805508   84.70700073    1.16999996    2.39000010
   12.40138817   84.88770294    1.14999998    2.40000010
   12.40444374   83.45079803    1.14999998    2.40000010
   12.40777779   83.60199738    1.13000000    2.40000010
   12.40888882   83.83380127    1.13000000    2.40000010
   12.41138840   83.59259796    1.14999998    2.40000010
   12.41444397   84.62909698    1.14999998    2.40000010
   12.41777802   90.35269928    1.13000000    2.40000010
   12.42388916   90.35269928    1.13000000    2.40000010
   12.42805576   81.64659882    1.13000000    2.40000010
   12.43111134   84.04260254    1.13000000    2.40000010
   12.43444443   81.43299866    1.13000000    2.42000008
   12.43777752   84.92710114    1.13000000    2.40000010
   12.44083309   93.68669891    1.13000000    2.40000010
   12.44222260   81.79830170    1.13000000    2.40000010
   12.44472218   91.16880035    1.13000000    2.40000010
   12.44777775   85.76490021    1.11000001    2.40000010
   12.45111084   85.74479675    1.11000001    2.42000008
   12.45444393   88.86900330    1.11000001    2.42000008
   12.45777798   86.74220276    1.09000003    2.42000008
   12.46083355   87.90850067    1.09000003    2.42000008
   12.46666622   87.90850067    1.09000003    2.42000008
   12.47083282   87.54779816    1.09000003    2.42000008
   12.47416592   83.54620361    1.11000001    2.42000008
   12.47555542   85.41799927    1.11000001    2.42000008
   12.47777748   81.69899750    1.09000003    2.42000008
   12.48083305   85.96230316    1.09000003    2.42000008
   12.48416710   81.84100342    1.09000003    2.42000008
   12.48722267   81.56549835    1.09000003    2.42000008
   12.49055576   83.33480072    1.09000003    2.42000008
   12.49388885   87.98809814    1.09000003    2.42000008
   12.49694443   84.00930023    1.07000005    2.44000006
   12.50027752   91.48139954    1.09000003    2.44000006
   12.50361156   84.58309937    1.07000005    2.44000006
   12.50944424   84.58309937    1.07000005    2.44000006
   12.51361084   87.25759888    1.07000005    2.44000006
   12.51694393   82.58319855    1.07000005    2.44000006
   12.51999950   82.61409760    1.05999994    2.44000006
   12.52333355   86.66510010    1.05999994    2.44000006
   12.52666664   89.27919769    1.03999996    2.44000006
   12.52972221   89.95390320    1.03999996    2.44000006
   12.53305531   85.53050232    1.03999996    2.46000004
   12.53638935   92.31130219    1.03999996    2.46000004
   12.53944492   90.29049683    1.03999996    2.44000006
   12.54222298   88.01450348    1.03999996    2.46000004
   12.54333401   94.98840332    1.03999996    2.46000004
   12.54638958   90.97470093    1.03999996    2.46000004
   12.55249977   90.97470093    1.03999996    2.46000004
   12.55666733   84.13939667    1.01999998    2.46000004
   12.55972195   83.88400269    1.01999998    2.46000004
   12.56305599   83.75240326    1.01999998    2.46000004
   12.56611156   85.60260010    1.01999998    2.46000004
   12.56944466   87.94969940    1.01999998    2.46000004
   12.57277775   84.74739838    1.00000000    2.46000004
   12.57555580   80.55699921    1.00000000    2.46000004
   12.57638836   83.37680054    1.00000000    2.46000004
   12.57944393   82.66259766    1.00000000    2.46000004
   12.58277798   88.85759735    1.00000000    2.46000004
   12.58611107   86.71900177    1.01999998    2.46000004
   12.58916664   87.54530334    1.00000000    2.46000004
   12.59527779   87.54530334    0.98000002    2.48000002
   12.59944439   87.29920197    1.00000000    2.46000004
   12.60249996   86.16609955    1.00000000    2.46000004
   12.60583401   86.14219666    0.98000002    2.46000004
   12.60888958   86.11560059    0.98000002    2.46000004
   12.60972214   88.55300140    0.98000002    2.46000004
   12.61277771   91.29419708    0.98000002    2.46000004
   12.61611176   90.19100189    1.00000000    2.46000004
   12.61916637   89.01670074    0.98000002    2.48000002
   12.62250042   87.00689697    1.00000000    2.48000002
   12.62583351   87.11969757    0.98000002    2.48000002
   12.62888908   90.34819794    0.98000002    2.48000002
   12.63222218   90.51319885    0.98000002    2.48000002
   12.63805580   90.51319885    0.98000002    2.48000002
   12.64222240   92.51399994    1.00000000    2.48000002
   12.64555550   86.25309753    1.00000000    2.48000002
   12.64861107   84.00990295    1.01999998    2.48000002
   12.65194416   88.53749847    1.01999998    2.48000002
   12.65499973   84.91909790    1.01999998    2.48000002
   12.65861034   89.97709656    1.01999998    2.48000002
   12.66166592   86.95169830    1.01999998    2.48000002
   12.66499996   85.71949768    1.01999998    2.48000002
   12.66833401   84.33799744    1.00000000    2.50000000
   12.67138958   84.83560181    0.98000002    2.50000000
   12.67472267   80.55349731    0.98000002    2.48000002
   12.67555618   78.55439758    0.98000002    2.48000002
   12.69638920   78.55439758    0.95999998    2.50000000
   12.70027733   80.75749969    0.98000002    2.50000000
   12.70361137   90.86660004    0.98000002    2.50000000
   12.70694447   87.22440338    0.98000002    2.50000000
   12.70888901   83.84570313    0.98000002    2.50000000
   12.71055508   82.44380188    0.98000002    2.50000000
   12.71361065   85.14209747    0.98000002    2.50000000
   12.71694374   83.94300079    0.98000002    2.50000000
   12.72027779   87.50920105    0.98000002    2.50000000
   12.72333336   82.53559875    0.98000002    2.50000000
   12.72666645   83.82759857    0.98000002    2.50000000
   12.72972202   81.86280060    0.98000002    2.50000000
   12.73305511   84.01679993    0.98000002    2.50000000
   12.73888874   84.01679993    0.98000002    2.50000000
   12.74305534   88.36250305    0.98000002    2.51999998
   12.74638939   83.43669891    0.98000002    2.50000000
   12.74972248   84.74579620    0.95999998    2.51999998
   12.75277805   85.91590118    0.98000002    2.51999998
   12.75611115   92.08419800    0.98000002    2.50000000
   12.75916672   88.49490356    0.98000002    2.50000000
   12.76249981   83.53929901    0.98000002    2.51999998
   12.76583290   85.07150269    0.95999998    2.51999998
   12.76888847   82.68029785    0.98000002    2.51999998
   12.77222157   80.97969818    0.95999998    2.51999998
   12.77555561   83.84549713    0.95999998    2.51999998
   12.77611065   82.95240021    0.95999998    2.51999998
   12.78194427   82.95240021    0.98000002    2.51999998
   12.78611183   80.93350220    0.98000002    2.51999998
   12.78916740   79.33899689    0.98000002    2.51999998
   12.79250050   77.11470032    0.98000002    2.51999998
   12.79555607   78.68350220    0.98000002    2.51999998
   12.79888916   82.04620361    0.98000002    2.51999998
   12.80222225   77.63719940    0.98000002    2.51999998
   12.80527782   85.25800323    0.98000002    2.51999998
   12.80861092   79.41860199    0.98000002    2.51999998
   12.80944443   78.04100037    0.98000002    2.51999998
   12.81222248   81.17579651    0.98000002    2.51999998
   12.81555557   77.59690094    0.95999998    2.51999998
   12.81861115   79.63890076    0.98000002    2.51999998
   12.82472229   79.63890076    0.95999998    2.53999996
   12.82888889   80.43280029    0.98000002    2.53999996
   12.83194447   80.36289978    0.95999998    2.53999996
   12.83527756   78.67060089    0.95999998    2.53999996
   12.83861065   78.82469940    0.94000000    2.53999996
   12.84166622   82.29389954    0.94000000    2.53999996
   12.84277725   78.51820374    0.94000000    2.53999996
   12.84527779   80.04440308    0.94000000    2.53999996
   12.84861088   86.34580231    0.94000000    2.53999996
   12.85194492   82.57479858    0.94000000    2.53999996
   12.85500050   85.57599640    0.94000000    2.53999996
   12.85833359   78.99970245    0.94000000    2.53999996
   12.86166668   78.38030243    0.94000000    2.53999996
   12.86750031   78.38030243    0.92000002    2.53999996
   12.87166691   77.89240265    0.92000002    2.53999996
   12.87500000   76.71199799    0.92000002    2.55999994
   12.87611103   79.36949921    0.92000002    2.55999994
   12.87861156   77.64679718    0.92000002    2.53999996
   12.88194466   78.43129730    0.89999998    2.55999994
   12.88500023   77.65760040    0.89999998    2.53999996
   12.88833332   78.40110016    0.89999998    2.53999996
   12.89166641   82.62370300    0.89999998    2.55999994
   12.89499950   80.66880035    0.89999998    2.53999996
   12.89805508   82.35810089    0.89999998    2.53999996
   12.90138817   79.17209625    0.89999998    2.53999996
   12.90472221   79.27420044    0.89999998    2.53999996
   12.91055489   79.27420044    0.89999998    2.55999994
   12.91472149   82.09339905    0.89999998    2.55999994
   12.91805553   83.02999878    0.89999998    2.55999994
   12.92111111   78.17199707    0.92000002    2.53999996
   12.92444515   79.04930115    0.89999998    2.55999994
   12.92777824   79.28669739    0.92000002    2.55999994
   12.93083382   83.35669708    0.92000002    2.55999994
   12.93416691   78.23020172    0.92000002    2.53999996
   12.93722248   81.45269775    0.94000000    2.55999994
   12.94055557   80.42559814    0.92000002    2.55999994
   12.94277763   83.18620300    0.94000000    2.53999996
   12.94416714   81.34500122    0.92000002    2.55999994
   12.94750023   80.33769989    0.92000002    2.55999994
   12.95333290   80.33769989    0.92000002    2.55999994
   12.95749950   80.47409821    0.89999998    2.55999994
   13.48555565   79.47570038    0.67000002    2.67000008
   13.48888874   80.23979950    0.67000002    2.66000009
   13.49222279   77.81099701    0.67000002    2.67000008
   13.49527836   77.66639709    0.67000002    2.66000009
   13.49861145   78.16110229    0.67000002    2.67000008
   13.50166702   79.58589935    0.67000002    2.66000009
   13.50583363   79.58589935    0.67000002    2.67000008
   13.51000023   79.93640137    0.67000002    2.67000008
   13.51333332   79.02179718    0.69000000    2.67000008
   13.51666641   77.31469727    0.67000002    2.67000008
   13.51888847   77.80989838    0.67000002    2.67000008
   13.52027798   77.97160339    0.67000002    2.67000008
   13.52361107   78.42810059    0.69000000    2.67000008
   13.52666664   78.14389801    0.67000002    2.67000008
   13.52999973   80.98829651    0.67000002    2.67000008
   13.53305531   78.32070160    0.67000002    2.67000008
   13.53638935   76.93240356    0.67000002    2.67000008
   13.53972244   77.78379822    0.67000002    2.67000008
   13.54277802   78.28720093    0.67000002    2.67000008
   13.54888916   78.28720093    0.67000002    2.66000009
   13.55305576   80.50599670    0.64999998    2.67000008
   13.55611134   80.83249664    0.67000002    2.67000008
   13.55944443   79.76660156    0.64999998    2.67000008
   13.56250000   79.63110352    0.67000002    2.67000008
   13.56583309   75.12629700    0.67000002    2.67000008
   13.56916618   77.60169983    0.67000002    2.67000008
   13.57222176   80.77220154    0.67000002    2.67000008
   13.57555580   78.10389709    0.67000002    2.67000008
   13.57888889   83.01100159    0.67000002    2.67000008
   13.58194447   76.14739990    0.67000002    2.67000008
   13.58527756   81.32129669    0.67000002    2.69000006
   13.58583260   77.18879700    0.67000002    2.67000008
   13.59166622   77.18879700    0.64999998    2.67000008
   13.59583282   76.41169739    0.67000002    2.69000006
   13.59888840   79.89189911    0.64999998    2.67000008
   13.60222244   78.23239899    0.67000002    2.69000006
   13.60555553   75.70220184    0.67000002    2.67000008
   13.60861111   78.17700195    0.67000002    2.69000006
   13.61194515   80.26650238    0.64999998    2.69000006
   13.61527824   82.81259918    0.67000002    2.67000008
   13.61833382   77.27220154    0.64999998    2.69000006
   13.61916637   79.16680145    0.64999998    2.69000006
   13.62194443   77.51660156    0.64999998    2.69000006
   13.62527752   78.56459808    0.67000002    2.67000008
   13.62861156   76.50299835    0.69000000    2.69000006
   13.63444424   76.50299835    0.69000000    2.67000008
   13.63861084   75.80100250    0.69000000    2.69000006
   13.64194393   74.30809784    0.69000000    2.69000006
   13.64499950   78.11340332    0.67000002    2.69000006
   13.64833355   76.91329956    0.67000002    2.69000006
   13.65138817   77.06179810    0.64999998    2.69000006
   13.65249920   79.97339630    0.64999998    2.69000006
   13.65499973   77.41470337    0.64999998    2.69000006
   13.65833282   80.87899780    0.63000000    2.69000006
   13.66166592   79.67990112    0.63000000    2.69000006
   13.66472149   80.42590332    0.63000000    2.69000006
   13.66805553   82.93409729    0.61000001    2.69000006
   13.67138958   79.14409637    0.61000001    2.69000006
   13.67722225   79.14409637    0.61000001    2.69000006
   13.68138885   76.57150269    0.63000000    2.69000006
   13.68472195   80.01020050    0.61000001    2.69000006
   13.68583298   78.64579773    0.61000001    2.69000006
   13.68805599   76.38729858    0.61000001    2.69000006
   13.69138908   73.38069916    0.61000001    2.69000006
   13.69472218   77.78990173    0.61000001    2.69000006
   13.69777775   77.51629639    0.61000001    2.69000006
   13.70111084   77.94629669    0.61000001    2.69000006
   13.70444393   80.69059753    0.61000001    2.69000006
   13.70749950   74.55239868    0.58999997    2.69000006
   13.71083355   79.25160217    0.58999997    2.71000004
   13.71388912   77.60389709    0.58999997    2.71000004
   13.72027779   77.60389709    0.61000001    2.69000006
   13.72444439   79.97650146    0.58999997    2.71000004
   13.72749996   79.24130249    0.58999997    2.71000004
   13.73083305   79.04689789    0.61000001    2.69000006
   13.73388958   76.60140228    0.58999997    2.69000006
   13.73722267   81.09780121    0.58999997    2.69000006
   13.74055576   74.69629669    0.58999997    2.71000004
   13.74361134   80.82710266    0.58999997    2.71000004
   13.74694443   77.22149658    0.56999999    2.69000006
   13.75027752   77.51589966    0.56999999    2.71000004
   13.75249958   80.52690125    0.56999999    2.69000006
   13.75361156   76.72679901    0.56999999    2.69000006
   13.75694466   80.01959991    0.56999999    2.69000006
   13.76305580   80.01959991    0.55000001    2.71000004
   13.76722240   79.41439819    0.55000001    2.71000004
   13.77027798   78.11450195    0.55000001    2.71000004
   13.77361107   75.19470215    0.55000001    2.69000006
   13.77694416   75.40709686    0.55000001    2.69000006
   13.77999973   80.12740326    0.55000001    2.71000004
   13.78333378   78.15460205    0.55000001    2.71000004
   13.78583336   76.89769745    0.56999999    2.71000004
   13.78722286   77.44629669    0.55000001    2.71000004
   13.79027843   79.49949646    0.55000001    2.69000006
   13.79361153   78.72270203    0.56999999    2.71000004
   13.79694462   76.49279785    0.55000001    2.71000004
   13.80000019   76.57769775    0.55000001    2.69000006
   13.80583382   76.57769775    0.58999997    2.71000004
   13.81000042   82.27149963    0.58999997    2.71000004
   13.81333351   76.76920319    0.61000001    2.71000004
   13.81638908   75.59519958    0.58999997    2.71000004
   13.81916618   77.21369934    0.58999997    2.71000004
   13.82027817   75.78649902    0.58999997    2.71000004
   13.82333374   76.52610016    0.58999997    2.71000004
   13.82666683   79.82510376    0.58999997    2.71000004
   13.82972240   77.46089935    0.58999997    2.71000004
   13.83305550   78.31990051    0.58999997    2.71000004
   13.83638859   76.84190369    0.58999997    2.71000004
   13.83944416   78.47440338    0.58999997    2.71000004
   13.84277725   77.20469666    0.56999999    2.71000004
   13.84861088   77.20469666    0.56999999    2.71000004
   13.85277843   78.09600067    0.56999999    2.71000004
   13.85611153   78.35089874    0.55000001    2.71000004
   13.85944462   77.56349945    0.56999999    2.71000004
   13.86250019   78.77729797    0.55000001    2.71000004
   13.86583328   79.62609863    0.55000001    2.73000002
   13.86916637   76.93090057    0.55000001    2.71000004
   13.87222195   76.26969910    0.52999997    2.71000004
   13.87555599   77.87879944    0.52999997    2.71000004
   13.87861156   76.68139648    0.52999997    2.71000004
   13.88194466   79.06800079    0.51999998    2.71000004
   13.88527775   81.99040222    0.52999997    2.73000002
   13.88583279   74.76959991    0.52999997    2.73000002
   13.89166641   74.76959991    0.51999998    2.73000002
   13.89555550   75.51740265    0.51999998    2.71000004
   13.89888859   75.30770111    0.51999998    2.73000002
   13.90222168   72.38030243    0.52999997    2.73000002
   13.90527725   75.48979950    0.51999998    2.71000004
   13.90861034   75.22350311    0.51999998    2.71000004
   13.91194439   75.95980072    0.51999998    2.75000000
   13.91499996   77.10540009    0.52999997    2.73000002
   13.91833401   74.67250061    0.51999998    2.73000002
   13.91916656   75.78610229    0.51999998    2.73000002
   13.92194462   75.71679688    0.52999997    2.73000002
   13.92500019   77.05889893    0.52999997    2.71000004
   13.92833328   80.20140076    0.52999997    2.75000000
   13.93444443   80.20140076    0.52999997    2.71000004
   13.93861103   78.40799713    0.52999997    2.73000002
   13.94166660   76.57929993    0.52999997    2.71000004
   13.94499969   72.47350311    0.52999997    2.73000002
   13.94833374   77.59809875    0.52999997    2.73000002
   13.95138836   77.81559753    0.52999997    2.73000002
   13.95249939   74.88430023    0.52999997    2.73000002
   13.95527744   76.01270294    0.52999997    2.73000002
   13.95833302   72.86669922    0.51999998    2.73000002
   13.96166611   75.62390137    0.51999998    2.73000002
   13.96472168   75.91860199    0.51999998    2.73000002
   13.96805477   78.18769836    0.51999998    2.73000002
   13.97138882   75.75109863    0.51999998    2.71000004
   13.97722149   75.75109863    0.51999998    2.73000002
   13.98138809   78.37719727    0.51999998    2.73000002
   13.98472214   75.64569855    0.51999998    2.73000002
   13.98583317   78.08090210    0.51999998    2.73000002
   13.98833370   79.20320129    0.52999997    2.73000002
   13.99138927   75.97480011    0.52999997    2.73000002
   13.99472237   80.69860077    0.55000001    2.75000000
   13.99777794   79.78009796    0.55000001    2.73000002
   14.00111103   76.46769714    0.55000001    2.73000002
   14.00444412   80.35659790    0.55000001    2.73000002
   14.00749969   74.62149811    0.58999997    2.73000002
   14.01083374   75.95349884    0.58999997    2.73000002
   14.01416683   74.34349823    0.58999997    2.73000002
   14.01999950   74.34349823    0.61000001    2.73000002
   14.02416611   76.27999878    0.61000001    2.73000002
   14.02750015   74.86509705    0.58999997    2.73000002
   14.03055573   75.60179901    0.58999997    2.73000002
   14.03388977   75.84269714    0.58999997    2.73000002
   14.03722286   77.27330017    0.58999997    2.73000002
   14.04027843   75.06900024    0.58999997    2.73000002
   14.04361153   74.73269653    0.56999999    2.73000002
   14.04694462   72.45349884    0.58999997    2.73000002
   14.05000019   76.04149628    0.56999999    2.75000000
   14.05249977   79.27230072    0.56999999    2.73000002
   14.05388927   75.59719849    0.56999999    2.75000000
   14.05694485   75.66870117    0.56999999    2.73000002
   14.06305599   75.66870117    0.55000001    2.75000000
   14.06694412   76.83080292    0.55000001    2.73000002
   14.07027817   74.62950134    0.55000001    2.75000000
   14.07361126   75.44950104    0.52999997    2.75000000
   14.07666683   75.06610107    0.52999997    2.73000002
   14.07999992   76.66850281    0.51999998    2.73000002
   14.08333302   74.18699646    0.50000000    2.73000002
   14.08583260   79.95369720    0.50000000    2.75000000
   14.08694458   77.08110046    0.50000000    2.73000002
   14.09000015   74.44560242    0.50000000    2.73000002
   14.09333324   76.28540039    0.50000000    2.75000000
   14.09666634   79.43139648    0.50000000    2.75000000
   14.09972191   75.69319916    0.50000000    2.73000002
   14.10583401   75.69319916    0.51999998    2.75000000
   14.11000061   75.75409698    0.52999997    2.75000000
   14.11305618   78.60990143    0.52999997    2.73000002
   14.11638927   75.15260315    0.52999997    2.73000002
   14.11916637   74.27259827    0.51999998    2.75000000
   14.11999989   76.77059937    0.51999998    2.75000000
   14.12305546   76.34120178    0.52999997    2.75000000
   14.12638855   76.97059631    0.51999998    2.75000000
   15.04194450   -1.00000000   -1.00000000   -1.00000000
   15.06777763   74.60600281    0.40000001    2.78999996
   15.07083321   72.20069885    0.40000001    2.78999996
   15.17888927   -1.00000000   -1.00000000   -1.00000000
   15.28138828   -1.00000000   -1.00000000   -1.00000000
   15.38222218   -1.00000000   -1.00000000   -1.00000000
   15.40944386   77.90650177    0.36000001    2.80999994
   15.41277695   81.13760376    0.36000001    2.80999994
   15.41583252   74.52369690    0.36000001    2.82999992
   15.41916656   81.69899750    0.38000000    2.80999994
   15.42250061   76.62680054    0.40000001    2.80999994
   15.42555618   78.42620087    0.36000001    2.82999992
   15.42972279   78.42620087    0.34000000    2.82999992
   15.43388939   76.33249664    0.34000000    2.82999992
   15.43722248   80.80049896    0.34000000    2.82999992
   15.44027805   76.10769653    0.34000000    2.80999994
   15.44277763   79.78309631    0.36000001    2.80999994
   15.44416714   78.04640198    0.36000001    2.80999994
   15.44722271   75.05539703    0.36000001    2.80999994
   15.45055580   75.08950043    0.36000001    2.80999994
   15.45388889   77.73410034    0.36000001    2.80999994
   15.45694447   75.66369629    0.34000000    2.80999994
   15.46027756   82.21520233    0.34000000    2.82999992
   15.46333313   76.62390137    0.34000000    2.82999992
   15.46666622   79.94349670    0.34000000    2.82999992
   15.47249985   79.94349670    0.36000001    2.80999994
   15.47666645   78.77189636    0.36000001    2.80999994
   15.47999954   74.97709656    0.36000001    2.80999994
   15.48333359   78.57510376    0.36000001    2.80999994
   15.48638916   75.40589905    0.38000000    2.80999994
   15.48972225   77.04440308    0.36000001    2.80999994
   15.49305534   76.94570160    0.38000000    2.80999994
   15.49611092   75.60420227    0.38000000    2.82999992
   15.49944496   79.15850067    0.38000000    2.82999992
   15.50249958   82.15619659    0.38000000    2.82999992
   15.50583363   78.33309937    0.40000001    2.80999994
   15.50916672   78.04180145    0.40000001    2.80999994
   15.50972176   78.82859802    0.40000001    2.80999994
   15.51555538   78.82859802    0.38000000    2.80999994
   15.51972198   74.47080231    0.38000000    2.80999994
   15.52277756   74.16660309    0.38000000    2.82999992
   15.52611065   75.69770050    0.38000000    2.80999994
   15.52916622   77.28829956    0.38000000    2.82999992
   15.53249931   74.21170044    0.38000000    2.82999992
   15.53583336   73.21520233    0.38000000    2.80999994
   15.53888893   83.29029846    0.40000001    2.80999994
   15.54222298   77.20030212    0.40000001    2.82999992
   15.54305553   77.09190369    0.40000001    2.82999992
   15.54583359   79.23690033    0.40000001    2.82999992
   15.54916668   72.99279785    0.40000001    2.80999994
   15.55249977   79.98190308    0.40000001    2.80999994
   15.55833340   79.98190308    0.38000000    2.80999994
   15.56250000   78.55190277    0.38000000    2.82999992
   15.56555557   75.26010132    0.38000000    2.82999992
   15.56888866   81.74530029    0.38000000    2.80999994
   15.57222176   76.02480316    0.38000000    2.80999994
   15.57555580   76.13300323    0.38000000    2.82999992
   15.57638836   82.64849854    0.38000000    2.82999992
   15.57888889   73.64810181    0.40000001    2.82999992
   15.58222198   75.69580078    0.40000001    2.80999994
   15.58555508   75.84269714    0.40000001    2.82999992
   15.58861065   77.70619965    0.38000000    2.82999992
   15.59194374   74.21040344    0.38000000    2.80999994
   15.59499931   74.81189728    0.38000000    2.80999994
   15.60111141   74.81189728    0.36000001    2.82999992
   15.60527802   78.37220001    0.36000001    2.82999992
   15.60861111   79.10630035    0.36000001    2.80999994
   15.60972214   75.30590057    0.36000001    2.80999994
   15.61194515   74.62989807    0.36000001    2.80999994
   15.61527824   75.94760132    0.36000001    2.82999992
   15.61861134   75.37159729    0.36000001    2.80999994
   15.62194443   72.82330322    0.38000000    2.82999992
   15.62527752   71.52519989    0.36000001    2.80999994
   15.62833309   83.70619965    0.36000001    2.82999992
   15.63166714   75.08350372    0.36000001    2.82999992
   15.63472176   74.88430023    0.38000000    2.82999992
   15.63805580   72.62030029    0.36000001    2.82999992
   15.64388847   72.62030029    0.38000000    2.82999992
   15.64805508   73.10240173    0.38000000    2.80999994
   15.65138817   74.21250153    0.38000000    2.82999992
   15.65472221   78.46759796    0.38000000    2.82999992
   15.65777779   74.95880127    0.36000001    2.80999994
   15.66111088   76.87010193    0.36000001    2.80999994
   15.66416645   78.49130249    0.38000000    2.82999992
   15.66750050   75.77610016    0.36000001    2.82999992
   15.67083359   75.96649933    0.38000000    2.80999994
   15.67388916   77.74649811    0.38000000    2.80999994
   15.67638874   77.70950317    0.38000000    2.82999992
   15.67750072   75.47380066    0.38000000    2.82999992
   15.68083382   75.37100220    0.40000001    2.80999994
   15.68694496   75.37100220    0.40000001    2.80999994
   15.69083309   74.33039856    0.38000000    2.82999992
   15.69416714   77.85420227    0.36000001    2.80999994
   15.69750023   77.01390076    0.38000000    2.82999992
   15.70055580   74.15550232    0.38000000    2.80999994
   15.70388889   80.18759918    0.36000001    2.82999992
   15.70722198   74.74069977    0.36000001    2.82999992
   15.70972157   75.65190125    0.36000001    2.80999994
   15.71055508   75.51689911    0.36000001    2.80999994
   15.71388912   77.24479675    0.36000001    2.80999994
   15.71722221   75.20819855    0.40000001    2.80999994
   15.72027779   80.66190338    0.38000000    2.80999994
   15.72361088   81.72920227    0.38000000    2.82999992
   15.72972202   81.72920227    0.38000000    2.80999994
   15.73388958   81.96610260    0.69000000    2.80999994
   15.73694515   80.18199921    0.50000000    2.82999992
   15.74027824   79.35440063    0.50000000    2.82999992
   15.74305534   76.66790009    0.50000000    2.82999992
   15.74388885   77.41320038    0.55000001    2.80999994
   15.74722290   73.41310120    0.56999999    2.80999994
   15.75055599   81.63919830    0.70999998    2.80999994
   15.75361156   80.74680328    0.64999998    2.80999994
   15.75694466   75.44229889    0.63000000    2.82999992
   15.76027775   75.95619965    0.52999997    2.80999994
   15.76333332   79.15070343    0.52999997    2.80999994
   15.76666641   78.22000122    0.50000000    2.80999994
   15.77250004   78.22000122    0.38000000    2.82999992
   15.77666664   76.93849945    0.41999999    2.82999992
   15.77999973   84.15350342    0.41999999    2.82999992
   15.78305531   77.49739838    0.41999999    2.80999994
   15.78638935   76.85679626    0.47999999    2.82999992
   15.78972244   80.33170319    0.58999997    2.82999992
   15.79277802   74.72530365    0.47999999    2.80999994
   15.79611111   75.90409851    0.47999999    2.82999992
   15.79916668   77.80490112    0.46000001    2.80999994
   15.80249977   78.14689636    0.44000000    2.80999994
   15.80583382   76.76889801    0.41999999    2.82999992
   15.80888939   72.29049683    0.40000001    2.80999994
   15.80972195   79.13819885    0.40000001    2.80999994
   15.81527805   79.13819885    0.40000001    2.82999992
   15.81944466   76.35710144    0.40000001    2.82999992
   15.82277775   83.04180145    0.41999999    2.82999992
   15.82611084   79.24939728    0.41999999    2.82999992
   15.82916641   81.77839661    0.41999999    2.80999994
   15.83249950   73.85310364    0.44000000    2.82999992
   15.83583260   79.52940369    0.44000000    2.80999994
   15.83888817   82.77890015    0.41999999    2.82999992
   15.84222221   81.49040222    0.41999999    2.80999994
   15.84305477   83.74240112    0.41999999    2.80999994
   15.84583282   78.71369934    0.41999999    2.80999994
   15.84916592   79.99530029    0.44000000    2.82999992
   15.85249996   75.13459778    0.44000000    2.82999992
   15.85833359   75.13459778    0.44000000    2.82999992
   15.86222267   74.83020020    0.41999999    2.80999994
   15.86555576   78.52320099    0.44000000    2.82999992
   15.86888885   78.69100189    0.41999999    2.80999994
   15.87194443   74.59960175    0.41999999    2.80999994
   15.87527752   81.61250305    0.41999999    2.80999994
   15.87638855   75.79419708    0.41999999    2.80999994
   15.87916660   76.51609802    0.41999999    2.82999992
   15.88222218   83.00630188    0.44000000    2.82999992
   15.88555527   82.26709747    0.41999999    2.80999994
   15.88861084   78.60440063    0.44000000    2.80999994
   15.89194393   79.39219666    0.46000001    2.80999994
   15.89527798   78.51000214    0.44000000    2.82999992
   15.90111065   78.51000214    0.41999999    2.82999992
   15.90527725   78.08209991    0.41999999    2.82999992
   15.90833282   79.63749695    0.41999999    2.82999992
   15.90972137   79.06410217    0.40000001    2.80999994
   15.91222191   78.42220306    0.41999999    2.80999994
   15.91527748   83.20939636    0.40000001    2.82999992
   15.91861153   79.81839752    0.40000001    2.82999992
   15.92166710   75.64810181    0.40000001    2.82999992
   15.92500019   78.20420074    0.40000001    2.82999992
   15.92833328   78.35510254    0.40000001    2.82999992
   15.93138885   78.75029755    0.40000001    2.80999994
   15.93472195   82.93329620    0.40000001    2.80999994
   15.93805599   76.29799652    0.40000001    2.80999994
   15.94388866   76.29799652    0.40000001    2.82999992
   15.94805527   74.97930145    0.40000001    2.82999992
   15.95138836   81.70330048    0.40000001    2.80999994
   15.95444393   82.22509766    0.40000001    2.82999992
   15.95777798   78.12220001    0.38000000    2.80999994
   15.96083355   85.94010162    0.38000000    2.82999992
   15.96416664   80.31770325    0.40000001    2.82999992
   15.96749973   78.60040283    0.40000001    2.82999992
   15.97055531   77.05460358    0.40000001    2.82999992
   15.97388840   77.61830139    0.40000001    2.80999994
   15.97638798   83.18830109    0.40000001    2.82999992
   15.97777748   75.77210236    0.40000001    2.82999992
   15.98083305   76.71790314    0.40000001    2.82999992
   15.98666668   76.71790314    0.40000001    2.82999992
   15.99083328   80.72480011    0.40000001    2.82999992
   15.99416733   79.09729767    0.40000001    2.82999992
   15.99722290   75.99389648    0.40000001    2.82999992
   16.00055504   75.47260284    0.40000001    2.80999994
   16.00388908   79.70240021    0.38000000    2.82999992
   16.00694466   77.97029877    0.38000000    2.82999992
   16.00972176   80.40010071    0.38000000    2.82999992
   16.01083374   77.71900177    0.38000000    2.82999992
   16.01388931   76.39260101    0.40000001    2.82999992
   16.01722145   75.40239716    0.40000001    2.82999992
   16.02027702   82.12419891    0.38000000    2.82999992
   16.02361107   81.44969940    0.40000001    2.80999994
   16.02972221   81.44969940    0.40000001    2.82999992
   16.03361130   77.64990234    0.41999999    2.80999994
   16.03694344   75.60079956    0.40000001    2.80999994
   16.04027748   75.27159882    0.41999999    2.80999994
   16.04305458   77.82060242    0.40000001    2.80999994
   16.04388809   79.90209961    0.40000001    2.80999994
   16.04694366   75.67459869    0.41999999    2.80999994
   16.05027771   74.44789886    0.41999999    2.80999994
   16.05333328   82.75050354    0.44000000    2.82999992
   16.05666542   75.86399841    0.41999999    2.82999992
   16.05999947   77.39710236    0.41999999    2.82999992
   16.06305504   77.72080231    0.41999999    2.82999992
   16.06638718   73.53800201    0.40000001    2.82999992
   16.07250023   73.53800201    0.40000001    2.82999992
   16.07666779   73.99199677    0.40000001    2.80999994
   16.07972336   75.16880035    0.40000001    2.82999992
   16.08305550   77.16809845    0.40000001    2.82999992
   16.08638954   78.06340027    0.40000001    2.80999994
   16.08944511   81.83329773    0.41999999    2.80999994
   16.09277916   78.81140137    0.41999999    2.80999994
   16.09611130   73.17230225    0.41999999    2.82999992
   16.09916687   72.09059906    0.41999999    2.82999992
   16.10250092   82.72370148    0.44000000    2.82999992
   16.10555649   75.27719879    0.44000000    2.82999992
   16.10888863   76.34799957    0.44000000    2.80999994
   16.10972214   74.15820313    0.44000000    2.80999994
   16.11555672   74.15820313    0.44000000    2.80999994
   16.11972237   77.08619690    0.41999999    2.82999992
   16.12277794   78.11260223    0.41999999    2.82999992
   16.12611198   75.17289734    0.41999999    2.82999992
   16.12916756   77.92320251    0.41999999    2.82999992
   16.13249969   76.27420044    0.41999999    2.82999992
   16.13583374   74.84030151    0.41999999    2.82999992
   16.13888931   76.37599945    0.41999999    2.82999992
   16.14222145   80.45559692    0.41999999    2.82999992
   16.14305496   74.86499786    0.41999999    2.82999992
   16.14583397   76.55799866    0.41999999    2.82999992
   16.14888954   74.95490265    0.41999999    2.82999992
   16.15222168   76.25160217    0.41999999    2.82999992
   16.15805435   76.25160217    0.41999999    2.80999994
   16.16222191   79.74379730    0.41999999    2.82999992
   16.16555595   75.24759674    0.46000001    2.80999994
   16.16860962   73.50039673    0.47999999    2.82999992
   16.17194366   72.60150146    0.46000001    2.82999992
   16.17527771   79.11250305    0.46000001    2.82999992
   16.17638779   73.92720032    0.47999999    2.80999994
   16.17888832   73.38359833    0.46000001    2.82999992
   16.18194389   78.08920288    0.47999999    2.82999992
   16.18527603   79.03880310    0.46000001    2.82999992
   16.18861008   75.01660156    0.46000001    2.82999992
   16.19166565   77.27660370    0.46000001    2.82999992
   16.19499969   79.40280151    0.44000000    2.82999992
   16.20111275   79.40280151    0.44000000    2.82999992
   16.20499992   74.37069702    0.46000001    2.82999992
   16.20833397   73.18730164    0.46000001    2.82999992
   16.20972252   74.96289825    0.47999999    2.80999994
   16.21222305   82.12460327    0.44000000    2.80999994
   16.21527863   75.80670166    0.47999999    2.82999992
   16.21861076   75.05259705    0.51999998    2.80999994
   16.22194481   77.86470032    0.50000000    2.80999994
   16.22500038   74.68150330    0.51999998    2.82999992
   16.22833443   75.45300293    0.51999998    2.80999994
   16.23139000   77.71150208    0.47999999    2.82999992
   16.23472214   76.19589996    0.47999999    2.82999992
   16.23805618   76.61550140    0.47999999    2.82999992
   16.24388885   76.61550140    0.46000001    2.82999992
   16.24805641   75.02700043    0.46000001    2.82999992
   16.25111198   77.51660156    0.46000001    2.80999994
   16.25444412   77.06330109    0.47999999    2.82999992
   16.25777817   83.62249756    0.50000000    2.80999994
   16.26111031   74.71189880    0.50000000    2.82999992
   16.26416588   74.49210358    0.52999997    2.82999992
   16.26749992   76.20980072    0.51999998    2.82999992
   16.27055550   74.89990234    0.47999999    2.82999992
   16.27388954   74.55239868    0.46000001    2.82999992
   16.27638817   77.01180267    0.46000001    2.82999992
   16.27777672   75.12200165    0.46000001    2.82999992
   16.28083229   75.08219910    0.46000001    2.82999992
   16.28666687   75.08219910    0.46000001    2.82999992
   16.29083252   75.99620056    0.44000000    2.82999992
   16.29416656   74.83969879    0.44000000    2.82999992
   16.29722214   80.46880341    0.47999999    2.82999992
   16.30055428   74.26139832    0.46000001    2.82999992
   16.30360985   73.39830017    0.47999999    2.82999992
   16.30694389   74.37889862    0.46000001    2.82999992
   16.30972099   74.70670319    0.47999999    2.82999992
   16.31083298   79.14510345    0.47999999    2.82999992
   16.31388855   78.68520355    0.47999999    2.82999992
   16.31722260   74.97599792    0.47999999    2.82999992
   16.32055664   74.62249756    0.47999999    2.82999992
   16.32361221   74.66149902    0.47999999    2.82999992
   16.32944489   74.66149902    0.46000001    2.82999992
   16.33361244   77.68460083    0.44000000    2.82999992
   16.33694458   80.00000000    0.44000000    2.82999992
   16.34000015   76.38629913    0.46000001    2.82999992
   16.34305573   75.27539825    0.46000001    2.82999992
   16.34388924   75.20829773    0.46000001    2.82999992
   16.34694481   78.28990173    0.47999999    2.82999992
   16.35027885   75.18959808    0.46000001    2.82999992
   16.35361099   75.07839966    0.47999999    2.82999992
   16.35666656   75.55280304    0.47999999    2.82999992
   16.36000061   76.18190002    0.47999999    2.82999992
   16.36305618   74.57469940    0.47999999    2.82999992
   16.36638832   72.43260193    0.47999999    2.82999992
   16.37249947   72.43260193    0.47999999    2.82999992
   16.37666702   76.96890259    0.50000000    2.82999992
   16.37972260   74.25000000    0.47999999    2.82999992
   16.38305473   77.46140289    0.47999999    2.82999992
   16.38611031   81.87770081    0.47999999    2.80999994
   16.38944435   80.94899750    0.47999999    2.82999992
   16.39277840   75.37920380    0.47999999    2.82999992
   16.39583397   77.68939972    0.47999999    2.82999992
   16.39916611   78.36569977    0.47999999    2.82999992
   16.40250015   81.29850006    0.50000000    2.82999992
   16.40555573   78.28309631    0.50000000    2.82999992
   16.40888786   79.03859711    0.50000000    2.82999992
   16.40972137   77.06549835    0.50000000    2.82999992
   16.43055534   77.06549835    0.50000000    2.82999992
   16.43472099   77.14540100    0.51999998    2.82999992
   16.43777657   76.30439758    0.50000000    2.82999992
   16.44111061   79.51580048    0.50000000    2.82999992
   16.44305420   79.00150299    0.50000000    2.82999992
   16.44472122   75.29759979    0.50000000    2.82999992
   16.44777679   77.24600220    0.47999999    2.82999992
   16.45111275   75.35430145    0.47999999    2.82999992
   16.45444489   77.64479828    0.50000000    2.82999992
   16.45750046   77.56999969    0.50000000    2.82999992
   16.46083450   75.92140198    0.51999998    2.82999992
   16.46416664   74.99140167    0.52999997    2.82999992
   16.46722221   75.33789825    0.51999998    2.82999992
   16.47333336   75.33789825    0.52999997    2.82999992
   16.47722244   74.49700165    0.51999998    2.80999994
   16.48055649   75.84780121    0.51999998    2.82999992
   16.48388863   75.92990112    0.55000001    2.82999992
   16.48694420   77.24500275    0.55000001    2.82999992
   16.49027824   75.92089844    0.55000001    2.82999992
   16.49361229   80.98529816    0.52999997    2.82999992
   16.49666786   74.69460297    0.52999997    2.82999992
   16.50000000   80.92610168    0.52999997    2.82999992
   16.50333405  105.43499756    0.51999998    2.82999992
   16.50666618   78.24870300    0.51999998    2.82999992
   16.50972176   74.06230164    0.51999998    2.80999994
   16.51027870   77.00489807    0.51999998    2.80999994
   16.51611137   77.00489807    0.51999998    2.84999990
   16.52027702   79.90309906    0.52999997    2.82999992
   16.52333260   78.33999634    0.51999998    2.82999992
   16.52666664   79.39520264    0.52999997    2.82999992
   16.53000069   80.44879913    0.50000000    2.82999992
   16.53305435   76.39279938    0.50000000    2.82999992
   16.53638840   72.98570251    0.47999999    2.82999992
   16.53944397   75.72579956    0.47999999    2.82999992
   16.54277802   75.82640076    0.47999999    2.82999992
   16.54333305   82.65579987    0.47999999    2.82999992
   16.54666710   75.82929993    0.47999999    2.82999992
   16.54972076   77.10340118    0.47999999    2.82999992
   16.55305481   77.86250305    0.46000001    2.82999992
   16.55888748   77.86250305    0.47999999    2.82999992
   16.56305504   78.50070190    0.47999999    2.82999992
   16.56638718   76.67469788    0.47999999    2.82999992
   16.56944466   81.16510010    0.47999999    2.82999992
   16.57277870   80.81479645    0.50000000    2.82999992
   16.57583427   76.65409851    0.50000000    2.82999992
   16.57666779   73.11889648    0.50000000    2.82999992
   16.57972336   79.38610077    0.50000000    2.82999992
   16.58277893   75.38619995    0.50000000    2.82999992
   16.58611107   75.16870117    0.50000000    2.82999992
   16.58944511   74.59989929    0.51999998    2.82999992
   16.59250069   74.62950134    0.51999998    2.82999992
   16.59583473   75.96600342    0.50000000    2.82999992
   16.60166740   75.96600342    0.50000000    2.82999992
   16.60583305   74.66590118    0.50000000    2.82999992
   16.60916710   75.94200134    0.50000000    2.82999992
   16.61000061   79.08609772    0.50000000    2.82999992
   16.61277771   75.24140167    0.50000000    2.82999992
   16.61583328   75.17169952    0.47999999    2.82999992
   16.61916733   85.38819885    0.50000000    2.82999992
   16.62249947   77.20449829    0.52999997    2.82999992
   16.62555504   78.83180237    0.67000002    2.80999994
   16.62888908   77.56860352    0.67000002    2.82999992
   16.63194466   74.92220306    0.58999997    2.80999994
   16.63527679   76.39170074    0.58999997    2.82999992
   16.63861084   80.54720306    0.56999999    2.82999992
   16.64472198   80.54720306    0.50000000    2.82999992
   16.64861107   75.46219635    0.50000000    2.82999992
   16.65194321   76.67459869    0.50000000    2.82999992
   16.65527725   79.02490234    0.50000000    2.82999992
   16.65833282   78.66510010    0.50000000    2.82999992
   16.66166687   76.42289734    0.50000000    2.82999992
   16.66499901   80.74449921    0.50000000    2.82999992
   16.66805458   76.96579742    0.50000000    2.82999992
   16.67138863   75.56210327    0.50000000    2.82999992
   16.67472076   74.51509857    0.50000000    2.82999992
   16.67666626   76.27449799    0.50000000    2.82999992
   16.67833328   77.34059906    0.50000000    2.82999992
   16.68138885   77.73509979    0.50000000    2.82999992
   16.68750000   77.73509979    0.50000000    2.82999992
   16.69166565   73.95500183    0.50000000    2.82999992
   16.69472122   73.33170319    0.50000000    2.82999992
   16.69805527   75.04139709    0.50000000    2.82999992
   16.70138931   80.16560364    0.47999999    2.82999992
   16.70444489   77.35620117    0.47999999    2.82999992
   16.70777893   82.19020081    0.47999999    2.82999992
   16.71000099   79.17669678    0.47999999    2.82999992
   16.71138954   75.42520142    0.47999999    2.82999992
   16.71444511   74.94599915    0.47999999    2.82999992
   16.71777916   80.81459808    0.47999999    2.82999992
   16.72111130   76.51640320    0.47999999    2.82999992
   16.72416687   78.45960236    0.47999999    2.82999992
   16.73027802   78.45960236    0.47999999    2.82999992
   16.73444557   80.76820374    0.51999998    2.82999992
   16.73777771   79.36419678    0.51999998    2.80999994
   16.74083328   79.01840210    0.51999998    2.82999992
   16.74333382   79.93329620    0.51999998    2.82999992
   16.74472237   77.47370148    0.52999997    2.80999994
   16.74777794   78.59590149    0.51999998    2.82999992
   16.75111198   76.24639893    0.52999997    2.82999992
   16.75444412   77.80909729    0.52999997    2.80999994
   16.75749969   75.26119995    0.52999997    2.80999994
   16.76083374   74.05059814    0.52999997    2.82999992
   16.76416588   77.38449860    0.55000001    2.82999992
   16.76722145   81.82890320    0.52999997    2.82999992
   16.77305603   81.82890320    0.52999997    2.80999994
   16.77722168   78.46620178    0.52999997    2.80999994
   16.78055573   79.48940277    0.52999997    2.82999992
   16.78361130   78.21959686    0.52999997    2.82999992
   16.78694344   81.48739624    0.52999997    2.82999992
   16.79027748   76.68969727    0.51999998    2.82999992
   16.79333305   74.08290100    0.52999997    2.82999992
   16.79666710   76.35839844    0.51999998    2.82999992
   16.79972076   77.72619629    0.51999998    2.82999992
   16.80305481   75.93640137    0.51999998    2.82999992
   16.80638885   77.87069702    0.51999998    2.82999992
   16.80944443   77.21189880    0.52999997    2.82999992
   16.80999947   75.17720032    0.52999997    2.82999992
   16.81583214   75.17720032    0.51999998    2.82999992
   16.82000160   80.77130127    0.51999998    2.82999992
   16.82333374   79.82099915    0.51999998    2.82999992
   16.82666779   78.57469940    0.52999997    2.82999992
   16.82972336   78.32109833    0.52999997    2.82999992
   16.83305550   77.08740234    0.52999997    2.82999992
   16.83638954   72.14469910    0.52999997    2.82999992
   16.83944511   76.83630371    0.52999997    2.82999992
   16.84277916   77.76889801    0.52999997    2.82999992
   16.84333420   80.21219635    0.52999997    2.82999992
   16.84638977   79.39289856    0.51999998    2.82999992
   16.84972191   76.76069641    0.51999998    2.82999992
   16.85277748   77.26670074    0.51999998    2.82999992
   16.85888863   77.26670074    0.51999998    2.82999992
   16.86305618   79.89009857    0.52999997    2.82999992
   16.86611176   79.27310181    0.55000001    2.80999994
   16.86944389   78.59490204    0.55000001    2.82999992
   16.87277794   78.36499786    0.55000001    2.82999992
   16.87583351   76.38320160    0.55000001    2.82999992
   16.87666702   74.14649963    0.55000001    2.82999992
   16.87944412   77.77929688    0.55000001    2.82999992
   16.88277817   74.94120026    0.55000001    2.80999994
   16.88583374   71.96589661    0.55000001    2.80999994
   16.88916588   79.36160278    0.55000001    2.80999994
   16.89249992   78.50340271    0.55000001    2.80999994
   16.89555550   74.81210327    0.56999999    2.80999994
   16.90166664   74.81210327    0.56999999    2.82999992
   16.90583229   77.33719635    0.55000001    2.82999992
   16.90888786   78.41490173    0.55000001    2.82999992
   16.90999985   80.11289978    0.55000001    2.82999992
   16.91250038   77.30090332    0.55000001    2.82999992
   16.91583252   79.60820007    0.55000001    2.82999992
   16.91888809   79.82959747    0.55000001    2.82999992
   16.92222214   80.07389832    0.56999999    2.82999992
   16.92555428   79.18129730    0.56999999    2.82999992
   16.92860985   75.09040070    0.56999999    2.82999992
   16.93194389   77.03780365    0.56999999    2.82999992
   16.93527603   77.30429840    0.56999999    2.82999992
   16.93833160   75.10530090    0.58999997    2.80999994
   16.94444275   75.10530090    0.61000001    2.80999994
   16.94861031   77.23670197    0.61000001    2.82999992
   16.95194435   77.25789642    0.61000001    2.82999992
   16.95499992   75.50930023    0.61000001    2.82999992
   16.95833397   76.77459717    0.61000001    2.80999994
   16.96166801   78.15180206    0.58999997    2.82999992
   16.96472359   73.67539978    0.58999997    2.82999992
   16.96805573   81.05879974    0.58999997    2.80999994
   16.97138977   74.36519623    0.58999997    2.82999992
   16.97444534   76.53690338    0.61000001    2.82999992
   16.97666740   78.49890137    0.58999997    2.82999992
   16.97805595   80.81269836    0.61000001    2.82999992
   16.98139000   78.38980103    0.58999997    2.82999992
   16.98750114   78.38980103    0.58999997    2.82999992
   16.99138832   76.62560272    0.61000001    2.82999992
   16.99472237   75.40339661    0.58999997    2.82999992
   16.99805641   82.18309784    0.58999997    2.82999992
   17.00111198   75.84230042    0.58999997    2.80999994
   17.00444412   75.73600006    0.58999997    2.80999994
   17.00777817   90.00099945    0.58999997    2.80999994
   17.01000023   80.78730011    0.56999999    2.80999994
   17.01138878   79.06099701    0.56999999    2.80999994
   17.01472282   78.66560364    0.56999999    2.80999994
   17.01777840   81.08209991    0.56999999    2.80999994
   17.02111053   78.28399658    0.55000001    2.82999992
   17.02444458   79.00440216    0.55000001    2.82999992
   17.03027725   79.00440216    0.55000001    2.80999994
   17.03444481   74.58950043    0.55000001    2.82999992
   17.03750038   78.57450104    0.55000001    2.82999992
   17.04083252   82.65190125    0.55000001    2.82999992
   17.04333305   86.62000275    0.55000001    2.82999992
   17.04444313   80.31340027    0.55000001    2.82999992
   17.04777718   84.42150116    0.55000001    2.80999994
   17.05083275   80.85959625    0.55000001    2.82999992
   17.05416679   78.15760040    0.55000001    2.82999992
   17.05749893   77.66600037    0.55000001    2.82999992
   17.06055450   80.84989929    0.55000001    2.82999992
   17.06388855   75.18150330    0.55000001    2.82999992
   17.06722260   79.27790070    0.55000001    2.82999992
   17.07305717   79.27790070    0.55000001    2.82999992
   17.07722282   76.40989685    0.55000001    2.82999992
   17.08027840   80.28189850    0.55000001    2.82999992
   17.08361244   80.54540253    0.56999999    2.82999992
   17.08694458   77.77529907    0.56999999    2.82999992
   17.09000015   77.88510132    0.56999999    2.82999992
   17.09333420   77.24130249    0.55000001    2.82999992
   17.09666824   86.91110229    0.56999999    2.82999992
   17.09972191   82.72389984    0.56999999    2.82999992
   17.10305595   78.21199799    0.56999999    2.82999992
   17.10639000   77.01550293    0.56999999    2.82999992
   17.10944557   80.09470367    0.56999999    2.82999992
   17.11027908   87.24210358    0.56999999    2.82999992
   17.11583328   87.24210358    0.56999999    2.82999992
   17.12000084   79.50009918    0.55000001    2.82999992
   17.12333298   79.67530060    0.55000001    2.82999992
   17.12638855   80.28150177    0.55000001    2.82999992
   17.12972260   81.42739868    0.52999997    2.82999992
   17.13305473   83.07119751    0.52999997    2.82999992
   17.13611031   78.26480103    0.52999997    2.82999992
   17.13944435   77.72940063    0.52999997    2.82999992
   17.14249992   86.46700287    0.52999997    2.82999992
   17.14361191   82.64530182    0.52999997    2.82999992
   17.14611053   82.06990051    0.51999998    2.82999992
   17.14944458   80.56390381    0.51999998    2.82999992
   17.15250015   82.27310181    0.52999997    2.82999992
   17.15861130   82.27310181    0.52999997    2.82999992
   17.16277695   81.93599701    0.52999997    2.82999992
   17.16611099   76.20449829    0.52999997    2.82999992
   17.16944313   76.79319763    0.52999997    2.82999992
   17.17249870   78.74179840    0.55000001    2.82999992
   17.17583275   77.36720276    0.56999999    2.80999994
   17.17694473   77.25810242    0.56999999    2.80999994
   17.17944336   81.12750244    0.58999997    2.80999994
   17.18277740   77.32029724    0.56999999    2.82999992
   17.18610954   76.66120148    0.58999997    2.80999994
   17.18916512   75.69650269    0.58999997    2.82999992
   17.19249916   81.12300110    0.58999997    2.82999992
   17.19555473   77.68270111    0.58999997    2.82999992
   17.20166779   77.68270111    0.58999997    2.80999994
   17.20583344   75.13520050    0.58999997    2.80999994
   17.20888901   77.36930084    0.58999997    2.82999992
   17.21027946   84.58329773    0.58999997    2.82999992
   17.21250153   76.07540131    0.58999997    2.82999992
   17.21583366   78.52980042    0.61000001    2.82999992
   17.21916771   76.81729889    0.61000001    2.82999992
   17.22222328   80.80490112    0.61000001    2.80999994
   17.22555542   78.41739655    0.61000001    2.80999994
   17.22861099   77.79650116    0.58999997    2.82999992
   17.23194504   77.66089630    0.58999997    2.80999994
   17.23527718   76.49430084    0.58999997    2.82999992
   17.23833275   74.12039948    0.61000001    2.80999994
   17.24444389   74.12039948    0.61000001    2.82999992
   17.24861145   76.48079681    0.58999997    2.80999994
   17.25194359   74.04450226    0.58999997    2.82999992
   17.25499916   82.25520325    0.61000001    2.82999992
   17.25833321   78.91680145    0.58999997    2.80999994
   17.26138878   73.53639984    0.58999997    2.82999992
   17.26472282   74.43560028    0.56999999    2.82999992
   17.26805496   74.31140137    0.58999997    2.82999992
   17.27111053   77.66639709    0.58999997    2.82999992
   17.27444458   74.47129822    0.61000001    2.82999992
   17.27694511   73.92890167    0.67000002    2.82999992
   17.27805519   74.89189911    0.67000002    2.82999992
   17.28138924   77.00959778    0.67000002    2.82999992
   17.28722191   77.00959778    0.63000000    2.82999992
   17.29138756   80.46700287    0.56999999    2.82999992
   17.29472160   73.45249939    0.56999999    2.82999992
   17.29777718   76.91510010    0.56999999    2.82999992
   17.30111122   73.43659973    0.56999999    2.80999994
   17.30444336   78.07250214    0.56999999    2.82999992
   17.30749893   76.74729919    0.56999999    2.82999992
   17.31027794   79.91100311    0.58999997    2.82999992
   17.31110954   76.16680145    0.58999997    2.82999992
   17.31444359   76.36150360    0.56999999    2.82999992
   17.31777954   80.54489899    0.56999999    2.82999992
   17.32083511   79.86380005    0.56999999    2.82999992
   17.32416725   76.35430145    0.56999999    2.82999992
   17.33000183   76.35430145    0.56999999    2.82999992
   17.33416748   73.87979889    0.56999999    2.82999992
   17.33750153   77.21659851    0.58999997    2.82999992
   17.34083366   78.10289764    0.58999997    2.82999992
   17.34361267   80.13690186    0.58999997    2.82999992
   17.34416771   74.37129974    0.58999997    2.82999992
   17.34749985   81.06539917    0.58999997    2.82999992
   17.35083389   77.21289825    0.61000001    2.82999992
   17.35388947   79.39739990    0.61000001    2.82999992
   17.35722351   77.95500183    0.61000001    2.82999992
   17.36027908   76.93730164    0.61000001    2.82999992
   17.36361122   75.74289703    0.61000001    2.82999992
   17.36694527   75.77249908    0.61000001    2.82999992
   17.37305641   75.77249908    0.63000000    2.80999994
   17.37722206   80.25060272    0.61000001    2.82999992
   17.38027763   74.77459717    0.61000001    2.82999992
   17.38361168   75.23249817    0.61000001    2.82999992
   17.38666725   79.52580261    0.63000000    2.82999992
   17.38999939   75.36209869    0.63000000    2.82999992
   17.39333344   78.30390167    0.63000000    2.82999992
   17.39638901   81.06130219    0.63000000    2.82999992
   17.39972115   80.43640137    0.63000000    2.82999992
   17.40305519   -1.00000000    0.63000000    2.80999994
   17.40638924  100.98899841    0.63000000    2.82999992
   17.40944481   76.56169891    0.63000000    2.80999994
   17.41027832   75.64749908    0.61000001    2.80999994
   17.41583252   75.64749908    0.61000001    2.82999992
   17.42000008   77.92259979    0.61000001    2.82999992
   17.42305565   75.87110138    0.61000001    2.82999992
   17.42638779   73.44779968    0.63000000    2.82999992
   17.44388771   79.47579956    0.63000000    2.80999994
   17.44638824   78.70529938    0.63000000    2.80999994
   17.44972038   79.22059631    0.63000000    2.80999994
   17.45277786   78.19519806    0.63000000    2.82999992
   17.45888901   78.19519806    0.63000000    2.82999992
   17.46305656   81.02210236    0.61000001    2.82999992
   17.46611214   76.74819946    0.58999997    2.82999992
   17.46944427   77.59580231    0.61000001    2.80999994
   17.47277832   78.42400360    0.58999997    2.80999994
   17.47583389   75.37329865    0.58999997    2.80999994
   17.47722244   79.12059784    0.58999997    2.82999992
   17.47972298   75.22859955    0.58999997    2.82999992
   17.48277855   74.58100128    0.58999997    2.82999992
   17.48611069   73.61260223    0.58999997    2.82999992
   17.48944473   78.92780304    0.58999997    2.82999992
   17.49250031   79.10340118    0.58999997    2.82999992
   17.49583435   77.27700043    0.58999997    2.82999992
   17.50166702   77.27700043    0.61000001    2.80999994
   17.50583267   78.36609650    0.61000001    2.82999992
   17.50916672   75.07640076    0.61000001    2.82999992
   17.51055527   74.84239960    0.61000001    2.82999992
   17.51277733   77.98819733    0.64999998    2.80999994
   17.51611137   76.44799805    0.63000000    2.82999992
   17.51916695   76.44589996    0.63000000    2.80999994
   17.52249908   74.17710114    0.64999998    2.82999992
   17.52583313   78.84680176    0.67000002    2.82999992
   17.52888870   75.07019806    0.64999998    2.82999992
   17.53222275   75.79429626    0.67000002    2.82999992
   17.53527641   76.93190002    0.67000002    2.80999994
   17.53861046   77.38970184    0.67000002    2.80999994
   17.54444313   77.38970184    0.67000002    2.80999994
   17.54861069   75.32810211    0.69000000    2.82999992
   17.55194283   75.90650177    0.67000002    2.82999992
   17.55527687   74.36430359    0.69000000    2.80999994
   17.55833244   79.98729706    0.70999998    2.80999994
   17.56166649   76.96749878    0.73000002    2.80999994
   17.56472206   79.99819946    0.69000000    2.82999992
   17.56805611   79.98010254    0.69000000    2.80999994
   17.57139015   76.75379944    0.69000000    2.80999994
   17.57444572   81.19879913    0.69000000    2.80999994
   17.57722282   75.05819702    0.67000002    2.80999994
   17.57833481   76.80149841    0.67000002    2.80999994
   17.58139038   74.21540070    0.67000002    2.80999994
   17.58750153   74.21540070    0.67000002    2.80999994
   17.59138870   76.30319977    0.69000000    2.80999994
   17.59472275   77.21459961    0.67000002    2.82999992
   17.59805679   79.33940125    0.64999998    2.82999992
   17.60111237   80.35500336    0.67000002    2.80999994
   17.60444450   72.88189697    0.64999998    2.80999994
   17.60777855   77.32990265    0.64999998    2.80999994
   17.61055565   76.23439789    0.64999998    2.80999994
   17.61138916   72.77860260    0.67000002    2.80999994
   17.61472321   74.11489868    0.67000002    2.80999994
   17.61777878   75.39939880    0.67000002    2.80999994
   17.62111092   76.76809692    0.67000002    2.80999994
   17.62444496   79.00299835    0.67000002    2.80999994
   17.63027763   79.00299835    0.67000002    2.82999992
   17.63444519   76.30449677    0.67000002    2.82999992
   17.63750076   75.04370117    0.67000002    2.82999992
   17.64083290   75.90740204    0.70999998    2.80999994
   17.64388847   77.57990265    0.70999998    2.80999994
   17.64444351   75.23529816    0.70999998    2.80999994
   17.64749908   74.60530090    0.70999998    2.80999994
   17.65083313   75.48519897    0.70999998    2.80999994
   17.65416718   75.74330139    0.73000002    2.80999994
   17.65722275   71.84230042    0.73000002    2.82999992
   17.66055489   73.85469818    0.73000002    2.80999994
   17.66388893   72.85890198    0.73000002    2.80999994
   17.66694450   72.73539734    0.73000002    2.82999992
   17.67305565   72.73539734    0.73000002    2.82999992
   17.67722130   77.27390289    0.70999998    2.80999994
   17.67777634   76.20800018    0.70999998    2.80999994
   17.68083191   77.44360352    0.73000002    2.80999994
   17.68416595   74.88780212    0.73000002    2.80999994
   17.68750000   74.14959717    0.73000002    2.80999994
   17.69055557   74.48560333    0.73000002    2.80999994
   17.69388771   77.51570129    0.73000002    2.80999994
   17.69722176   74.45120239    0.73000002    2.80999994
   17.70027924   75.96289825    0.73000002    2.80999994
   17.70361137   75.31549835    0.75000000    2.82999992
   17.70694542   77.49220276    0.73000002    2.82999992
   17.71000099   73.69069672    0.73000002    2.82999992
   17.71055603   75.56919861    0.73000002    2.82999992
   17.71583366   75.56919861    0.73000002    2.80999994
   17.72000122   75.31710052    0.70999998    2.82999992
   17.72333336   73.86900330    0.70999998    2.80999994
   17.72666740   74.09049988    0.70999998    2.80999994
   17.72972298   77.94550323    0.69000000    2.80999994
   17.73305511   73.57710266    0.69000000    2.80999994
   17.73611069   75.71569824    0.69000000    2.82999992
   17.73944473   75.42060089    0.70999998    2.80999994
   17.74277878   76.49099731    0.69000000    2.80999994
   17.74388885   75.91470337    0.69000000    2.80999994
   17.74638939   77.51149750    0.69000000    2.80999994
   17.74972153   79.90139771    0.69000000    2.80999994
   17.75277710   75.34069824    0.70999998    2.80999994
   17.75888824   75.34069824    0.70999998    2.80999994
   17.76277733   74.34079742    0.73000002    2.82999992
   17.76611137   78.71080017    0.73000002    2.80999994
   17.76944351   76.94390106    0.73000002    2.82999992
   17.77249908   75.59200287    0.73000002    2.80999994
   17.77583313   75.09760284    0.73000002    2.80999994
   17.77722168   77.03749847    0.73000002    2.80999994
   17.77944374   74.41380310    0.75000000    2.80999994
   17.78277779   75.42859650    0.75000000    2.80999994
   17.78583336   75.51609802    0.75000000    2.82999992
   17.78916550   74.09449768    0.75000000    2.80999994
   17.79222107   73.67479706    0.76999998    2.80999994
   17.79555511   73.31369781    0.76999998    2.80999994
   17.80166626   73.31369781    0.75000000    2.80999994
   17.80583191   76.61509705    0.76999998    2.80999994
   17.80888748   72.22280121    0.76999998    2.80999994
   17.81055450   78.22380066    0.76999998    2.80999994
   17.81250000   78.73590088    0.76999998    2.82999992
   17.81555557   77.76609802    0.75000000    2.80999994
   17.81888962   74.79119873    0.75000000    2.80999994
   17.82222366   75.12419891    0.75000000    2.80999994
   17.82527924   74.96420288    0.75000000    2.80999994
   17.82888985   75.39620209    0.76999998    2.80999994
   17.83194542   79.26519775    0.79000002    2.80999994
   17.83527756   78.98120117    0.79000002    2.80999994
   17.83861160   79.47470093    0.79000002    2.80999994
   17.84444427   79.47470093    0.80000001    2.80999994
   17.84861183   74.28399658    0.80000001    2.80999994
   17.85194397   76.63710022    0.81999999    2.80999994
   17.85499954   78.15930176    0.81999999    2.80999994
   17.85833359   77.08119965    0.83999997    2.80999994
   17.86138916   77.59780121    0.86000001    2.80999994
   17.86472321   76.30919647    0.86000001    2.80999994
   17.86805534   79.63379669    0.88000000    2.80999994
   17.87111092   79.81900024    0.88000000    2.80999994
   17.87444496   76.14700317    0.88000000    2.78999996
   17.87722206   73.25350189    0.88000000    2.78999996
   17.87805557   78.89379883    0.88000000    2.78999996
   17.88138962   78.59120178    0.86000001    2.80999994
   17.88722229   78.59120178    0.83999997    2.80999994
   17.89138794   76.55970001    0.83999997    2.80999994
   17.89472198   78.53780365    0.83999997    2.80999994
   17.89777756   77.47859955    0.88000000    2.80999994
   17.90111160   80.12480164    0.89999998    2.80999994
   17.90444374   77.96730042    0.89999998    2.80999994
   17.90749931   78.79049683    0.94000000    2.80999994
   17.91055489   75.16190338    0.94000000    2.80999994
   17.91110992   78.17050171    0.94000000    2.80999994
   17.91444397   77.03369904    0.94000000    2.80999994
   17.91749954   79.12339783    0.94000000    2.80999994
   17.92083359   78.98500061    0.94000000    2.80999994
   17.92416573   75.91719818    0.94000000    2.80999994
   17.93027687   75.91719818    0.98000002    2.80999994
   17.93416595   74.92859650    1.00000000    2.80999994
   17.93750000   75.99859619    1.03999996    2.82999992
   17.94083214   77.62079620    1.03999996    2.82999992
   17.94388771   80.79329681    0.98000002    2.80999994
   17.94444275   77.33219910    0.98000002    2.80999994
   17.94777679   75.33239746    0.95999998    2.80999994
   17.95083427   80.04509735    0.98000002    2.80999994
   17.95416832   80.93440247    0.95999998    2.80999994
   17.95750046   77.24160004    0.98000002    2.80999994
   17.96055603   77.82250214    0.98000002    2.80999994
   17.96389008   78.40930176    1.11000001    2.80999994
   17.96694565   83.74849701    1.13000000    2.80999994
   17.97305679   83.74849701    1.09000003    2.78999996
   17.97722244   78.18460083    1.09000003    2.78999996
   17.97777748   81.63420105    1.09000003    2.78999996
   17.98083305   79.28510284    1.05999994    2.80999994
   17.98416710   75.12960052    1.00000000    2.80999994
   17.98750114   79.50990295    1.01999998    2.80999994
   17.99055672   81.47699738    1.01999998    2.80999994
   17.99388885   78.78309631    1.03999996    2.78999996
   17.99722290   77.24780273    1.01999998    2.80999994
   18.00027847   78.59400177    0.98000002    2.80999994
   18.00361061   76.02629852    0.95999998    2.80999994
   18.00666618   76.49770355    0.95999998    2.80999994
   18.01000023   78.11789703    0.94000000    2.80999994
   18.01111031   79.98549652    0.94000000    2.80999994
   18.01583290   79.98549652    0.92000002    2.80999994
   18.02000046   80.48509979    0.92000002    2.78999996
   18.02333260   75.62580109    0.92000002    2.80999994
   18.02638817   78.49990082    0.92000002    2.80999994
   18.02972221   75.03890228    0.92000002    2.80999994
   18.03305435   77.79740143    0.92000002    2.80999994
   18.03610992   81.62909698    0.92000002    2.80999994
   18.03944397   76.37599945    0.92000002    2.80999994
   18.04277802   75.02940369    0.92000002    2.78999996
   18.04444313   76.78029633    0.94000000    2.78999996
   18.04611015   76.62580109    0.94000000    2.78999996
   18.04944420   78.99600220    0.98000002    2.80999994
   18.05277634   75.12850189    1.03999996    2.78999996
   18.05861092   75.12850189    1.05999994    2.80999994
   18.06277657   73.98840332    1.03999996    2.78999996
   18.06611061   73.68779755    1.01999998    2.80999994
   18.06916809   77.57569885    1.01999998    2.80999994
   18.07250023   75.19580078    0.95999998    2.80999994
   18.07583427   75.33209991    0.94000000    2.80999994
   18.07777786   81.17389679    0.94000000    2.80999994
   18.07916832   83.87079620    0.92000002    2.80999994
   18.08250046   76.82939911    0.92000002    2.80999994
   18.08583450   77.48719788    0.89999998    2.80999994
   18.08889008   78.23970032    0.86000001    2.80999994
   18.09222221   84.74759674    0.86000001    2.82999992
   18.09555626   81.20719910    0.86000001    2.80999994
   18.10138893   81.20719910    0.83999997    2.80999994
   18.10555649   78.24810028    0.81999999    2.80999994
   18.10888863   78.31069946    0.80000001    2.80999994
   18.11111069   73.58319855    0.80000001    2.80999994
   18.11250114   78.68769836    0.80000001    2.80999994
   18.11583328   77.89579773    0.80000001    2.80999994
   18.11916733   78.01940155    0.80000001    2.80999994
   18.12222290   77.80069733    0.81999999    2.80999994
   18.12555504   77.66850281    0.83999997    2.82999992
   18.12888908   76.61879730    0.83999997    2.82999992
   18.13194466   74.63890076    0.88000000    2.80999994
   18.13527679   73.22760010    0.88000000    2.80999994
   18.13833237   75.73850250    0.88000000    2.80999994
   18.14444351   75.73850250    0.86000001    2.80999994
   18.14861107   76.57279968    0.83999997    2.80999994
   18.15166664   75.77570343    0.81999999    2.80999994
   18.15499878   79.58509827    0.83999997    2.80999994
   18.15805435   75.92859650    0.86000001    2.80999994
   18.16138840   77.93869781    0.83999997    2.80999994
   18.16472244   77.12419891    0.83999997    2.80999994
   18.16777802   78.83309937    0.83999997    2.80999994
   18.17111015   76.22820282    0.81999999    2.82999992
   18.17444420   76.42120361    0.81999999    2.80999994
   18.17749977   75.56870270    0.81999999    2.80999994
   18.17805481   76.35019684    0.83999997    2.80999994
   18.18138885   75.24729919    0.83999997    2.80999994
   18.18722153   75.24729919    0.83999997    2.82999992
   18.19138718   77.62400055    0.86000001    2.80999994
   18.19444275   76.75140381    0.89999998    2.80999994
   18.19777679   79.88639832    0.89999998    2.80999994
   18.20111275   78.10389709    0.86000001    2.80999994
   18.20416832   74.61090088    0.92000002    2.80999994
   18.20750046   73.23449707    0.92000002    2.80999994
   18.21083450   75.90450287    0.92000002    2.80999994
   18.21138954   76.25959778    0.92000002    2.80999994
   18.21444511   77.40820313    0.94000000    2.80999994
   18.21750069   77.02189636    0.98000002    2.80999994
   18.22083473   75.11430359    1.03999996    2.80999994
   18.22416687   76.64279938    0.98000002    2.80999994
   18.23000145   76.64279938    0.88000000    2.80999994
   18.23416710   74.97149658    0.83999997    2.80999994
   18.23750114   76.42559814    0.83999997    2.78999996
   18.24055672   73.08480072    0.83999997    2.78999996
   18.24388885   77.52510071    0.83999997    2.78999996
   18.24472237   73.46700287    0.81999999    2.80999994
   18.24749947   75.53140259    0.81999999    2.80999994
   18.25055504   80.78579712    0.81999999    2.80999994
   18.25388908   78.31009674    0.81999999    2.80999994
   18.25722313   77.53780365    0.81999999    2.80999994
   18.26027870   76.06310272    0.81999999    2.80999994
   18.26361084   76.59539795    0.80000001    2.80999994
   18.26694489   81.67630005    0.81999999    2.78999996
   18.27277756   81.67630005    0.88000000    2.80999994
   18.27694511   76.84400177    0.86000001    2.80999994
   18.27805519   76.90619659    0.88000000    2.80999994
   18.28083229   73.52690125    0.89999998    2.80999994
   18.28388786   77.70529938    0.89999998    2.80999994
   18.28722191   81.11450195    0.92000002    2.80999994
   18.29055595   78.91660309    0.94000000    2.78999996
   18.29361153   80.11849976    0.94000000    2.80999994
   18.29694366   76.88310242    0.94000000    2.80999994
   18.30027771   73.45510101    0.94000000    2.80999994
   18.30333328   77.34369659    0.94000000    2.80999994
   18.30666542   78.12310028    0.95999998    2.80999994
   18.30972099   76.48760223    0.95999998    2.80999994
   18.31138802   73.15350342    0.92000002    2.78999996
   18.31583214   73.15350342    0.94000000    2.78999996
   18.32000160   75.21109772    0.94000000    2.78999996
   18.32305717   75.06559753    0.94000000    2.78999996
   18.32638931   77.63259888    0.94000000    2.78999996
   18.32972336   75.36599731    0.94000000    2.78999996
   18.33277893   78.37020111    0.95999998    2.80999994
   18.33611107   85.31649780    0.95999998    2.80999994
   18.33916664   82.60729980    0.98000002    2.78999996
   18.34250069   84.58450317    0.98000002    2.78999996
   18.34472275   79.74030304    0.98000002    2.78999996
   18.34611130   77.09549713    0.98000002    2.78999996
   18.34944534   79.71389771    0.95999998    2.78999996
   18.35250092   87.22730255    0.94000000    2.80999994
   18.35861206   87.22730255    0.94000000    2.80999994
   18.36277771   78.17120361    0.94000000    2.80999994
   18.36611176   75.00659943    0.92000002    2.80999994
   18.36916733   80.52359772    0.94000000    2.80999994
   18.37249947   77.83329773    0.94000000    2.78999996
   18.37583351   76.65480042    0.94000000    2.80999994
   18.37805557   79.09780121    0.94000000    2.80999994
   18.37944412   76.69349670    0.94000000    2.78999996
   18.38277817   75.20290375    0.94000000    2.78999996
   18.38583374   75.88330078    0.92000002    2.78999996
   18.38916588   77.26139832    0.94000000    2.78999996
   18.39222145   84.09400177    0.94000000    2.80999994
   18.39555550   74.38960266    0.94000000    2.78999996
   18.40138817   74.38960266    0.95999998    2.78999996
   18.40555573   80.01029968    0.95999998    2.78999996
   18.40888786   77.12290192    0.94000000    2.78999996
   18.41138840   75.35669708    0.94000000    2.78999996
   18.41250038   76.37680054    0.94000000    2.78999996
   18.41583252   74.89499664    0.94000000    2.78999996
   18.41888809   75.73149872    0.94000000    2.78999996
   18.42222214   76.02159882    0.92000002    2.78999996
   18.42527771   81.44920349    0.92000002    2.78999996
   18.42860985   77.90370178    0.89999998    2.78999996
   18.43194389   76.52929688    0.92000002    2.78999996
   18.43499947   79.75720215    0.92000002    2.78999996
   18.43833160   77.04409790    0.92000002    2.78999996
   18.44416618   77.04409790    0.92000002    2.78999996
   18.46277809   83.92780304    1.03999996    2.78999996
   18.46583366   82.26950073    1.03999996    2.80999994
   18.46916771   78.19899750    1.03999996    2.78999996
   18.47249985   77.83499908    1.03999996    2.78999996
   18.47555542   78.85489655    1.05999994    2.78999996
   18.47888947   74.70980072    1.09000003    2.78999996
   18.48194504   76.93640137    1.13000000    2.78999996
   18.48750114   76.93640137    1.13000000    2.78999996
   18.49166679   76.38330078    1.13000000    2.78999996
   18.49472237   75.16390228    1.13000000    2.78999996
   18.49583435   81.34049988    1.14999998    2.78999996
   18.49833298   76.83580017    1.14999998    2.78999996
   18.50166702   77.47480011    1.14999998    2.78999996
   18.50499916   74.84829712    1.11000001    2.78999996
   18.50805473   76.30549622    1.11000001    2.78999996
   18.51138878   76.31880188    1.09000003    2.78999996
   18.51444435   76.78330231    1.09000003    2.78999996
   18.51777840   77.15730286    1.09000003    2.78999996
   18.52111053   78.08339691    1.09000003    2.78999996
   18.52416611   78.24520111    1.07000005    2.78999996
   18.53027725   78.24520111    1.11000001    2.78999996
   18.53444481   76.10759735    1.13000000    2.78999996
   18.53750038   75.05639648    1.14999998    2.78999996
   18.54083252   79.03410339    1.14999998    2.78999996
   18.54416656   80.05970001    1.11000001    2.78999996
   18.54749870   76.06179810    1.07000005    2.78999996
   18.55055428   79.23020172    1.05999994    2.76999998
   18.55388832   78.00550079    1.01999998    2.78999996
   18.55694389   78.12830353    1.01999998    2.78999996
   18.56027794   81.44550323    1.01999998    2.78999996
   18.56250000   78.98840332    1.05999994    2.76999998
   18.56388855   80.13009644    1.05999994    2.78999996
   18.56722260   77.09220123    1.11000001    2.78999996
   18.57305717   77.09220123    1.13000000    2.78999996
   18.57722282   74.72779846    1.13000000    2.78999996
   18.58027840   81.62960052    1.14999998    2.78999996
   18.58361244   77.84429932    1.19000006    2.78999996
   18.58694458   79.16380310    1.23000002    2.78999996
   18.59000015   76.84980011    1.21000004    2.76999998
   18.59333420   75.94770050    1.21000004    2.76999998
   18.59583473   74.84670258    1.19000006    2.76999998
   18.59694481   77.58170319    1.19000006    2.76999998
   18.60027885   78.36750031    1.16999996    2.78999996
   18.60361099   75.95510101    1.19000006    2.78999996
   18.60666656   75.70349884    1.25000000    2.78999996
   18.61000061   74.75479889    1.26999998    2.78999996
   18.61583328   74.75479889    1.21000004    2.78999996
   18.62000084   75.10019684    1.21000004    2.76999998
   18.62333298   75.66439819    1.19000006    2.78999996
   18.62638855   78.22850037    1.19000006    2.76999998
   18.62916756   73.51959991    1.23000002    2.76999998
   18.63000107   78.36599731    1.23000002    2.76999998
   18.63333321   75.07640076    1.33000004    2.78999996
   18.63666725   79.60569763    1.34000003    2.78999996
   18.63972282   77.36720276    1.34000003    2.76999998
   18.64305496   78.86740112    1.33000004    2.76999998
   18.64611053   83.91130066    1.33000004    2.76999998
   18.64944458   79.57620239    1.33000004    2.76999998
   18.65277672   78.77189636    1.33000004    2.76999998
   18.65888786   78.77189636    1.23000002    2.78999996
   18.66277695   76.07869720    1.21000004    2.76999998
   18.66611099   73.26100159    1.21000004    2.76999998
   18.66944313   74.51840210    1.23000002    2.78999996
   18.67249870   75.27010345    1.25000000    2.78999996
   18.67583275   75.87819672    1.25000000    2.78999996
   18.67916679   76.26550293    1.19000006    2.76999998
   18.68222237   78.64019775    1.11000001    2.76999998
   18.68555450   81.23909760    1.11000001    2.76999998
   18.68888855   77.72250366    1.07000005    2.76999998
   18.69194412   76.37870026    0.98000002    2.76999998
   18.69527626   76.27729797    0.98000002    2.78999996
   18.69583321   75.94219971    0.98000002    2.76999998
   18.70166779   75.94219971    0.98000002    2.78999996
   18.70583344   76.52459717    0.98000002    2.78999996
   18.70888901   76.64869690    0.98000002    2.76999998
   18.71222305   77.25499725    0.98000002    2.76999998
   18.71555710   79.29889679    0.98000002    2.78999996
   18.71861076   78.56410217    0.98000002    2.78999996
   18.72194481   75.16709900    1.00000000    2.78999996
   18.72527885   74.28500366    1.00000000    2.78999996
   18.72833443   72.84279633    1.03999996    2.76999998
   18.72916794   73.92099762    1.03999996    2.76999998
   18.73194504   78.33039856    1.03999996    2.78999996
   18.73527718   74.32579803    1.03999996    2.78999996
   18.73861122   77.38480377    1.07000005    2.76999998
   18.74444389   77.38480377    1.13000000    2.76999998
   18.74861145   77.48069763    1.11000001    2.76999998
   18.75194359   76.91079712    1.09000003    2.76999998
   18.75499916   75.03869629    1.11000001    2.76999998
   18.75833321   73.46640015    1.09000003    2.78999996
   18.76138878   75.19850159    1.13000000    2.78999996
   18.76250076   74.07640076    1.14999998    2.78999996
   18.76499939   75.60109711    1.14999998    2.76999998
   18.76833344   75.86519623    1.19000006    2.76999998
   18.77166557   78.28540039    1.21000004    2.78999996
   18.77472115   78.49490356    1.19000006    2.76999998
   18.77805519   73.46759796    1.16999996    2.76999998
   18.78111076   73.26029968    1.16999996    2.76999998
   18.78722191   73.26029968    1.13000000    2.76999998
   18.79138756   77.78679657    1.05999994    2.78999996
   18.79500008   74.59799957    1.13000000    2.76999998
   18.79583359   77.40750122    1.11000001    2.76999998
   18.79861069   76.91429901    1.21000004    2.76999998
   18.80194283   77.58229828    1.11000001    2.78999996
   18.80527687   74.95580292    1.13000000    2.76999998
   18.80833244   73.56099701    1.14999998    2.76999998
   18.81166649   76.48390198    1.14999998    2.76999998
   18.81472206   75.91760254    1.13000000    2.76999998
   18.81805611   81.59040070    1.07000005    2.76999998
   18.82139015   78.84719849    1.07000005    2.76999998
   18.82444572   79.43080139    1.07000005    2.76999998
   18.83000183   79.43080139    1.01999998    2.76999998
   18.83416748   78.90689850    1.03999996    2.78999996
   18.83750153   77.01860046    1.01999998    2.76999998
   18.84083366   78.24579620    1.03999996    2.76999998
   18.84388924   78.49549866    1.03999996    2.76999998
   18.84722328   81.03739929    1.21000004    2.76999998
   18.85055542   74.06800079    1.21000004    2.76999998
   18.85361099   76.60739899    1.21000004    2.76999998
   18.85694504   75.59239960    1.23000002    2.76999998
   18.86000061   75.28130341    1.34000003    2.76999998
   18.86250114   77.31279755    1.38000000    2.76999998
   18.86361122   75.39949799    1.38000000    2.76999998
   18.86694527   75.67440033    1.41999996    2.76999998
   18.87305641   75.67440033    1.48000002    2.75000000
   18.87722206   76.58180237    1.48000002    2.76999998
   18.88027763   75.00820160    1.50000000    2.76999998
   18.88361168   74.34510040    1.50000000    2.75000000
   18.88694382   77.19490051    1.53999996    2.75000000
   18.88999939   75.77700043    1.60000002    2.76999998
   18.89333344   78.58149719    1.61000001    2.75000000
   18.89583397   75.61849976    1.60000002    2.75000000
   18.89694405   76.57160187    1.60000002    2.75000000
   18.89999962   73.83070374    1.61000001    2.76999998
   18.90333366   80.71929932    1.61000001    2.76999998
   18.90638924   79.15409851    1.64999998    2.75000000
   18.90972137   78.42330170    1.69000006    2.75000000
   18.91583252   78.42330170    1.80999994    2.75000000
   18.92000008   76.92420197    1.86000001    2.75000000
   18.92305565   77.83090210    1.86000001    2.75000000
   18.92638779   74.16660309    1.85000002    2.75000000
   18.92916679   78.95429993    1.85000002    2.75000000
   18.93027687   75.93270111    1.85000002    2.75000000
   18.93333244   76.58979797    1.88000000    2.76999998
   18.93666649   77.43890381    1.86000001    2.75000000
   18.93972206   75.90119934    1.88000000    2.75000000
   18.94305420   76.38439941    1.88000000    2.75000000
   18.94638824   76.39450073    1.83000004    2.75000000
   18.94944382   74.24019623    1.80999994    2.75000000
   18.95277786   76.14679718    1.78999996    2.75000000
   18.95861244   76.14679718    1.80999994    2.75000000
   18.96277809   79.92479706    1.80999994    2.75000000
   18.96611214   79.65329742    1.80999994    2.75000000
   18.96944427   78.79759979    1.78999996    2.75000000
   18.97249985   77.60669708    1.73000002    2.75000000
   18.97583389   76.14099884    1.64999998    2.75000000
   18.97888947   78.73159790    1.60000002    2.75000000
   18.98222351   78.08609772    1.60000002    2.75000000
   18.98555565   84.05740356    1.60000002    2.75000000
   18.98861122   77.38130188    1.60000002    2.75000000
   18.99194527   85.62989807    1.55999994    2.75000000
   18.99527740   73.26599884    1.53999996    2.75000000
   18.99583435   80.33969879    1.53999996    2.75000000
   19.00138855   80.33969879    1.41999996    2.75000000
   19.00555611   83.24359894    1.39999998    2.75000000
   19.00888824   77.80909729    1.39999998    2.75000000
   19.01222229   78.44899750    1.38000000    2.75000000
   19.01527786   81.69300079    1.41999996    2.75000000
   19.01861000   77.58300018    1.39999998    2.75000000
   19.02166557   79.98329926    1.41999996    2.75000000
   19.02499962   80.24150085    1.41999996    2.75000000
   19.02833366   78.53379822    1.41999996    2.75000000
   19.02916718   78.52459717    1.41999996    2.75000000
   19.03166580   74.72419739    1.41999996    2.75000000
   19.03499985   77.77629852    1.41999996    2.73000002
   19.03833199   76.82550049    1.41999996    2.75000000
   19.04444313   76.82550049    1.41999996    2.75000000
   19.04861069   76.71479797    1.41999996    2.75000000
   19.05166626   77.88279724    1.41999996    2.75000000
   19.05499840   77.39189911    1.38000000    2.75000000
   19.05833244   73.96130371    1.36000001    2.75000000
   19.06138802   78.31900024    1.36000001    2.75000000
   19.06250000   78.21479797    1.36000001    2.75000000
   19.06527710   74.66519928    1.36000001    2.75000000
   19.06833458   74.99520111    1.36000001    2.75000000
   19.07166672   73.65550232    1.36000001    2.75000000
   19.07500076   78.78890228    1.38000000    2.75000000
   19.07805634   78.26029968    1.39999998    2.75000000
   19.08139038   79.81659698    1.39999998    2.75000000
   19.08722305   79.81659698    1.41999996    2.75000000
   19.09138870   77.04489899    1.53999996    2.75000000
   19.09444427   79.91220093    1.58000004    2.75000000
   19.09583473   79.79910278    1.60000002    2.75000000
   19.09833336   75.75589752    1.60000002    2.75000000
   19.10138893   78.40080261    1.60000002    2.75000000
   19.10472298   82.61070251    1.58000004    2.75000000
   19.10805511   83.01899719    1.60000002    2.75000000
   19.11111069   75.42009735    1.60000002    2.73000002
   19.11444473   78.46369934    1.60000002    2.73000002
   19.11777878   77.12760162    1.61000001    2.75000000
   19.12083435   76.43589783    1.61000001    2.75000000
   19.12416649   75.40699768    1.60000002    2.75000000
   19.13000107   75.40699768    1.61000001    2.75000000
   19.13416672   76.01059723    1.61000001    2.73000002
   19.13750076   77.75980377    1.61000001    2.73000002
   19.14055634   78.37149811    1.60000002    2.75000000
   19.14388847   77.94960022    1.61000001    2.73000002
   19.14722252   82.51260376    1.61000001    2.75000000
   19.15027809   80.18569946    1.61000001    2.75000000
   19.15361023   76.22460175    1.66999996    2.73000002
   19.15694427   78.40740204    1.69000006    2.73000002
   19.15999985   77.99440002    1.66999996    2.73000002
   19.16250038   81.51319885    1.66999996    2.73000002
   19.16388893   78.40290070    1.66999996    2.73000002
   19.16694450   76.37100220    1.66999996    2.73000002
   19.17277718   76.37100220    1.73000002    2.73000002
   19.17694473   78.88529968    1.71000004    2.73000002
   19.18027687   74.86090088    1.75000000    2.75000000
   19.18361092   73.25009918    1.73000002    2.73000002
   19.18666649   78.52549744    1.83000004    2.75000000
   19.18999863   80.95240021    1.88000000    2.75000000
   19.19333267   82.97699738    1.88000000    2.75000000
   19.19583321   81.91220093    2.28999996    2.73000002
   19.19694328   75.92659760    2.28999996    2.73000002
   19.20000076   75.83670044    2.30999994    2.73000002
   19.20333481   75.90570068    2.40000010    2.73000002
   19.20639038   75.95249939    2.48000002    2.73000002
   19.20972252   76.99060059    2.50000000    2.73000002
   19.21583366   76.99060059    2.34999990    2.73000002
   19.22000122   82.03430176    2.40000010    2.73000002
   19.22305679   77.50720215    2.53999996    2.73000002
   19.22638893   79.60540009    2.66000009    2.71000004
   19.22916794   74.12969971    2.76999998    2.71000004
   19.23000145   74.46459961    2.82999992    2.73000002
   19.23305511   77.16040039    2.98000002    2.71000004
   19.23638916   80.28260040    3.05999994    2.71000004
   19.23944473   76.78009796    3.11999989    2.73000002
   19.24277878   75.59739685    3.39000010    2.71000004
   19.24611092   75.05349731    3.45000005    2.71000004
   19.45666695   -1.00000000    3.57999992    2.69000006
   19.46000099   -1.00000000    3.57999992    2.71000004
   19.46333504   -1.00000000    3.53999996    2.71000004
   19.46638870   -1.00000000    3.53999996    2.71000004
   19.46972275   -1.00000000    3.57999992    2.69000006
   19.51166725   -1.00000000   -1.00000000   -1.00000000
   19.52805519   -1.00000000   -1.00000000   -1.00000000
   19.55083275   66.03160095    3.95000005    2.69000006
   19.55388832   77.65119934    3.91000009    2.67000008
   19.55722237   78.45490265    3.84999990    2.67000008
   19.56055450   79.63069916    3.80999994    2.69000006
   19.56361008   84.47280121    3.80999994    2.69000006
   19.56694603   78.41699982    3.78999996    2.69000006
   19.57111168   78.41699982    3.70000005    2.67000008
   19.57527924   80.51200104    3.66000009    2.69000006
   19.57833481   77.32430267    3.57999992    2.69000006
   19.58166695   78.98919678    3.48000002    2.67000008
   19.58388901   78.68360138    3.43000007    2.69000006
   19.58555603   78.64929962    3.43000007    2.69000006
   19.58861160   78.25389862    3.36999989    2.67000008
   19.59194565   77.11869812    3.26999998    2.69000006
   19.59527779   76.40889740    3.00000000    2.69000006
   19.59833336   75.45490265    2.94000006    2.69000006
   19.60166740   74.96640015    2.93000007    2.69000006
   19.60499954   75.43979645    2.93000007    2.69000006
   19.60805511   76.95210266    2.86999989    2.69000006
   19.61388969   76.95210266    2.80999994    2.69000006
   19.61805534   77.62370300    2.80999994    2.69000006
   19.62138939   78.16840363    2.78999996    2.69000006
   19.62444496   76.10810089    2.86999989    2.69000006
   19.62777710   76.51830292    3.00000000    2.69000006
   19.63111115   75.52369690    3.00000000    2.69000006
   19.63416672   80.11229706    3.00000000    2.67000008
   19.63750076   76.15390015    2.96000004    2.67000008
   19.64083290   81.96880341    3.11999989    2.67000008
   19.64388847   78.71690369    3.09999990    2.67000008
   19.64722252   79.74060059    3.16000009    2.67000008
   19.65027809   78.55039978    3.20000005    2.67000008
   19.65083313   75.92299652    3.20000005    2.67000008
   19.65694427   75.92299652    3.11999989    2.67000008
   19.66083336   80.80979919    3.05999994    2.67000008
   19.66416550   83.60649872    3.14000010    2.67000008
   19.66749954   81.78810120    3.11999989    2.67000008
   19.67055511   78.16870117    3.14000010    2.67000008
   19.67388916   76.84269714    3.14000010    2.67000008
   19.67722130   79.09510040    3.14000010    2.67000008
   19.68027687   81.37519836    3.09999990    2.66000009
   19.68361092   82.25810242    3.01999998    2.67000008
   19.68416595   78.85540009    2.98000002    2.67000008
   19.68722153   78.04209900    2.98000002    2.67000008
   19.69055557   88.32409668    2.98000002    2.67000008
   19.69361115   88.41410065    3.00000000    2.66000009
   19.69972038   88.41410065    3.00000000    2.67000008
   19.70388985   81.56719971    2.94000006    2.67000008
   19.70694542   84.45310211    2.93000007    2.67000008
   19.71027946   77.46369934    2.94000006    2.66000009
   19.71361160   80.70169830    3.00000000    2.66000009
   19.71666718   80.39630127    3.03999996    2.67000008
   19.71750069   83.57469940    3.07999992    2.66000009
   19.72027779   80.19110107    3.05999994    2.67000008
   19.72361183   85.23660278    3.05999994    2.67000008
   19.72666740   81.09829712    3.05999994    2.66000009
   19.73000145   78.13580322    3.03999996    2.67000008
   19.73333359   76.72180176    3.03999996    2.66000009
   19.73638916   77.42720032    3.07999992    2.66000009
   19.74250031   77.42720032    3.11999989    2.66000009
   19.74666786   76.93479919    3.03999996    2.67000008
   19.75000000   80.83879852    2.96000004    2.67000008
   19.75083351   84.00350189    2.96000004    2.67000008
   19.75361061   77.84130096    2.94000006    2.66000009
   19.75694466   77.87860107    2.86999989    2.66000009
   19.76000023   77.70829773    2.71000004    2.66000009
   19.76333427   79.11949921    2.67000008    2.66000009
   19.76666641   78.12069702    2.66000009    2.66000009
   19.76972198   82.37930298    2.75000000    2.67000008
   19.77305603   78.52410126    2.66000009    2.67000008
   19.77611160   75.82170105    2.66000009    2.67000008
   19.77944374   79.04199982    2.61999989    2.67000008
   19.78527641   79.04199982    2.48000002    2.67000008
   19.78944397   79.12799835    2.51999998    2.66000009
   19.79277802   81.15229797    2.50000000    2.67000008
   19.79583359   81.61170197    2.50000000    2.66000009
   19.79916573   77.72270203    2.48000002    2.66000009
   19.80249977   82.67209625    2.32999992    2.66000009
   19.80555534   81.17780304    2.21000004    2.66000009
   19.80888748   78.04740143    2.19000006    2.67000008
   19.81194305   78.38710022    2.17000008    2.67000008
   19.81527710   82.59729767    2.15000010    2.66000009
   19.81750107   80.78579712    2.15000010    2.67000008
   19.81888962   78.36049652    2.17000008    2.67000008
   19.82222366   77.62339783    2.23000002    2.67000008
   19.82805634   77.62339783    2.30999994    2.66000009
   19.83222389   87.45749664    2.34999990    2.66000009
   19.83555603   78.78780365    2.40000010    2.66000009
   19.83889008   80.03289795    2.42000008    2.66000009
   19.84194565   81.26170349    2.46000004    2.66000009
   19.84527779   78.80059814    2.48000002    2.66000009
   19.84833336   77.36139679    2.48000002    2.66000009
   19.85083389   84.07929993    2.48000002    2.66000009
   19.85222244   79.38320160    2.48000002    2.66000009
   19.85555649   82.94000244    2.51999998    2.66000009
   19.85861206   81.46189880    2.55999994    2.66000009
   19.86194420   78.67019653    2.61999989    2.66000009
   19.86527824   81.80590057    2.64000010    2.66000009
   19.87111092   81.80590057    2.66000009    2.66000009
   19.87527847   78.26029968    2.61999989    2.66000009
   19.87833405   80.26069641    2.59999990    2.66000009
   19.88166618   82.95570374    2.59999990    2.64000010
   19.88444519   77.27120209    2.59999990    2.66000009
   19.88527679   84.53900146    2.59999990    2.66000009
   19.88861084   77.91089630    2.57999992    2.64000010
   19.89166641   81.34279633    2.53999996    2.64000010
   19.89500046   80.71859741    2.50000000    2.64000010
   19.89833260   77.88919830    2.53999996    2.64000010
   19.90138817   81.57230377    2.53999996    2.64000010
   19.90472221   79.73020172    2.57999992    2.64000010
   19.90805435   75.83439636    2.59999990    2.64000010
   19.91388893   75.83439636    2.57999992    2.64000010
   19.91805458   82.53019714    2.53999996    2.64000010
   19.92111015   77.85479736    2.51999998    2.64000010
   19.92444420   78.81220245    2.51999998    2.64000010
   19.92777634   81.90709686    2.53999996    2.64000010
   19.93083191   81.83439636    2.59999990    2.64000010
   19.93416595   81.15070343    2.64000010    2.64000010
   19.93750000   81.67230225    2.67000008    2.64000010
   19.94055557   80.24400330    2.71000004    2.64000010
   19.94388771   82.06839752    2.75000000    2.64000010
   19.94694328   77.64099884    2.75000000    2.64000010
   19.95027924   79.23560333    2.75000000    2.64000010
   19.95111275   80.77570343    2.75000000    2.64000010
   19.95666695   80.77570343    2.76999998    2.64000010
   19.96083450   87.96829987    2.80999994    2.64000010
   19.96416664   87.00080109    2.76999998    2.61999989
   19.96722221   78.53309631    2.75000000    2.61999989
   19.97055626   78.83670044    2.75000000    2.61999989
   19.97389030   87.08229828    2.76999998    2.61999989
   19.97694588   84.22239685    2.89000010    2.61999989
   19.98027802   77.80860138    2.91000009    2.61999989
   19.98361206   86.14369965    3.00000000    2.61999989
   19.98444557   78.67179871    3.00000000    2.61999989
   19.98722267   82.20300293    3.00000000    2.61999989
   19.99055672   78.96540070    2.98000002    2.61999989
   19.99361229   84.16030121    3.00000000    2.64000010
   19.99944496   84.16030121    3.05999994    2.61999989
   20.00361061   78.40799713    3.05999994    2.61999989
   20.00694466   85.23470306    3.09999990    2.61999989
   20.01027870   85.43810272    3.09999990    2.61999989
   20.01333427   79.06819916    3.11999989    2.61999989
   20.01666641   79.34719849    3.20000005    2.61999989
   20.01777840   81.10559845    3.20000005    2.61999989
   20.02027702   80.63749695    3.23000002    2.61999989
   20.02361107   77.58799744    3.26999998    2.61999989
   20.02666664   83.14569855    3.41000009    2.59999990
   20.03000069   78.83779907    3.46000004    2.61999989
   20.03333282   84.25489807    3.51999998    2.59999990
   20.03638840   85.88120270    3.73000002    2.59999990
   20.04249954   85.88120270    3.78999996    2.59999990
   20.04666710   80.80509949    3.78999996    2.59999990
   20.04972076   80.87390137    3.80999994    2.59999990
   20.05111122   78.96849823    3.80999994    2.59999990
