    HOUR (UT)   FLARE FACTOR    SKY TESTER    SUN TESTER
   11.21611118   -1.00000000   -1.00000000   -1.00000000
   11.25166702  170.48699951    4.90999985    1.78999996
   11.25861073  154.59899902    4.90999985    1.78999996
   11.26166630  158.55200195    4.90999985    1.80999994
   11.26500034  162.89599609    4.90999985    1.80999994
   11.26833344  170.97599792    4.90999985    1.80999994
   11.27138901  160.53500366    4.90999985    1.83000004
   11.27472210  162.90899658    4.90999985    1.83000004
   11.27777767  173.15600586    4.90999985    1.83000004
   11.28111076  161.59700012    4.90999985    1.85000002
   11.28444481  147.80700684    4.90999985    1.85000002
   11.28500080  146.46600342    4.90999985    1.85000002
   11.28805637  143.93699646    4.90999985    1.85000002
   11.29111195  147.72099304    4.90999985    1.85000002
   11.29444504  176.32600403    4.90999985    1.85000002
   11.29777813  147.64700317    4.90999985    1.86000001
   11.30083370  143.21299744    4.90999985    1.85000002
   11.30416679  147.21499634    4.90999985    1.86000001
   11.30749989  146.46800232    4.90999985    1.86000001
   11.31055546  149.69900513    4.90999985    1.88000000
   11.31388950  156.05099487    4.90999985    1.86000001
   11.31694412  149.14799500    4.90999985    1.88000000
   11.31833363  144.11599731    4.90999985    1.88000000
   11.32083321  157.46499634    4.90999985    1.88000000
   11.32388878  146.34899902    4.90999985    1.88000000
   11.32722187  141.13600159    4.90999985    1.89999998
   11.33055592  138.02299500    4.90999985    1.89999998
   11.33361053  138.28100586    4.90999985    1.89999998
   11.33694458  132.03900146    4.90999985    1.89999998
   11.34000015  148.58599854    4.90999985    1.89999998
   11.34333324  133.16200256    4.90999985    1.91999996
   11.34666634  148.64300537    4.90999985    1.91999996
   11.34972191  150.21600342    4.90999985    1.91999996
   11.35166740  138.72799683    4.90999985    1.91999996
   11.35361195  134.51199341    4.90999985    1.91999996
   11.35666752  147.92399597    4.90999985    1.91999996
   11.36000061  130.89500427    4.90999985    1.91999996
   11.36333370  133.32200623    4.90999985    1.94000006
   11.36638927  136.62600708    4.90999985    1.94000006
   11.36972237  141.25199890    4.90999985    1.94000006
   11.37277794  137.79600525    4.90999985    1.96000004
   11.37611103  138.25100708    4.90999985    1.96000004
   11.37944412  155.65699768    4.90999985    1.96000004
   11.38249969  137.83900452    4.90999985    1.98000002
   11.38500023  135.22300720    4.90999985    1.98000002
   11.38638878  135.83000183    4.90999985    1.98000002
   11.38944435  142.66400146    4.90999985    1.96000004
   11.39277744  141.85099792    4.90999985    1.98000002
   11.39611053  130.30299377    4.90999985    1.98000002
   11.39916611  131.70500183    4.90999985    1.98000002
   11.40249920  138.26699829    4.90999985    1.98000002
   11.40555477  134.86500549    4.90999985    1.98000002
   11.40888882  142.41000366    4.90999985    2.00000000
   11.41222191  135.93699646    4.90999985    2.00000000
   11.41527748  132.83599854    4.90999985    2.00000000
   11.41833401  145.79499817    4.90999985    2.01999998
   11.41916656  135.88000488    4.90999985    2.00000000
   11.42222214  136.96200562    4.90999985    2.00000000
   11.42555618  127.51200104    4.90999985    2.01999998
   11.42888927  134.48300171    4.90999985    2.01999998
   11.43194485  131.65899658    4.90999985    2.01999998
   11.43527794  128.93800354    4.90999985    2.01999998
   11.43833351  132.03999329    4.90999985    2.01999998
   11.44166660  130.61199951    4.90999985    2.01999998
   11.44499969  129.24299622    4.90999985    2.03999996
   11.44805527  132.78599548    4.90999985    2.03999996
   11.45138836  136.24600220    4.90999985    2.03999996
   11.45194435  134.78799438    4.90999985    2.03999996
   11.45527744  134.60499573    4.90999985    2.03999996
   11.45833302  132.92199707    4.90999985    2.03999996
   11.46166611  130.79400635    4.90999985    2.05999994
   11.46472168  124.07099915    4.90999985    2.05999994
   11.46805477  130.47399902    4.90999985    2.05999994
   11.47138882  134.71200562    4.90999985    2.05999994
   11.47444439  129.60299683    4.90999985    2.05999994
   11.47777748  118.41799927    4.90999985    2.05999994
   11.48111057  124.38300323    4.90999985    2.05999994
   11.48416710  125.33000183    4.90999985    2.07999992
   11.48527813  125.75199890    4.90999985    2.07999992
   11.48805618  118.56600189    4.90999985    2.07999992
   11.49111176  127.01599884    4.90999985    2.07999992
   11.49444485  124.83599854    4.90999985    2.07999992
   11.49750042  121.89099884    4.90999985    2.07999992
   11.50083351  119.14900208    4.90999985    2.07999992
   11.50416660  121.91699982    4.90999985    2.09999990
   11.50722218  118.57499695    4.90999985    2.09999990
   11.51055527  120.98300171    4.90999985    2.09999990
   11.51388931  120.15599823    4.90999985    2.09999990
   11.51694393  115.35700226    4.90999985    2.09999990
   11.51861095  124.77200317    4.90999985    2.09999990
   11.52083302  127.38899994    4.90999985    2.09999990
   11.52388859  125.26599884    4.90999985    2.11999989
   11.52722168  121.96700287    4.90999985    2.11999989
   11.53027725  124.59100342    4.90999985    2.11999989
   11.53361130  125.39099884    4.90999985    2.11999989
   11.53694534  113.92900085    4.90999985    2.11999989
   11.54000092  123.97200012    4.90999985    2.11999989
   11.54333401  126.89399719    4.90999985    2.11999989
   11.54666710  132.24899292    4.90999985    2.13000011
   11.54972267  121.19000244    4.90999985    2.13000011
   11.55194473  120.64700317    4.90999985    2.13000011
   11.55361176  125.24099731    4.90999985    2.13000011
   11.55666733  127.37300110    4.90999985    2.13000011
   11.56000042  121.95999908    4.90999985    2.13000011
   11.56305599  125.44799805    4.90999985    2.13000011
   11.56638908  121.68299866    4.90999985    2.13000011
   11.56972218  123.88899994    4.90999985    2.13000011
   11.57277775  127.86000061    4.90999985    2.15000010
   11.57611084  117.12200165    4.90999985    2.15000010
   11.57944393  124.32700348    4.90999985    2.15000010
   11.58249950  116.48000336    4.90999985    2.15000010
   11.58527756  120.08000183    4.90999985    2.17000008
   11.58638859  117.42199707    4.90999985    2.15000010
   11.58944416  115.76899719    4.90999985    2.17000008
   11.59277725  115.48500061    4.90999985    2.15000010
   11.59583282  115.65100098    4.90999985    2.17000008
   11.59916592  112.99299622    4.90999985    2.17000008
   11.60249996  113.59200287    4.90999985    2.17000008
   11.60555553  112.96099854    4.90999985    2.17000008
   11.60888958  114.07800293    4.90999985    2.17000008
   11.61222267  119.79799652    4.90999985    2.17000008
   11.61527824  113.51599884    4.90999985    2.17000008
   11.61861134  111.19400024    4.90999985    2.19000006
   11.61916637  111.43399811    4.90999985    2.19000006
   11.62222195  116.83000183    4.90999985    2.19000006
   11.62555599  124.34200287    4.90999985    2.19000006
   11.62888908  116.28399658    4.90999985    2.19000006
   11.63222218  114.33399963    4.90999985    2.19000006
   11.63555527  119.36499786    4.90999985    2.19000006
   11.63861084  123.64299774    4.90999985    2.19000006
   11.64194393  112.79900360    4.90999985    2.19000006
   11.64499950  123.13899994    4.90999985    2.19000006
   11.64833355  114.40299988    4.90999985    2.21000004
   11.65138817  121.96099854    4.90999985    2.21000004
   11.65194416  119.92099762    4.90999985    2.21000004
   11.65499973  133.17500305    4.90999985    2.21000004
   11.65833282  115.45400238    4.90999985    2.21000004
   11.66138840  116.69999695    4.90999985    2.23000002
   11.66472149  116.13700104    4.90999985    2.23000002
   11.66777802  121.93499756    4.90999985    2.23000002
   11.67111111  112.74900055    4.90999985    2.23000002
   11.67444515  121.55200195    4.90999985    2.23000002
   11.67750072  119.03099823    4.90999985    2.23000002
   11.68083382  115.34999847    4.90999985    2.25000000
   11.68388939  118.62200165    4.90999985    2.23000002
   11.68527794  125.51899719    4.90999985    2.25000000
   11.68777752  115.65000153    4.90999985    2.25000000
   11.69111156  118.38600159    4.90999985    2.23000002
   11.69416714  115.44599915    4.90999985    2.25000000
   11.69750023  123.50099945    4.90999985    2.23000002
   11.70055580  115.56600189    4.90999985    2.25000000
   11.70388889  120.83799744    4.90999985    2.25000000
   11.70722198  110.26200104    4.90999985    2.25000000
   11.71027756  128.42799377    4.90999985    2.25000000
   11.71361065  124.48200226    4.90999985    2.25000000
   11.71694374  117.61699677    4.90999985    2.25000000
   11.71861076  117.91999817    4.90999985    2.25000000
   11.72055531  121.56400299    4.90999985    2.26999998
   11.72388840  120.56400299    4.90999985    2.26999998
   11.72694397  117.64099884    4.90999985    2.26999998
   11.73027706  116.65100098    4.90999985    2.26999998
   11.73361111  122.41699982    4.90999985    2.26999998
   11.73666668  117.39499664    4.90999985    2.26999998
   11.74000072  119.27300262    4.90999985    2.26999998
   11.74333382  116.32900238    4.90999985    2.28999996
   11.74638939  116.90299988    4.90999985    2.28999996
   11.74972248  115.04000092    4.90999985    2.26999998
   11.75194454  118.16699982    4.90999985    2.28999996
   11.75333309  115.55699921    4.90999985    2.26999998
   11.75666714  112.80999756    4.90999985    2.28999996
   11.75972176  112.42800140    4.90999985    2.28999996
   11.76305580  113.26599884    4.90999985    2.28999996
   11.76638889  114.24199677    4.90999985    2.28999996
   11.76944447  114.04799652    4.90999985    2.28999996
   11.77277756  116.16899872    4.90999985    2.30999994
   11.77583313  114.26000214    4.90999985    2.30999994
   11.77916622  111.46199799    4.90999985    2.30999994
   11.78249931  114.56900024    4.90999985    2.30999994
   11.78527832  120.23300171    4.90999985    2.30999994
   11.78611183  115.34100342    4.90999985    2.30999994
   11.78944492  110.66200256    4.90999985    2.32999992
   11.79250050  115.93299866    4.90999985    2.30999994
   11.79583359  114.07599640    4.90999985    2.30999994
   11.79916668  109.20700073    4.90999985    2.32999992
   11.80222225  115.52799988    4.90999985    2.30999994
   11.80555534  110.92500305    4.90999985    2.30999994
   11.80861092  116.62999725    4.90999985    2.32999992
   11.81194496  114.01899719    4.90999985    2.32999992
   11.81527805  111.75900269    4.90999985    2.32999992
   11.81861115  110.05799866    4.90999985    2.32999992
   11.81916618  118.08899689    4.90999985    2.32999992
   11.82222176  107.16400146    4.90999985    2.32999992
   11.82555580  116.83599854    4.90999985    2.32999992
   11.82861137  111.66300201    4.90999985    2.32999992
   11.83194447  106.05899811    4.90999985    2.32999992
   11.83527756  113.03900146    4.90999985    2.32999992
   11.83833313  109.61499786    4.90999985    2.32999992
   11.84166622  110.26300049    4.90999985    2.34999990
   11.84472179  115.98200226    4.90999985    2.32999992
   11.84805489  112.76000214    4.90999985    2.34999990
   11.85138893  108.23200226    4.90999985    2.34999990
   11.85249996  108.75800323    4.90999985    2.34999990
   11.85500050  108.61900330    4.90999985    2.34999990
   11.85833359  112.58699799    4.90999985    2.34999990
   11.86138916  118.57700348    4.90999985    2.34999990
   11.86472225  109.76300049    4.90999985    2.34999990
   11.86805534  108.10199738    4.90999985    2.36999989
   11.87111092  112.78600311    4.90999985    2.34999990
   11.87444496  113.53900146    4.90999985    2.36999989
   11.87777805  112.11399841    4.90999985    2.36999989
   11.88083363  112.76799774    4.90999985    2.34999990
   11.88416672  110.72000122    4.90999985    2.34999990
   11.88583279  107.75299835    4.90999985    2.34999990
   11.88777733  108.02500153    4.90999985    2.34999990
   11.89111137  109.08399963    4.90999985    2.34999990
   11.89416695  110.33300018    4.90999985    2.36999989
   11.89750004  112.22899628    4.90999985    2.36999989
   11.90083313  108.92900085    4.90999985    2.36999989
   11.90388870  115.58300018    4.90999985    2.36999989
   11.90722179  113.31600189    4.90999985    2.36999989
   11.91055489  106.29199982    4.90999985    2.36999989
   11.91361046  113.32399750    4.90999985    2.39000010
   11.91694450  114.08499908    4.90999985    2.36999989
   11.91916656  104.96499634    4.90999985    2.39000010
   11.92055607  112.69200134    4.90999985    2.36999989
   11.92388916  106.51399994    4.90999985    2.36999989
   11.92694473  114.26499939    4.90999985    2.39000010
   11.93027782  108.74900055    4.90999985    2.39000010
   11.93361092  111.56900024    4.90999985    2.39000010
   11.93666649  114.73400116    4.90999985    2.39000010
   11.94000053  105.36199951    4.90999985    2.39000010
   11.94333363  119.86799622    4.90999985    2.39000010
   11.94638920  110.19200134    4.90999985    2.39000010
   11.94972229  111.63300323    4.90999985    2.39000010
   11.95249939  113.03099823    4.90999985    2.39000010
   11.95333290  115.66300201    4.90999985    2.39000010
   11.95666695  117.91000366    4.90999985    2.39000010
   11.95972157  116.12100220    4.90999985    2.39000010
   11.96305561  108.34200287    4.90999985    2.39000010
   11.96638870  116.16600037    4.90999985    2.40000010
   11.96944427  106.50099945    4.90999985    2.40000010
   11.97277737  107.77700043    4.90999985    2.40000010
   11.97611046  108.66100311    4.90999985    2.40000010
   11.97916603  108.98899841    4.90999985    2.40000010
   11.98249912  105.49700165    4.90999985    2.40000010
   11.98583317  109.51999664    4.90999985    2.40000010
   11.98611164  102.52799988    4.90999985    2.40000010
   11.98944473  107.28700256    4.90999985    2.40000010
   11.99250031  107.09500122    4.90999985    2.40000010
   11.99583340  102.37699890    4.90999985    2.40000010
   11.99916649  105.01499939    4.90999985    2.40000010
   12.00222206   99.56230164    4.90999985    2.42000008
   12.00555515  106.36100006    4.90999985    2.40000010
   12.00861073   99.39399719    4.90999985    2.42000008
   12.01194477  104.83300018    4.90999985    2.42000008
   12.01527786  109.74900055    4.90999985    2.42000008
   12.01833344  107.08799744    4.90999985    2.42000008
   12.01916599  109.01899719    4.90999985    2.42000008
   12.02194405  102.01799774    4.90999985    2.42000008
   12.02527714   98.68930054    4.90999985    2.42000008
   12.02833271  103.09899902    4.90999985    2.42000008
   12.03166676  101.84500122    4.90999985    2.42000008
   12.03500080  100.53399658    4.90999985    2.42000008
   12.03805637  101.59300232    4.90999985    2.42000008
   12.04138947  106.62500000    4.90999985    2.44000006
   12.04472256  106.42800140    4.90999985    2.42000008
   12.04777813  104.73100281    4.90999985    2.42000008
   12.05111122  106.83699799    4.90999985    2.44000006
   12.05249977  102.81400299    4.90999985    2.44000006
   12.05472279  105.44100189    4.90999985    2.44000006
   12.05805588  103.80300140    4.90999985    2.44000006
   12.06111145  105.35399628    4.90999985    2.44000006
   12.06444454  108.55000305    4.90999985    2.44000006
   12.06777763  106.53299713    4.90999985    2.44000006
   12.07083321  102.84999847    4.90999985    2.44000006
   12.07416630  104.59999847    4.90999985    2.44000006
   12.07750034  100.78399658    4.90999985    2.44000006
   12.08055592  109.79499817    4.90999985    2.44000006
   12.08388901  110.19999695    4.90999985    2.44000006
   12.08583260  111.77200317    4.90999985    2.44000006
   12.08749962  113.69100189    4.90999985    2.46000004
   12.09083271  108.05500031    4.90999985    2.46000004
   12.09388828  107.59700012    4.90999985    2.46000004
   12.09722233  101.50800323    4.90999985    2.46000004
   12.10055637  106.33699799    4.90999985    2.46000004
   12.10361195  106.04599762    4.90999985    2.46000004
   12.10694504  105.01499939    4.90999985    2.46000004
   12.11027813  103.41899872    4.90999985    2.46000004
   12.11333370  108.31199646    4.90999985    2.46000004
   12.11666679  102.28299713    4.90999985    2.46000004
   12.11916637  106.52999878    4.90999985    2.46000004
   12.12027836  105.05100250    4.90999985    2.46000004
   12.12361145  106.41100311    4.90999985    2.46000004
   12.12666702  103.89700317    4.90999985    2.46000004
   12.13000011  100.84799957    4.90999985    2.46000004
   12.13333321  103.89299774    4.90999985    2.48000002
   12.13638878  100.13999939    4.90999985    2.46000004
   12.13972187  100.44400024    4.90999985    2.46000004
   12.14305496  100.22399902    4.90999985    2.46000004
   12.14611053  102.80999756    4.90999985    2.48000002
   12.14944458  104.65499878    4.90999985    2.48000002
   12.15249920  105.65699768    4.90999985    2.48000002
   12.15305519  108.35399628    4.90999985    2.46000004
   12.15638828  108.56300354    4.90999985    2.48000002
   12.15944386  103.55899811    4.90999985    2.48000002
   12.16277695  108.81099701    4.90999985    2.48000002
   12.16611099  106.56099701    4.90999985    2.48000002
   12.16916656  105.54799652    4.90999985    2.48000002
   12.17250061  107.91899872    4.90999985    2.48000002
   12.17583370  100.97899628    4.90999985    2.48000002
   12.17888927  116.14299774    4.90999985    2.48000002
   12.18222237  109.15200043    4.90999985    2.48000002
   12.18527794  103.83000183    4.90999985    2.50000000
   12.18583298  106.32599640    4.90999985    2.50000000
   12.18916702  104.17400360    4.90999985    2.50000000
   12.19250011  101.83799744    4.90999985    2.50000000
   12.19555569  100.70200348    4.90999985    2.50000000
   12.19888878  104.15299988    4.90999985    2.50000000
   12.20194435  100.41200256    4.90999985    2.50000000
   12.20527744  101.76000214    4.90999985    2.50000000
   12.20861053  106.47699738    4.90999985    2.50000000
   12.21166611  100.89600372    4.90999985    2.50000000
   12.21500015  100.12000275    4.90999985    2.51999998
   12.21833324  105.45500183    4.90999985    2.51999998
   12.21916580   99.67150116    4.90999985    2.51999998
   12.22194386  103.33300018    4.90999985    2.50000000
   12.22527695  101.15899658    4.90999985    2.50000000
   12.22833252  100.86499786    4.90999985    2.50000000
   12.23166656   98.89900208    4.90999985    2.50000000
   12.23500061  101.64299774    4.90999985    2.50000000
   12.23805618  103.98699951    4.90999985    2.51999998
   12.24138927   97.46350098    4.90999985    2.51999998
   12.24444485  102.93399811    4.90999985    2.51999998
   12.24777794  105.94699860    4.90999985    2.51999998
   12.25111103   99.26670074    4.90999985    2.51999998
   12.26833344   97.85890198    4.90999985    2.51999998
   12.27083302   99.62390137    4.90999985    2.51999998
   12.27416611   97.88569641    4.90999985    2.51999998
   12.27722168  102.51599884    4.90999985    2.51999998
   12.28055573  102.64700317    4.90999985    2.51999998
   12.28388977  105.09600067    4.90999985    2.51999998
   12.28694534  105.52799988    4.90999985    2.53999996
   12.29027843  105.39299774    4.90999985    2.51999998
   12.29333401  108.48300171    4.90999985    2.53999996
   12.29666710  106.90000153    4.90999985    2.53999996
   12.30000019  111.36599731    4.90999985    2.53999996
   12.30166721  107.07900238    4.90999985    2.51999998
   12.30361176  101.23300171    4.90999985    2.51999998
   12.30666733  102.79699707    4.90999985    2.53999996
   12.31000042  104.14399719    4.90999985    2.53999996
   12.31333351  103.03800201    4.90999985    2.53999996
   12.31638908   98.75930023    4.90999985    2.55999994
   12.31972218   97.85859680    4.90999985    2.53999996
   12.32305527  102.68000031    4.90999985    2.53999996
   12.32611084  104.82700348    4.90999985    2.53999996
   12.32944393  101.75399780    4.90999985    2.53999996
   12.33249950  105.41500092    4.90999985    2.53999996
   12.33500004  100.32199860    4.90999985    2.53999996
   12.33638859  104.55899811    4.90999985    2.53999996
   12.33972168  101.92700195    4.90999985    2.53999996
   12.34277725  108.30300140    4.90999985    2.53999996
   12.34611034  102.79799652    4.90999985    2.53999996
   12.34944439  101.39199829    4.90999985    2.53999996
   12.35249996  105.01200104    4.90999985    2.53999996
   12.35583401  100.48100281    4.90999985    2.53999996
   12.35888958   99.14720154    4.90999985    2.55999994
   12.36222267  101.19799805    4.90999985    2.55999994
   12.36555576  103.31099701    4.90999985    2.55999994
   12.36833382   97.20510101    4.90999985    2.55999994
   12.36916637  111.59500122    4.90999985    2.55999994
   12.37250042   97.62359619    4.90999985    2.55999994
   12.37555599  104.47399902    4.90999985    2.55999994
   12.37888908  111.47399902    4.90999985    2.55999994
   12.38222218   96.86450195    4.90999985    2.55999994
   12.38527775  101.89099884    4.90999985    2.55999994
   12.38861084  102.70600128    4.90999985    2.55999994
   12.39166641  106.27200317    4.90999985    2.55999994
   12.39499950  105.31700134    4.90999985    2.55999994
   12.39833355  100.01100159    4.90999985    2.55999994
   12.40138817  100.20500183    4.90999985    2.55999994
   12.40194416  100.67099762    4.90999985    2.55999994
   12.40527725   99.92759705    4.90999985    2.55999994
   12.40833282  100.02700043    4.90999985    2.55999994
   12.41166592   96.06060028    4.90999985    2.55999994
   12.41499996  110.04299927    4.90999985    2.55999994
   12.41805553   98.64600372    4.90999985    2.55999994
   12.42138958  104.05000305    4.90999985    2.55999994
   12.42472267  104.48100281    4.90999985    2.55999994
   12.42777824  105.00900269    4.90999985    2.57999992
   12.43111134  101.73699951    4.90999985    2.57999992
   12.43416691  107.59700012    4.90999985    2.57999992
   12.43527794  103.73699951    4.90999985    2.57999992
   12.43805599  105.87599945    4.90999985    2.57999992
   12.44138908  102.71199799    4.90999985    2.57999992
   12.44444466  102.11299896    4.90999985    2.57999992
   12.44777775  109.67099762    4.90999985    2.57999992
   12.45083332  103.56700134    4.90999985    2.57999992
   12.45416641  102.50599670    4.90999985    2.57999992
   12.45749950  106.90399933    4.90999985    2.57999992
   12.46055508  104.10500336    4.90999985    2.57999992
   12.46388912  108.13400269    4.90999985    2.57999992
   12.46722221  104.35900116    4.90999985    2.57999992
   12.46861076  108.30000305    4.90999985    2.59999990
   12.47083282  108.35800171    4.90999985    2.57999992
   12.47416592  106.69499969    4.90999985    2.59999990
   12.47722149  107.53199768    4.90999985    2.57999992
   12.48055553  102.00299835    4.90999985    2.57999992
   12.48361111  109.21299744    4.90999985    2.57999992
   12.48694515  106.16699982    4.90999985    2.59999990
   12.49027824  102.45300293    4.90999985    2.57999992
   12.49333382  109.01999664    4.90999985    2.57999992
   12.49694443  107.77300262    4.90999985    2.59999990
   12.50027752  102.94400024    4.90999985    2.59999990
   12.50222206  109.57399750    4.90999985    2.59999990
   12.50416660   98.62239838    4.90999985    2.59999990
   12.50749969  104.56900024    4.90999985    2.59999990
   12.51083374  106.65000153    4.90999985    2.59999990
   12.51388931  104.86000061    4.90999985    2.59999990
   12.51722240  102.59500122    4.90999985    2.59999990
   12.52055550  104.43800354    4.90999985    2.59999990
   12.52361107  106.41600037    4.90999985    2.59999990
   12.52694416  111.89900208    4.90999985    2.59999990
   12.53027725  108.01499939    4.90999985    2.59999990
   12.53388977  104.14600372    4.90999985    2.59999990
   12.53527832  105.66100311    4.90999985    2.61999989
   12.53750038  118.70099640    4.90999985    2.61999989
   12.54083347  102.15599823    4.90999985    2.59999990
   12.54388905   99.66230011    4.90999985    2.59999990
   12.54722309  109.45400238    4.90999985    2.59999990
   12.55027771  112.42099762    4.90999985    2.59999990
   12.55361176  105.13500214    4.90999985    2.59999990
   12.55666733  108.77400208    4.90999985    2.59999990
   12.56055546  105.05100250    4.90999985    2.61999989
   12.56361103  108.23999786    4.90999985    2.61999989
   12.56694412  102.01599884    4.90999985    2.61999989
   12.56861115  104.66300201    4.90999985    2.59999990
   12.57055569  103.89399719    4.90999985    2.61999989
   12.57388878  106.05999756    4.90999985    2.61999989
   12.57694435  113.39900208    4.90999985    2.59999990
   12.58027744  105.14099884    4.90999985    2.61999989
   12.58333302  104.66799927    4.90999985    2.61999989
   12.58666611  121.61199951    4.90999985    2.61999989
   12.59000015  105.18499756    4.90999985    2.61999989
   12.59305477  100.02400208    4.90999985    2.61999989
   12.59638882  109.91400146    4.90999985    2.61999989
   12.59944439  106.80300140    4.90999985    2.61999989
   12.60194492  103.89199829    4.90999985    2.61999989
   12.60333347  112.11900330    4.90999985    2.64000010
   12.60666752  105.32700348    4.90999985    2.64000010
   12.60972214  107.93900299    4.90999985    2.61999989
   12.61305618  109.94999695    4.90999985    2.61999989
   12.61638927  105.94799805    4.90999985    2.61999989
   12.61944485  105.59200287    4.90999985    2.61999989
   12.62277794  100.54599762    4.90999985    2.61999989
   12.62583351  109.01100159    4.90999985    2.61999989
   12.62916660  107.87999725    4.90999985    2.64000010
   12.63249969  115.52799988    4.90999985    2.64000010
   12.63527775  104.67500305    4.90999985    2.64000010
   12.63611126  109.27200317    4.90999985    2.64000010
   12.63944435  114.99400330    4.90999985    2.64000010
   12.64249992  115.29799652    4.90999985    2.64000010
   12.64583302  112.04399872    4.90999985    2.64000010
   12.64888859  111.93699646    4.90999985    2.64000010
   12.65222168  109.92600250    4.90999985    2.64000010
   12.65555477  110.77999878    4.90999985    2.61999989
   12.65861034  111.46600342    4.90999985    2.64000010
   12.66194439  104.74600220    4.90999985    2.64000010
   12.66499996  106.71299744    4.90999985    2.64000010
   12.66833401  104.39099884    4.90999985    2.64000010
   12.66888905  104.67099762    4.90999985    2.64000010
   12.67166710   99.53679657    4.90999985    2.64000010
   12.67500019  109.24400330    4.90999985    2.64000010
   12.67833328  104.91500092    4.90999985    2.64000010
   12.68138885  104.69899750    4.90999985    2.64000010
   12.68472195   98.14250183    4.90999985    2.64000010
   12.68777752  107.71099854    4.90999985    2.64000010
   12.69111156  103.80400085    4.90999985    2.64000010
   12.69444466  102.93299866    4.90999985    2.64000010
   12.69750023  103.00599670    4.90999985    2.64000010
   12.70083332   98.10230255    4.90999985    2.64000010
   12.70222187  108.93900299    4.90999985    2.64000010
   12.70444393  103.70700073    4.90999985    2.64000010
   12.70749950  102.72899628    4.90999985    2.66000009
   12.71083355  102.64399719    4.90999985    2.64000010
   12.71388912  103.18499756    4.90999985    2.66000009
   12.71722221  105.41100311    4.90999985    2.64000010
   12.72055531  107.11699677    4.90999985    2.64000010
   12.72361088  103.52799988    4.90999985    2.66000009
   12.72694397  101.54900360    4.90999985    2.66000009
   12.72999954  106.16500092    4.90999985    2.66000009
   12.73333359  108.70400238    4.90999985    2.64000010
   12.73555565  108.31300354    4.90999985    2.66000009
   12.73722267  106.98799896    4.90999985    2.66000009
   12.74027824  104.46900177    4.90999985    2.66000009
   12.74361134   99.85839844    4.90999985    2.66000009
   12.74666691  101.62799835    4.90999985    2.66000009
   12.75000000  104.81800079    4.90999985    2.66000009
   12.75305557  103.00399780    4.90999985    2.66000009
   12.75638866  105.65399933    4.90999985    2.66000009
   12.75972176   99.99710083    4.90999985    2.66000009
   12.76277733  102.87200165    4.90999985    2.66000009
   12.76611137  103.36599731    4.90999985    2.66000009
   12.76888847  108.23899841    4.90999985    2.66000009
   12.76972198  108.70200348    4.90999985    2.66000009
   12.77277756  101.19000244    4.90999985    2.64000010
   12.77611065  107.17700195    4.90999985    2.66000009
   12.77944374  104.37300110    4.90999985    2.66000009
   12.78249931  103.15399933    4.90999985    2.67000008
   12.78583336  101.01000214    4.90999985    2.66000009
   12.78888893  108.75299835    4.90999985    2.66000009
   12.79222298  100.34200287    4.90999985    2.66000009
   12.79527855  104.60600281    4.90999985    2.66000009
   12.79861164  101.13099670    4.90999985    2.67000008
   12.80194473  101.98400116    4.90999985    2.66000009
   12.80249977  102.15100098    4.90999985    2.66000009
   12.80527782  103.47499847    4.90999985    2.66000009
   12.80861092  106.63400269    4.90999985    2.66000009
   12.81166649  102.23600006    4.90999985    2.67000008
   12.81500053  101.08899689    4.90999985    2.67000008
   12.81833363  106.14099884    4.90999985    2.67000008
   12.82138920  106.23100281    4.90999985    2.67000008
   12.82472229  102.27700043    4.90999985    2.67000008
   12.82777786  104.91400146    4.90999985    2.66000009
   12.83111095  106.47100067    4.90999985    2.67000008
   12.83444405  103.45800018    4.90999985    2.66000009
   12.83583260  104.11199951    4.90999985    2.66000009
   12.83805561  106.17900085    4.90999985    2.66000009
   12.84138870  104.37699890    4.90999985    2.67000008
   12.84444427  104.93599701    4.90999985    2.66000009
   12.84777737  104.13400269    4.90999985    2.67000008
   12.85111141  105.23899841    4.90999985    2.67000008
   12.85416698  101.85199738    4.90999985    2.67000008
   12.85750008  104.91899872    4.90999985    2.67000008
   12.86055565  105.31700134    4.90999985    2.67000008
   12.86388969  104.99500275    4.90999985    2.67000008
   12.86722279  110.65000153    4.90999985    2.67000008
   12.86916637  110.13300323    4.90999985    2.67000008
   12.87055588  106.52300262    4.90999985    2.66000009
   12.87388897  105.56999969    4.90999985    2.66000009
   12.87722206  101.68599701    4.90999985    2.67000008
   12.88027763  102.79799652    4.90999985    2.67000008
   12.88361073  107.26399994    4.90999985    2.67000008
   12.88666630  108.28700256    4.90999985    2.67000008
   12.89000034  103.02700043    4.90999985    2.67000008
   12.89333344  107.01100159    4.90999985    2.67000008
   12.89638901  102.59700012    4.90999985    2.67000008
   12.89972210   99.86070251    4.90999985    2.67000008
   12.90249920  103.11000061    4.90999985    2.67000008
   12.90361118   99.61689758    4.90999985    2.69000006
   12.90666676  101.96099854    4.90999985    2.67000008
   12.90999985  103.26200104    4.90999985    2.67000008
   12.91305542  107.48500061    4.90999985    2.67000008
   12.91638851  103.16000366    4.90999985    2.69000006
   12.91972256  104.63200378    4.90999985    2.69000006
   12.92277813  101.95200348    4.90999985    2.69000006
   12.92611122  104.41300201    4.90999985    2.69000006
   12.92944431  101.82199860    4.90999985    2.69000006
   12.93249989  103.75299835    4.90999985    2.67000008
   12.93583298  100.17800140    4.90999985    2.69000006
   12.93611145  108.48999786    4.90999985    2.69000006
   12.93944454   96.60870361    4.90999985    2.67000008
   12.94277763   98.68560028    4.90999985    2.69000006
   12.94583321  110.31099701    4.90999985    2.69000006
   12.94916630  103.95300293    4.90999985    2.69000006
   12.95249939  106.67700195    4.90999985    2.69000006
   12.95555496  103.03700256    4.90999985    2.69000006
   12.95888901  106.28800201    4.90999985    2.69000006
   12.96194458  106.96700287    4.90999985    2.69000006
   12.96527767  107.48699951    4.90999985    2.69000006
   12.96861076  102.39099884    4.90999985    2.69000006
   12.96916580   98.54180145    4.90999985    2.69000006
   12.97222137  106.80200195    4.90999985    2.69000006
   12.97527695  109.98999786    4.90999985    2.69000006
   12.97861099  107.30599976    4.90999985    2.69000006
   12.98166656  112.94699860    4.90999985    2.69000006
   12.98500061  105.91400146    4.90999985    2.69000006
   12.98833370  102.94200134    4.90999985    2.71000004
   12.99138927  102.74500275    4.90999985    2.69000006
   12.99472237  103.61699677    4.90999985    2.69000006
   12.99805546  110.91899872    4.90999985    2.69000006
   13.00111103  106.63099670    4.90999985    2.69000006
   13.00249958  107.74600220    4.90999985    2.69000006
   13.00500011  103.35700226    4.90999985    2.69000006
   13.00805569  108.36599731    4.90999985    2.69000006
   13.01138878  103.75199890    4.90999985    2.69000006
   13.01472187  106.85600281    4.90999985    2.69000006
   13.01777744  109.12799835    4.90999985    2.69000006
   13.02111053  106.95500183    4.90999985    2.69000006
   13.02416611  102.89800262    4.90999985    2.71000004
   13.02750015  102.65499878    4.90999985    2.71000004
   13.03083324  104.26200104    4.90999985    2.71000004
   13.03388977  108.52700043    4.90999985    2.69000006
   13.03583336  108.13999939    4.90999985    2.69000006
   13.03777790  108.36599731    4.90999985    2.71000004
   13.04083347  108.24500275    4.90999985    2.71000004
   13.04416752  110.02500153    4.90999985    2.71000004
   13.04722309  107.31400299    4.90999985    2.71000004
   13.05055618  102.07499695    4.90999985    2.71000004
   13.05388927  102.31099701    4.90999985    2.71000004
   13.05694485   98.65750122    4.90999985    2.69000006
   13.06027794  105.40000153    4.90999985    2.69000006
   13.06361103  102.73999786    4.90999985    2.71000004
   13.06666660  101.82700348    4.90999985    2.69000006
   13.06916618  102.51699829    4.90999985    2.71000004
   13.07055569  105.60299683    4.90999985    2.71000004
   13.07361126  112.17800140    4.90999985    2.71000004
   13.07694435  106.70500183    4.90999985    2.71000004
   13.07999992  106.27899933    4.90999985    2.71000004
   13.08333302  103.07099915    4.90999985    2.71000004
   13.08666611  109.19999695    4.90999985    2.71000004
   13.09000015  104.62999725    4.90999985    2.71000004
   13.09305477  107.46299744    4.90999985    2.71000004
   13.09638882  106.09500122    4.90999985    2.71000004
   13.09944439  102.23300171    4.90999985    2.73000002
   13.10249996  103.41200256    4.90999985    2.71000004
   13.10333347  104.78399658    4.90999985    2.71000004
   13.10638905  107.82900238    4.90999985    2.71000004
   13.10972214  110.54199982    4.90999985    2.71000004
   13.11277771  108.42400360    4.90999985    2.71000004
   13.11611176  105.90599823    4.90999985    2.71000004
   13.11944485  106.05100250    4.90999985    2.71000004
   13.12250042  110.51499939    4.90999985    2.71000004
   13.12583351  105.73899841    4.90999985    2.71000004
   13.12916660  112.52200317    4.90999985    2.73000002
   13.13222218  106.54499817    4.90999985    2.71000004
   13.13555527  111.90799713    4.90999985    2.73000002
   13.13611126  108.98699951    4.90999985    2.73000002
   13.13916683  111.54900360    4.90999985    2.71000004
   13.14249992  105.79699707    4.90999985    2.71000004
   13.14583302  112.09600067    4.90999985    2.73000002
   13.14888859  109.27400208    4.90999985    2.73000002
   13.15222168  106.51000214    4.90999985    2.73000002
   13.15527725  107.96199799    4.90999985    2.73000002
   13.15861034  107.61699677    4.90999985    2.73000002
   13.16194439  106.96299744    4.90999985    2.71000004
   13.16499996  106.89399719    4.90999985    2.73000002
   13.16833401  107.85600281    4.90999985    2.73000002
   13.16944504  109.35099792    4.90999985    2.73000002
   13.17194462  107.23600006    4.90999985    2.73000002
   13.17527771  109.34999847    4.90999985    2.71000004
   13.17861176  107.08799744    4.90999985    2.73000002
   13.18166733  108.44300079    4.90999985    2.75000000
   13.18500042  112.26799774    4.90999985    2.73000002
   13.18833351  106.22899628    4.90999985    2.73000002
   13.19138908  103.99800110    4.90999985    2.73000002
   13.19472218  110.38600159    4.90999985    2.73000002
   13.19777775  111.72799683    4.90999985    2.73000002
   13.20111084  111.98799896    4.90999985    2.73000002
   13.20277786  106.11000061    4.90999985    2.73000002
   13.20472240  106.71700287    4.90999985    2.73000002
   13.20805550  106.34300232    4.90999985    2.73000002
   13.21138859  104.35299683    4.90999985    2.73000002
   13.21444416  104.58899689    4.90999985    2.75000000
   13.21777725  104.64700317    4.90999985    2.73000002
   13.22111034  104.04799652    4.90999985    2.73000002
   13.22416592  113.55200195    4.90999985    2.73000002
   13.22749996  110.72200012    4.90999985    2.73000002
   13.23055553  110.68099976    4.90999985    2.73000002
   13.23388958  109.27100372    4.90999985    2.73000002
   13.23611164  107.57900238    4.90999985    2.75000000
   13.23750019  114.12699890    4.90999985    2.73000002
   13.24083328  110.25800323    4.90999985    2.75000000
   13.24416733  108.64900208    4.90999985    2.73000002
   13.24722290  104.59899902    4.90999985    2.75000000
   13.25055599  107.84300232    4.90999985    2.75000000
   13.25388908  108.33599854    4.90999985    2.73000002
   13.25694466  111.87400055    4.90999985    2.73000002
   13.26027775  111.18499756    4.90999985    2.73000002
   13.26361084  106.83899689    4.90999985    2.75000000
   13.26666641  113.49700165    4.90999985    2.75000000
   13.28500080  105.97499847    4.90999985    2.75000000
   13.28666687  104.22899628    4.90999985    2.73000002
   13.29000092  107.75299835    4.90999985    2.75000000
   13.29305553  105.10199738    4.90999985    2.73000002
   13.29638958  106.61000061    4.90999985    2.73000002
   13.29944515  104.49600220    4.90999985    2.75000000
   13.30277824  103.24299622    4.90999985    2.75000000
   13.30611134   98.05470276    4.90999985    2.75000000
   13.30916691  101.51100159    4.90999985    2.75000000
   13.31250000  102.21800232    4.90999985    2.75000000
   13.31583309  100.51899719    4.90999985    2.75000000
   13.31833363  103.54699707    4.90999985    2.75000000
   13.31944466  101.08499908    4.90999985    2.75000000
   13.32250023  111.15599823    4.90999985    2.75000000
   13.32583332  107.81300354    4.90999985    2.75000000
   13.32888889  107.36699677    4.90999985    2.75000000
   13.33222198  116.83000183    4.90999985    2.75000000
   13.33555508  109.92800140    4.90999985    2.75000000
   13.33861065  107.41300201    4.90999985    2.75000000
   13.34194374  108.16400146    4.90999985    2.75000000
   13.34527779  106.38500214    4.90999985    2.75000000
   13.34833336  106.29699707    4.90999985    2.75000000
   13.35166740  104.66600037    4.90999985    2.75000000
   13.35222244  103.18800354    4.90999985    2.75000000
   13.35527802  102.71399689    4.90999985    2.75000000
   13.35861111  105.19999695    4.90999985    2.75000000
   13.36194515  101.34300232    4.90999985    2.75000000
   13.36500072   99.29550171    4.90999985    2.75000000
   13.36833382  103.18800354    4.90999985    2.75000000
   13.37138939  102.43399811    4.90999985    2.75000000
   13.37472248  104.03399658    4.90999985    2.75000000
   13.37805557  102.49500275    4.90999985    2.75000000
   13.38111115  106.13099670    4.90999985    2.75000000
   13.38444424  104.31999969    4.90999985    2.75000000
   13.38500023  110.51100159    4.90999985    2.75000000
   13.38805580  102.95300293    4.90999985    2.75000000
   13.39111137  104.37100220    4.90999985    2.75000000
   13.39444447  103.25099945    4.90999985    2.76999998
   13.39777756  108.04599762    4.90999985    2.76999998
   13.40083313  101.81900024    4.90999985    2.75000000
   13.40416622  106.33599854    4.90999985    2.75000000
   13.40749931  102.40599823    4.90999985    2.75000000
   13.41055489  106.91899872    4.90999985    2.75000000
   13.41388893  102.86499786    4.90999985    2.75000000
   13.41694450  106.43599701    4.90999985    2.75000000
   13.41833401  107.73200226    4.90999985    2.75000000
   13.42083359  103.74800110    4.90999985    2.75000000
   13.42388916  104.46399689    4.90999985    2.75000000
   13.42722225  100.87400055    4.90999985    2.75000000
   13.43055630  103.61699677    4.90999985    2.76999998
   13.43361092   98.84790039    4.90999985    2.75000000
   13.43694496  101.25399780    4.90999985    2.76999998
   13.44027805  107.83100128    4.90999985    2.75000000
   13.44333363  101.31199646    4.90999985    2.76999998
   13.44666672  102.40499878    4.90999985    2.76999998
   13.44999981  103.96900177    4.90999985    2.75000000
   13.45166683  102.36699677    4.90999985    2.76999998
   13.45361137   99.43560028    4.90999985    2.76999998
   13.45666695  100.36399841    4.90999985    2.76999998
   13.46000004  108.77200317    4.90999985    2.76999998
   13.46333313  107.50499725    4.90999985    2.76999998
   13.46638870  104.47499847    4.90999985    2.76999998
   13.46972179  105.22699738    4.90999985    2.76999998
   13.47305489   95.62210083    4.90999985    2.76999998
   13.47611046  102.28700256    4.90999985    2.76999998
   13.47944355   99.84390259    4.90999985    2.76999998
   13.48249912  100.68099976    4.90999985    2.76999998
   13.48500061   96.07599640    4.90999985    2.76999998
   13.48638916  105.75000000    4.90999985    2.76999998
   13.48944473  101.42299652    4.90999985    2.76999998
   13.49277782   98.07869720    4.90999985    2.76999998
   13.49611092  100.16600037    4.90999985    2.76999998
   13.49916649  101.09100342    4.90999985    2.76999998
   13.50249958   97.61660004    4.90999985    2.76999998
   13.50583363  103.64900208    4.90999985    2.76999998
   13.50888920   96.89790344    4.90999985    2.76999998
   13.51222229  100.35900116    4.90999985    2.76999998
   13.51527786   99.62449646    4.90999985    2.76999998
   13.51833344   96.97779846    4.90999985    2.78999996
   13.51916599   95.75350189    4.90999985    2.78999996
   13.52250004  100.46700287    4.90999985    2.76999998
   13.52555561   96.86139679    4.90999985    2.76999998
   13.52888870  105.74500275    4.90999985    2.76999998
   13.53222179   99.50080109    4.90999985    2.78999996
   13.53527832   96.58719635    4.90999985    2.76999998
   13.53861141  100.96199799    4.90999985    2.76999998
   13.54166698  102.36799622    4.90999985    2.76999998
   13.54500008   99.38230133    4.90999985    2.78999996
   13.54833412  102.78099823    4.90999985    2.76999998
   13.55138874  100.45999908    4.90999985    2.78999996
   13.55194473  101.06900024    4.90999985    2.78999996
   13.55527782   96.18730164    4.90999985    2.78999996
   13.55833340   97.29689789    4.90999985    2.76999998
   13.56166649   94.91510010    4.90999985    2.76999998
   13.56500053   95.75990295    4.90999985    2.76999998
   13.56805515   97.75959778    4.90999985    2.78999996
   13.57138920   97.34780121    4.90999985    2.78999996
   13.57472229   95.57599640    4.90999985    2.76999998
   13.57777786   99.38379669    4.90999985    2.76999998
   13.58111095  101.94200134    4.90999985    2.76999998
   13.58416653  100.88300323    4.90999985    2.78999996
   13.58527756  108.50700378    4.90999985    2.78999996
   13.58805561  101.41500092    4.90999985    2.76999998
   13.59138870   95.97489929    4.90999985    2.78999996
   13.59444427  103.17500305    4.90999985    2.78999996
   13.59777737   96.13449860    4.90999985    2.78999996
   13.60083389  101.63899994    4.90999985    2.76999998
   13.60416698   99.59110260    4.90999985    2.78999996
   13.60750008   97.48680115    4.90999985    2.78999996
   13.61055565  100.17199707    4.90999985    2.78999996
   13.61388969  105.13400269    4.90999985    2.78999996
   13.61722279  102.52100372    4.90999985    2.76999998
   13.61861134  101.32399750    4.90999985    2.78999996
   13.62083340  100.73100281    4.90999985    2.78999996
   13.62416649   98.52700043    4.90999985    2.78999996
   13.62722206   95.28939819    4.90999985    2.76999998
   13.63055611   98.32180023    4.90999985    2.78999996
   13.63361073   99.31340027    4.90999985    2.78999996
   13.63694477   99.91739655    4.90999985    2.78999996
   13.64027786   97.06580353    4.90999985    2.78999996
   13.64333344   94.82640076    4.90999985    2.78999996
   13.64666653  102.74299622    4.90999985    2.78999996
   13.64999962  105.89299774    4.90999985    2.78999996
   13.65194416  102.03800201    4.90999985    2.78999996
   13.65361118  101.46299744    4.90999985    2.78999996
   13.65694427   99.94200134    4.90999985    2.78999996
   13.65999985   95.51940155    4.90999985    2.80999994
   13.66333294  101.92500305    4.90999985    2.78999996
   13.66638851  100.63200378    4.90999985    2.78999996
   13.66972256  101.78500366    4.90999985    2.78999996
   13.67305565   95.28769684    4.90999985    2.78999996
   13.67611122   96.33390045    4.90999985    2.78999996
   13.67944431   96.78569794    4.90999985    2.78999996
   13.68277836   97.79370117    4.90999985    2.78999996
   13.68527794   98.97920227    4.90999985    2.80999994
   13.68638897  100.17199707    4.90999985    2.78999996
   13.68972206   98.35389709    4.90999985    2.78999996
   13.69277763   97.23609924    4.90999985    2.78999996
   13.69611073   98.19689941    4.90999985    2.78999996
   13.69916630   97.32460022    4.90999985    2.80999994
   13.70249939   96.55180359    4.90999985    2.78999996
   13.70583344   98.68550110    4.90999985    2.78999996
   13.70888901  103.27899933    4.90999985    2.78999996
   13.71222210  105.53500366    4.90999985    2.78999996
   13.83027744   -1.00000000   -1.00000000   -1.00000000
   13.92722225   -1.00000000   -1.00000000   -1.00000000
   14.03305531   -1.00000000   -1.00000000   -1.00000000
   14.17250061   70.51860046    4.90999985    2.82999992
   14.17555618   96.81259918    4.90999985    2.82999992
   14.17888927   95.57980347    4.90999985    2.84999990
   14.18222237   95.99459839    4.90999985    2.84999990
   14.18527794   97.05339813    4.90999985    2.84999990
   14.18861103  100.16100311    4.90999985    2.82999992
   14.19277763  100.16100311    4.90999985    2.84999990
   14.19694424   93.86319733    4.90999985    2.82999992
   14.19999981   97.48680115    4.90999985    2.84999990
   14.20333290   95.25289917    4.90999985    2.84999990
   14.20583344   92.66329956    4.90999985    2.82999992
   14.20694447   89.25710297    4.90999985    2.82999992
   14.21027756   91.82199860    4.90999985    2.82999992
   14.21361065   93.27729797    4.90999985    2.84999990
   14.21666622   96.04270172    4.90999985    2.84999990
   14.21999931   94.89040375    4.90999985    2.82999992
   14.22305489   95.46980286    4.90999985    2.82999992
   14.22638798   94.72779846    4.90999985    2.82999992
   14.22972202  101.03900146    4.90999985    2.84999990
   14.23555565  101.03900146    4.90999985    2.82999992
   14.23972225   92.82089996    4.90999985    2.82999992
   14.24305534  101.09300232    4.90999985    2.84999990
   14.24611092   92.25140381    4.90999985    2.84999990
   14.24944496   97.22679901    4.90999985    2.82999992
   14.25249958   95.14179993    4.90999985    2.82999992
   14.25583363   92.02259827    4.90999985    2.84999990
   14.25916672   97.88569641    4.90999985    2.84999990
   14.26222229   95.74629974    4.90999985    2.84999990
   14.26555538  103.27899933    4.90999985    2.84999990
   14.26888847   92.45850372    4.90999985    2.84999990
   14.27194405  101.33499908    4.90999985    2.82999992
   14.27250004   96.58180237    4.90999985    2.84999990
   14.27833271   96.58180237    4.90999985    2.84999990
   14.28249931   95.79019928    4.90999985    2.84999990
   14.28583336   97.32029724    4.90999985    2.84999990
   14.28888893   99.97429657    4.90999985    2.84999990
   14.29222298   98.91269684    4.90999985    2.84999990
   14.29555607   97.31749725    4.90999985    2.84999990
   14.29861164   98.80059814    4.90999985    2.84999990
   14.30194473   96.71399689    4.90999985    2.84999990
   14.30527782  103.15599823    4.90999985    2.84999990
   14.30583382  101.22799683    4.90999985    2.84999990
   14.30888939   93.56479645    4.90999985    2.82999992
   14.31194496   88.02899933    4.90999985    2.82999992
   14.31527805   94.44689941    4.90999985    2.84999990
   14.32138920   94.44689941    4.90999985    2.86999989
   14.32527733   90.13569641    4.90999985    2.84999990
   14.32861137   94.80789948    4.90999985    2.84999990
   14.33194447   94.84950256    4.90999985    2.84999990
   14.33500004   92.16570282    4.90999985    2.84999990
   14.33833313   93.16570282    4.90999985    2.84999990
   14.33916664   89.46289825    4.90999985    2.84999990
   14.34194374   89.65850067    4.90999985    2.84999990
   14.34499931   93.85649872    4.90999985    2.84999990
   14.34833336   92.78199768    4.90999985    2.84999990
   14.35166740   91.36129761    4.90999985    2.82999992
   14.35472298   88.61959839    4.90999985    2.84999990
   14.35805607   94.67880249    4.90999985    2.84999990
   14.36416721   94.67880249    4.90999985    2.84999990
   14.36833382   92.61519623    4.90999985    2.84999990
   14.37138939   93.88800049    4.90999985    2.84999990
   14.37250042   95.19499969    4.90999985    2.84999990
   14.37527752   94.71759796    4.90999985    2.84999990
   14.37833309   91.53610229    4.90999985    2.84999990
   14.38166714   92.81790161    4.90999985    2.84999990
   14.38500023   91.73010254    4.90999985    2.84999990
   14.38805580   98.06020355    4.90999985    2.84999990
   14.39138889   97.12680054    4.90999985    2.84999990
   14.39472198   98.29650116    4.90999985    2.84999990
   14.39777756   96.54709625    4.90999985    2.84999990
   14.40111065   91.11560059    4.90999985    2.84999990
   14.40694427   91.11560059    4.90999985    2.84999990
   14.41111088   97.82869720    4.90999985    2.82999992
   14.41444397   94.15859985    4.90999985    2.84999990
   14.41750050   93.63330078    4.90999985    2.84999990
   14.42083359   99.56729889    4.90999985    2.84999990
   14.42388916   92.69950104    4.90999985    2.84999990
   14.42722225   95.56900024    4.90999985    2.84999990
   14.43055630   93.77860260    4.90999985    2.86999989
   14.43361092   92.35690308    4.90999985    2.84999990
   14.43694496   93.63939667    4.90999985    2.84999990
   14.43916702   89.00859833    4.90999985    2.84999990
   14.44055557   89.67330170    4.90999985    2.84999990
   14.44361115   90.06179810    4.90999985    2.84999990
   14.44972229   90.06179810    4.90999985    2.84999990
   14.45388889   92.12519836    4.90999985    2.84999990
   14.45722198   91.88469696    4.90999985    2.84999990
   14.46027756   86.95110321    4.90999985    2.84999990
   14.46361065   92.42299652    4.90999985    2.82999992
   14.46694374   94.65399933    4.90999985    2.84999990
   14.46999931   89.61689758    4.90999985    2.84999990
   14.47249985   93.02059937    4.90999985    2.84999990
   14.47388840   96.73329926    4.90999985    2.82999992
   14.47694397   93.60939789    4.90999985    2.84999990
   14.48027706   95.38179779    4.90999985    2.84999990
   14.48361111   94.65679932    4.90999985    2.84999990
   14.48666668   94.55979919    4.90999985    2.84999990
   14.49277782   94.55979919    4.90999985    2.84999990
   14.49666691   90.62619781    4.90999985    2.86999989
   14.50000000   91.13500214    4.90999985    2.84999990
   14.50333309   91.08149719    4.90999985    2.86999989
   14.50583363   87.97149658    4.90999985    2.84999990
   14.50694466   89.46610260    4.90999985    2.84999990
   14.51000023   89.99150085    4.90999985    2.84999990
   14.51333332   93.63860321    4.90999985    2.84999990
   14.51666641   92.81210327    4.90999985    2.84999990
   14.51972198   90.25379944    4.90999985    2.84999990
   14.52305508   91.68740082    4.90999985    2.84999990
   14.52638817   91.17900085    4.90999985    2.86999989
   14.52944374   90.84059906    4.90999985    2.84999990
   14.53555584   90.84059906    4.90999985    2.84999990
   14.53972244   98.61879730    4.90999985    2.84999990
   14.54277802   91.57029724    4.90999985    2.84999990
   14.54611111   89.58730316    4.90999985    2.84999990
   14.54944515   93.05570221    4.90999985    2.86999989
   14.55249977   87.45580292    4.90999985    2.84999990
   14.55583382   96.32530212    4.90999985    2.84999990
   14.55888939   87.69139862    4.90999985    2.84999990
   14.56222248   91.83730316    4.90999985    2.84999990
   14.56555557   90.24359894    4.90999985    2.84999990
   14.56861115   95.03759766    4.90999985    2.86999989
   14.57194424   95.78790283    4.90999985    2.86999989
   14.57250023   91.53800201    4.90999985    2.86999989
   14.57833290   91.53800201    4.90999985    2.84999990
   14.58249950   94.27819824    4.90999985    2.84999990
   14.58583260   89.66089630    4.90999985    2.84999990
   14.58888817   98.53800201    4.90999985    2.84999990
   14.59222221   92.86840057    4.90999985    2.86999989
   14.59555531  100.90699768    4.90999985    2.84999990
   14.59861088   97.61830139    4.90999985    2.84999990
   14.60194492   94.68270111    4.90999985    2.84999990
   14.60527802   95.89710236    4.90999985    2.84999990
   14.60583401   93.19100189    4.90999985    2.84999990
   14.60888958   88.50330353    4.90999985    2.84999990
   14.61222267   89.58309937    4.90999985    2.84999990
   14.61527824   88.31240082    4.90999985    2.84999990
   14.62111092   88.31240082    4.90999985    2.84999990
   14.62527752   93.13140106    4.90999985    2.84999990
   14.62861156   90.01339722    4.90999985    2.84999990
   14.63166714   93.76010132    4.90999985    2.84999990
   14.63500023   89.59249878    4.90999985    2.84999990
   14.63833332   93.32700348    4.90999985    2.84999990
   14.63916683   89.38289642    4.90999985    2.84999990
   14.64194393   92.19830322    4.90999985    2.84999990
   14.64499950   90.32240295    4.90999985    2.84999990
   14.64833355   92.91210175    4.90999985    2.84999990
   14.65166664   95.72640228    4.90999985    2.82999992
   14.65472221   96.32140350    4.90999985    2.84999990
   14.65805531   96.78340149    4.90999985    2.84999990
   14.66388893   96.78340149    4.90999985    2.84999990
   14.66805553  108.77600098    4.90999985    2.82999992
   14.67138958   97.39640045    4.90999985    2.82999992
   14.67250061  103.53700256    4.90999985    2.84999990
   14.67500019   92.28040314    4.90999985    2.84999990
   14.67805576   95.61340332    4.90999985    2.84999990
   14.68138885   93.62390137    4.90999985    2.84999990
   14.68472195   93.84459686    4.90999985    2.84999990
   14.68777752   97.52629852    4.90999985    2.82999992
   14.69111156   98.20140076    4.90999985    2.84999990
   14.69444466   98.54460144    4.90999985    2.82999992
   14.69750023   92.16049957    4.90999985    2.82999992
   14.70083332   93.91069794    4.90999985    2.84999990
   14.70694447   93.91069794    4.90999985    2.84999990
   14.71111107   98.98459625    4.90999985    2.84999990
   14.71416664   99.19110107    4.90999985    2.84999990
   14.71749973   94.45149994    4.90999985    2.84999990
   14.72083282   98.48259735    4.90999985    2.82999992
   14.72388840  100.50599670    4.90999985    2.84999990
   14.72722149   96.30940247    4.90999985    2.84999990
   14.73027706  110.99600220    4.90999985    2.84999990
   14.73361111  106.74400330    4.90999985    2.84999990
   14.73694515  107.70099640    4.90999985    2.82999992
   14.73916721  102.68399811    4.90999985    2.82999992
   14.74055576   99.55930328    4.90999985    2.84999990
   14.74388885  101.15499878    4.90999985    2.84999990
   14.74972248  101.15499878    4.90999985    2.84999990
   14.75388908  100.80500031    4.90999985    2.84999990
   14.75722218  103.32900238    4.90999985    2.84999990
   14.76027775  109.34799957    4.90999985    2.84999990
   14.76361084  104.22599792    4.90999985    2.84999990
   14.76666641   99.59079742    4.90999985    2.84999990
   14.76999950  112.06500244    4.90999985    2.84999990
   14.77250004  101.95600128    4.90999985    2.84999990
   14.77361107  107.72100067    4.90999985    2.84999990
   14.77694416  106.21600342    4.90999985    2.84999990
   14.77999973  109.49800110    4.90999985    2.84999990
   14.78333378  104.44200134    4.90999985    2.84999990
   14.78638935  125.18800354    4.90999985    2.84999990
   14.79250050  125.18800354    4.90999985    2.84999990
   14.79666710  109.35099792    4.90999985    2.84999990
   14.80000019  106.67900085    4.90999985    2.84999990
   14.80305576  101.04900360    4.90999985    2.84999990
   14.80583382  104.87500000    4.90999985    2.84999990
   14.80694485  107.60299683    4.90999985    2.84999990
   14.81027794  108.99099731    4.90999985    2.84999990
   14.81333351  110.68299866    4.90999985    2.84999990
   14.81666660   96.23690033    4.90999985    2.84999990
   14.81972218  100.24700165    4.90999985    2.86999989
   14.82305527  103.87699890    4.90999985    2.84999990
   14.82638836  109.39399719    4.90999985    2.84999990
   14.82944393  102.96199799    4.90999985    2.84999990
   14.83527756  102.96199799    4.90999985    2.84999990
   14.83944416  102.28700256    4.90999985    2.84999990
   14.84277725   98.71320343    4.90999985    2.82999992
   14.84611034   99.35700226    4.90999985    2.84999990
   14.84916592   98.11190033    4.90999985    2.84999990
   14.85249996   98.14260101    4.90999985    2.82999992
   14.85583401  106.14399719    4.90999985    2.84999990
   14.85888958   91.96710205    4.90999985    2.84999990
   14.86222267   99.45850372    4.90999985    2.84999990
   14.86527824  102.41799927    4.90999985    2.84999990
   14.86861134   94.12110138    4.90999985    2.84999990
   14.87194443   96.90450287    4.90999985    2.84999990
   14.87250042   90.22389984    4.90999985    2.84999990
   14.87833309   90.22389984    4.90999985    2.82999992
   14.88249969   91.65869904    4.90999985    2.84999990
   14.88555527  100.32900238    4.90999985    2.84999990
   14.88888836   99.49919891    4.90999985    2.82999992
   14.89194393   92.59470367    4.90999985    2.84999990
   14.89527798   98.46160126    4.90999985    2.82999992
   14.89861107  100.78099823    4.90999985    2.84999990
   14.90166664   96.84429932    4.90999985    2.84999990
   14.90499973   99.62979889    4.90999985    2.82999992
   14.90583324  104.25000000    4.90999985    2.84999990
   14.90861034   93.31379700    4.90999985    2.84999990
   14.91194439   95.38909912    4.90999985    2.86999989
   14.91499996   93.72070313    4.90999985    2.84999990
   14.92111111   93.72070313    4.90999985    2.84999990
   14.92527771  102.27400208    4.90999985    2.84999990
   14.92861176  100.42400360    4.90999985    2.84999990
   14.93166733   95.01830292    4.90999985    2.84999990
   14.93500042  101.63099670    4.90999985    2.82999992
   14.93833351   99.44490051    4.90999985    2.82999992
   14.93916702   92.51879883    4.90999985    2.82999992
   14.94194412   99.08920288    4.90999985    2.82999992
   14.94527817   93.03189850    4.90999985    2.84999990
   14.94833374   99.40039825    4.90999985    2.82999992
   14.95166683   92.57299805    4.90999985    2.84999990
   14.95472240   98.38939667    4.90999985    2.82999992
   14.95805550   96.69779968    4.90999985    2.84999990
   14.96388912   96.69779968    4.90999985    2.84999990
   14.96805477   99.37359619    4.90999985    2.84999990
   14.97138882   95.46910095    4.90999985    2.84999990
   14.97249985   99.05390167    4.90999985    2.84999990
   14.97499943   95.06189728    4.90999985    2.86999989
   14.97833252   91.67130280    4.90999985    2.86999989
   14.98138809   93.94809723    4.90999985    2.84999990
   14.98472214  100.94699860    4.90999985    2.84999990
   14.98777771   99.94309998    4.90999985    2.84999990
   14.99111176   97.37400055    4.90999985    2.84999990
   14.99444485   99.89420319    4.90999985    2.86999989
   14.99750042   91.58200073    4.90999985    2.86999989
   15.00083351   90.85520172    4.90999985    2.86999989
   15.00666714   90.85520172    4.90999985    2.84999990
   15.01083374   94.19100189    4.90999985    2.84999990
   15.01416683   94.95279694    4.90999985    2.84999990
   15.01722240   95.45200348    4.90999985    2.84999990
   15.02055550   87.48030090    4.90999985    2.84999990
   15.02388859   97.61889648    4.90999985    2.86999989
   15.02694416   89.43460083    4.90999985    2.84999990
   15.03027725   97.63259888    4.90999985    2.84999990
   15.03361130   97.27120209    4.90999985    2.84999990
   15.03666687   92.19529724    4.90999985    2.84999990
   15.03916740  102.97599792    4.90999985    2.84999990
   15.04027843  103.06600189    4.90999985    2.84999990
   15.04361153  102.08200073    4.90999985    2.84999990
   15.04972267  102.08200073    4.90999985    2.84999990
   15.05361176   93.67160034    4.90999985    2.86999989
   15.05694485  102.52200317    4.90999985    2.84999990
   15.06027794   97.53430176    4.90999985    2.86999989
   15.06333351  101.84999847    4.90999985    2.84999990
   15.06666660   94.29840088    4.90999985    2.86999989
   15.06999969   92.34909821    4.90999985    2.86999989
   15.07250023   96.47660065    4.90999985    2.84999990
   15.07361126   95.21939850    4.90999985    2.84999990
   15.07694435   97.40630341    4.90999985    2.86999989
   15.07999992   97.14009857    4.90999985    2.84999990
   15.08333302   92.20539856    4.90999985    2.84999990
   15.08666611   93.10340118    4.90999985    2.84999990
   15.09249973   93.10340118    4.90999985    2.84999990
   15.09666634   97.54879761    4.90999985    2.84999990
   15.09972191   93.20469666    4.90999985    2.84999990
   15.10305595   95.48090363    4.90999985    2.84999990
   15.10583401   92.93370056    4.90999985    2.86999989
   15.10666752   93.57949829    4.90999985    2.86999989
   15.11000061   95.89890289    4.90999985    2.84999990
   15.11305618   95.29570007    4.90999985    2.84999990
   15.11638927   97.51969910    4.90999985    2.84999990
   15.11972237   96.70320129    4.90999985    2.84999990
   15.12277794   89.15299988    4.90999985    2.84999990
   15.12611103   93.71920013    4.90999985    2.86999989
   15.12916660   96.97389984    4.90999985    2.84999990
   15.13527775   96.97389984    4.90999985    2.86999989
   15.13944435   86.87370300    4.90999985    2.86999989
   15.14277744   91.51029968    4.90999985    2.84999990
   15.14583302   86.93810272    4.90999985    2.84999990
   15.14916611   89.48139954    4.90999985    2.86999989
   15.15222168   90.77890015    4.90999985    2.84999990
   15.15555477   93.86180115    4.90999985    2.84999990
   15.15888882   93.15920258    4.90999985    2.86999989
   15.16194439   96.77760315    4.90999985    2.86999989
   15.16527748   96.74929810    4.90999985    2.86999989
   15.16861153   92.84049988    4.90999985    2.86999989
   15.17166710   94.74559784    4.90999985    2.86999989
   15.17250061   93.74120331    4.90999985    2.86999989
   15.19333363   93.74120331    4.90999985    2.86999989
   15.19750023   95.79190063    4.90999985    2.86999989
   15.20055580   96.58589935    4.90999985    2.84999990
   15.20388889   97.14389801    4.90999985    2.86999989
   15.20611095   97.74800110    4.90999985    2.84999990
   15.20749950   91.58799744    4.90999985    2.86999989
   15.21083355   95.70300293    4.90999985    2.86999989
   15.21388912   94.80650330    4.90999985    2.86999989
   15.21722221   96.51799774    4.90999985    2.86999989
   15.22055531   87.17710114    4.90999985    2.86999989
   15.22361088   93.01989746    4.90999985    2.86999989
   15.22694397   94.44740295    4.90999985    2.86999989
   15.22999954   96.23829651    4.90999985    2.86999989
   15.23611164   96.23829651    4.90999985    2.86999989
   15.24027824   87.32820129    4.90999985    2.86999989
   15.24333382   91.25550079    4.90999985    2.86999989
   15.24666691   95.33159637    4.90999985    2.86999989
   15.25000000   94.77159882    4.90999985    2.86999989
   15.25305557   95.75710297    4.90999985    2.86999989
   15.25638866   91.32450104    4.90999985    2.86999989
   15.25944424   91.28289795    4.90999985    2.86999989
   15.26277733   94.95259857    4.90999985    2.86999989
   15.26611137   94.10389709    4.90999985    2.89000010
   15.26916599   96.09100342    4.90999985    2.86999989
   15.27250004   89.58550262    4.90999985    2.86999989
   15.27305508   85.80570221    4.90999985    2.86999989
   15.27888870   85.80570221    4.90999985    2.86999989
   15.28305531   89.35890198    4.90999985    2.86999989
   15.28638935   98.07089996    4.90999985    2.86999989
   15.28944492   88.18430328    4.90999985    2.86999989
   15.29277802   86.23780060    4.90999985    2.86999989
   15.29583359   92.01809692    4.90999985    2.86999989
   15.29916668   92.96089935    4.90999985    2.86999989
   15.30249977   92.16880035    4.90999985    2.86999989
   15.30555534   90.55989838    4.90999985    2.86999989
   15.30638885   94.95549774    4.90999985    2.86999989
   15.30944443   86.81359863    4.90999985    2.86999989
   15.31250000   95.43509674    4.90999985    2.86999989
   15.31583309   89.41110229    4.90999985    2.86999989
   15.32166672   89.41110229    4.90999985    2.86999989
   15.32583332   90.32929993    4.90999985    2.86999989
   15.32916641   94.57250214    4.90999985    2.86999989
   15.33222198   89.85320282    4.90999985    2.86999989
   15.33555508   93.00440216    4.90999985    2.86999989
   15.33888817   92.78209686    4.90999985    2.86999989
   15.33972168   91.37989807    4.90999985    2.86999989
   15.34249973   89.25219727    4.90999985    2.86999989
   15.34555531   93.03189850    4.90999985    2.86999989
   15.34888840   92.77169800    4.90999985    2.86999989
   15.35194492  105.89499664    4.90999985    2.86999989
   15.35527802   85.07620239    4.90999985    2.86999989
   15.35861111   91.34570313    4.90999985    2.86999989
   15.36472225   91.34570313    4.90999985    2.86999989
   15.36861134   93.81430054    4.90999985    2.86999989
   15.37194443   97.32759857    4.90999985    2.86999989
   15.37305546   95.39360046    4.90999985    2.86999989
   15.37583351   93.86199951    4.90999985    2.86999989
   15.37888908   92.39209747    4.90999985    2.86999989
   15.38222218   92.52459717    4.90999985    2.86999989
   15.38527775   90.04319763    4.90999985    2.86999989
   15.38861084   91.82270050    4.90999985    2.84999990
   15.39194393   85.75810242    4.90999985    2.86999989
   15.39499950   89.82099915    4.90999985    2.86999989
   15.39833355   93.35530090    4.90999985    2.84999990
   15.40166664   99.66449738    4.90999985    2.86999989
   15.40749931   99.66449738    4.90999985    2.86999989
   15.41166592   85.99649811    4.90999985    2.86999989
   15.41472149   90.65029907    4.90999985    2.86999989
   15.41805553   92.95349884    4.90999985    2.89000010
   15.42138958   92.86630249    4.90999985    2.89000010
   15.42444515   98.39109802    4.90999985    2.86999989
   15.42777824   95.50910187    4.90999985    2.89000010
   15.43083382  103.44000244    4.90999985    2.89000010
   15.43416691   92.00469971    4.90999985    2.89000010
   15.43750000   99.78160095    4.90999985    2.89000010
   15.43972206   89.70459747    4.90999985    2.86999989
   15.44111156   89.29699707    4.90999985    2.86999989
   15.44416714   98.52220154    4.90999985    2.86999989
   15.45027733   98.52220154    4.90999985    2.89000010
   15.45444393   92.74299622    4.90999985    2.89000010
   15.45777798   97.94010162    4.90999985    2.86999989
   15.46083355  100.43000031    4.90999985    2.89000010
   15.46416664   99.73609924    4.90999985    2.86999989
   15.46722221   94.92310333    4.90999985    2.89000010
   15.47055531   95.21309662    4.90999985    2.86999989
   15.47305489   96.92259979    4.90999985    2.89000010
   15.47444439   91.50779724    4.90999985    2.89000010
   15.47749996   88.47180176    4.90999985    2.86999989
   15.48083305   87.82430267    4.90999985    2.86999989
   15.48388958   96.40080261    4.90999985    2.86999989
   15.48722267   93.34850311    4.90999985    2.86999989
   15.49305534   93.34850311    4.90999985    2.86999989
   15.49722290   92.73349762    4.90999985    2.86999989
   15.50055599   93.56770325    4.90999985    2.89000010
   15.50361156   93.76360321    4.90999985    2.84999990
   15.50638866   90.84210205    4.90999985    2.86999989
   15.50749969   95.04209900    4.90999985    2.86999989
   15.51055527   98.80570221    4.90999985    2.86999989
   15.51388931   87.96060181    4.90999985    2.86999989
   15.51694393   95.29290009    4.90999985    2.86999989
   15.52027798   94.88020325    4.90999985    2.86999989
   15.52361107   97.56659698    4.90999985    2.86999989
   15.52694416   89.31220245    4.90999985    2.86999989
   15.52999973   96.83689880    4.90999985    2.86999989
   15.53611183   96.83689880    4.90999985    2.86999989
   15.54000092   89.42030334    4.90999985    2.86999989
   15.54333401   90.89379883    4.90999985    2.89000010
   15.54666710   87.34970093    4.90999985    2.86999989
   15.54972267   90.71389771    4.90999985    2.89000010
   15.55305576   95.53910065    4.90999985    2.86999989
   15.55638885   92.27100372    4.90999985    2.89000010
   15.55944443   89.38600159    4.90999985    2.89000010
   15.56277752   88.93090057    4.90999985    2.86999989
   15.56583309   94.18710327    4.90999985    2.89000010
   15.56916618   89.84960175    4.90999985    2.89000010
   15.57250023   97.11119843    4.90999985    2.89000010
   15.57305527   97.69290161    4.90999985    2.89000010
   15.57888889   97.69290161    4.90999985    2.89000010
   15.58305550   92.28269958    4.90999985    2.89000010
   15.58611107   92.36139679    4.90999985    2.89000010
   15.58944416   97.43730164    4.90999985    2.89000010
   15.59277725   95.38279724    4.90999985    2.89000010
   15.59583282   91.17379761    4.90999985    2.89000010
   15.59916592   98.41149902    4.90999985    2.89000010
   15.60222244   91.97339630    4.90999985    2.86999989
   15.60555553   95.98539734    4.90999985    2.89000010
   15.60638905   94.46070099    4.90999985    2.89000010
   15.60916710   94.12699890    4.90999985    2.86999989
   15.61222267   95.84590149    4.90999985    2.89000010
   15.61555576   95.89330292    4.90999985    2.89000010
   15.62166691   95.89330292    4.90999985    2.86999989
   15.62583351   84.53780365    4.90999985    2.89000010
   15.62916660   92.75420380    4.90999985    2.86999989
   15.63222218   94.50630188    4.90999985    2.89000010
   15.63555527   93.72810364    4.90999985    2.89000010
   15.63861084   94.58540344    4.90999985    2.86999989
   15.63972187   89.92430115    4.90999985    2.89000010
   15.64249992   94.59269714    4.90999985    2.89000010
   15.64555550   98.51119995    4.90999985    2.89000010
   15.64888859   93.87100220    4.90999985    2.89000010
   15.65222168   93.31269836    4.90999985    2.89000010
   15.65527725   96.01860046    4.90999985    2.89000010
   15.65861034   98.84400177    4.90999985    2.89000010
   15.66444397   98.84400177    4.90999985    2.89000010
   15.66861153   93.23880005    4.90999985    2.89000010
   15.67194462   91.72149658    4.90999985    2.89000010
   15.67305565   95.18959808    4.90999985    2.89000010
   15.67555618   93.36170197    4.90999985    2.89000010
   15.67861176   98.80069733    4.90999985    2.89000010
   15.68194485   91.95179749    4.90999985    2.89000010
   15.68527794   93.03330231    4.90999985    2.89000010
   15.68833351   95.23429871    4.90999985    2.89000010
   15.69166660   95.21479797    4.90999985    2.89000010
   15.69499969   90.03199768    4.90999985    2.89000010
   15.69805527   98.01730347    4.90999985    2.89000010
   15.70138836   97.91390228    4.90999985    2.89000010
   15.70749950   97.91390228    4.90999985    2.89000010
   15.71138859  101.46700287    4.90999985    2.89000010
   15.71472168   95.20379639    4.90999985    2.89000010
   15.71805477   97.12159729    4.90999985    2.89000010
   15.72111034   98.09819794    4.90999985    2.89000010
   15.72444439   87.34210205    4.90999985    2.89000010
   15.72777748   89.76719666    4.90999985    2.89000010
   15.73083305   98.77700043    4.90999985    2.89000010
   15.73416710   94.12039948    4.90999985    2.86999989
   15.73722267   90.53019714    4.90999985    2.89000010
   15.73972225   95.91200256    4.90999985    2.89000010
   15.74111176   97.53690338    4.90999985    2.89000010
   15.74416733   95.93170166    4.90999985    2.89000010
   15.75027752   95.93170166    4.90999985    2.89000010
   15.75444412   93.85990143    4.90999985    2.89000010
   15.75749969   93.53019714    4.90999985    2.89000010
   15.76083374   91.79660034    4.90999985    2.89000010
   15.76416683   90.97319794    4.90999985    2.89000010
   15.76722240   91.52349854    4.90999985    2.89000010
   15.77055550   90.28269958    4.90999985    2.89000010
   15.77305508   93.70839691    4.90999985    2.91000009
   15.77416611   91.25389862    4.90999985    2.91000009
   15.77722168   98.68840027    4.90999985    2.89000010
   15.78055573   95.27459717    4.90999985    2.89000010
   15.78388977   97.44809723    4.90999985    2.89000010
   15.78694534   98.43740082    4.90999985    2.89000010
   15.79305553   98.43740082    4.90999985    2.89000010
   15.79722309  100.60600281    4.90999985    2.89000010
   15.80055618  100.36000061    4.90999985    2.89000010
   15.80361176   95.63300323    4.90999985    2.91000009
   15.80638885   96.91000366    4.90999985    2.86999989
   15.80749989   96.66470337    4.90999985    2.89000010
   15.81055546  100.17700195    4.90999985    2.91000009
   15.81388950   95.35269928    4.90999985    2.89000010
   15.81722260   92.62809753    4.90999985    2.89000010
   15.82027817   94.92420197    4.90999985    2.89000010
   15.82361126   85.97699738    4.90999985    2.89000010
   15.82666683   87.73239899    4.90999985    2.89000010
   15.82999992   95.66539764    4.90999985    2.89000010
   15.83583260   95.66539764    4.90999985    2.89000010
   15.84000015   87.71410370    4.90999985    2.89000010
   15.84333324   86.86609650    4.90999985    2.91000009
   15.84638882   96.94190216    4.90999985    2.89000010
   15.84972191  106.01399994    4.90999985    2.91000009
   15.85305595   97.88909912    4.90999985    2.89000010
   15.85611153  100.65299988    4.90999985    2.89000010
   15.85944462   97.16889954    4.90999985    2.89000010
   15.86277771   93.24160004    4.90999985    2.89000010
   15.86583328   99.05829620    4.90999985    2.89000010
   15.86916637   89.87999725    4.90999985    2.89000010
   15.87222195   94.56120300    4.90999985    2.89000010
   15.87305546   92.86350250    4.90999985    2.89000010
   15.87888908   92.86350250    4.90999985    2.89000010
   15.88277817   92.88829803    4.90999985    2.89000010
   15.88611126   94.34719849    4.90999985    2.89000010
   15.88944435   91.15750122    4.90999985    2.89000010
   15.89249992   91.06950378    4.90999985    2.89000010
   15.89583302   89.49900055    4.90999985    2.89000010
   15.89916611   95.38150024    4.90999985    2.89000010
   15.90222168   92.25279999    4.90999985    2.86999989
   15.90555477   92.56500244    4.90999985    2.89000010
   15.90638828   92.47090149    4.90999985    2.86999989
   15.90916634   89.70809937    4.90999985    2.89000010
   15.91249943   95.15059662    4.90999985    2.86999989
   15.91583252   91.32990265    4.90999985    2.89000010
   15.92166710   91.32990265    4.90999985    2.89000010
   15.92583370   98.38819885    4.90999985    2.89000010
   15.92888927   94.31410217    4.90999985    2.91000009
   15.93222237   89.39939880    4.90999985    2.89000010
   15.93527794   97.03330231    4.90999985    2.89000010
   15.93861103   96.39219666    4.90999985    2.89000010
   15.93972206   97.13520050    4.90999985    2.89000010
   15.94222260   99.20429993    4.90999985    2.89000010
   15.94527817   94.62129974    4.90999985    2.91000009
   15.94861126   97.32689667    4.90999985    2.89000010
   15.95194435   96.37860107    4.90999985    2.91000009
   15.95499992  102.25299835    4.90999985    2.91000009
   15.95833302  102.99500275    4.90999985    2.89000010
   15.96444416  102.99500275    4.90999985    2.91000009
   15.96861076   95.99060059    4.90999985    2.89000010
   15.97166634   96.46160126    4.90999985    2.89000010
   15.97305489   90.90160370    4.90999985    2.89000010
   15.97555542   90.19999695    4.90999985    2.91000009
   15.97861099   96.15989685    4.90999985    2.89000010
   15.98194408   91.60399628    4.90999985    2.91000009
   15.98527813  101.91500092    4.90999985    2.91000009
   15.98833370   91.15779877    4.90999985    2.91000009
   15.99166679   96.52320099    4.90999985    2.89000010
   15.99499989   96.04859924    4.90999985    2.89000010
   15.99805546   90.25260162    4.90999985    2.89000010
   16.00138855   92.52189636    4.90999985    2.89000010
   16.00722313   92.52189636    4.90999985    2.89000010
   16.01138878   91.56430054    4.90999985    2.89000010
   16.01472282   92.22239685    4.90999985    2.89000010
   16.01777840   97.68190002    4.90999985    2.91000009
   16.02111053   90.95469666    4.90999985    2.91000009
   16.02444458   88.34339905    4.90999985    2.89000010
   16.02750015   88.33609772    4.90999985    2.89000010
   16.03083229   92.29129791    4.90999985    2.89000010
   16.03416634  100.27500153    4.90999985    2.89000010
   16.03722191   97.24189758    4.90999985    2.89000010
   16.03972244   94.88819885    4.90999985    2.89000010
   16.04111099   92.01899719    4.90999985    2.89000010
   16.04416656   91.96260071    4.90999985    2.89000010
   16.04999924   91.96260071    4.90999985    2.91000009
   16.05416679   90.88919830    4.90999985    2.89000010
   16.05749893   85.62979889    4.90999985    2.91000009
   16.06083298   89.41929626    4.90999985    2.86999989
   16.06388855   88.74530029    4.90999985    2.89000010
   16.06722260   89.18620300    4.90999985    2.89000010
   16.07027817   87.67620087    4.90999985    2.89000010
   16.07305717   83.21130371    4.90999985    2.89000010
   16.07416725   95.95709991    4.90999985    2.91000009
   16.07750130   91.49819946    4.90999985    2.89000010
   16.08055687   87.53399658    4.90999985    2.91000009
   16.08388901   91.18640137    4.90999985    2.89000010
   16.08694458   93.82530212    4.90999985    2.89000010
   16.09305573   93.82530212    4.90999985    2.89000010
   16.09722328   88.50949860    4.90999985    2.89000010
   16.10027885   90.52610016    4.90999985    2.89000010
   16.10361099   86.43160248    4.90999985    2.89000010
   16.10639000   88.60410309    4.90999985    2.89000010
   16.10722351   84.03839874    4.90999985    2.89000010
   16.11055565   95.16709900    4.90999985    2.89000010
   16.11361122   91.20780182    4.90999985    2.89000010
   16.11694527   93.96600342    4.90999985    2.89000010
   16.12000084   93.97740173    4.90999985    2.89000010
   16.12333298   97.88619995    4.90999985    2.91000009
   16.12666702   89.90519714    4.90999985    2.89000010
   16.12972260   92.31749725    4.90999985    2.89000010
   16.13583374   92.31749725    4.90999985    2.89000010
   16.13999939   98.04309845    4.90999985    2.89000010
   16.14305496   95.95439911    4.90999985    2.89000010
   16.14638901   97.69930267    4.90999985    2.89000010
   16.14972115   90.58799744    4.90999985    2.91000009
   16.15277672   94.48429871    4.90999985    2.89000010
   16.15611076   98.46910095    4.90999985    2.89000010
   16.15944481   89.55629730    4.90999985    2.89000010
   16.16250038   91.36949921    4.90999985    2.89000010
   16.16583252   90.45480347    4.90999985    2.89000010
   16.16888809   94.70629883    4.90999985    2.89000010
   16.17222214   90.49410248    4.90999985    2.89000010
   16.17305565   91.73419952    4.90999985    2.89000010
   16.17860985   91.73419952    4.90999985    2.89000010
   16.18277740   94.83789825    4.90999985    2.89000010
   16.18610954   94.48380280    4.90999985    2.89000010
   16.18916512   93.39240265    4.90999985    2.86999989
   16.20694542   93.57219696    4.90999985    2.89000010
   16.20916748   96.11889648    4.90999985    2.89000010
   16.21250153   98.77780151    4.90999985    2.89000010
   16.21583366   95.37870026    4.90999985    2.89000010
   16.22166634   95.37870026    4.90999985    2.89000010
   16.22583389   96.18849945    4.90999985    2.89000010
   16.22916794   96.25990295    4.90999985    2.86999989
   16.23222351   93.00499725    4.90999985    2.86999989
   16.23555565   96.28949738    4.90999985    2.89000010
   16.23861122   86.66049957    4.90999985    2.89000010
   16.23999977   87.51319885    4.90999985    2.86999989
   16.24222183   94.16510010    4.90999985    2.86999989
   16.24555588   92.58650208    4.90999985    2.86999989
   16.24861145   96.36599731    4.90999985    2.89000010
   16.25194359   91.47869873    4.90999985    2.89000010
   16.25527763   95.55239868    4.90999985    2.89000010
   16.25833321   92.18479919    4.90999985    2.89000010
   16.26444435   92.18479919    4.90999985    2.89000010
   16.26861000   93.61820221    4.90999985    2.86999989
   16.27194405   86.93540192    4.90999985    2.89000010
   16.27333260   89.24579620    4.90999985    2.89000010
   16.27555466   89.06839752    4.90999985    2.86999989
   16.27888870   90.35399628    4.90999985    2.89000010
   16.28194427   91.79380035    4.90999985    2.86999989
   16.28527641   94.07579803    4.90999985    2.89000010
   16.28861046   93.07610321    4.90999985    2.86999989
   16.29166603   94.39990234    4.90999985    2.89000010
   16.29500008   91.98100281    4.90999985    2.89000010
   16.29833221   85.18039703    4.90999985    2.89000010
   16.30138779   93.91310120    4.90999985    2.86999989
   16.30749893   93.91310120    4.90999985    2.89000010
   16.31138802   97.49919891    4.90999985    2.84999990
   16.31472206   93.70130157    4.90999985    2.89000010
   16.31805611   96.09809875    4.90999985    2.89000010
   16.32111168   98.16729736    4.90999985    2.89000010
   16.32444572  106.30100250    4.90999985    2.89000010
   16.32777786  105.84300232    4.90999985    2.86999989
   16.33083344   92.00669861    4.90999985    2.91000009
   16.33416748  101.94899750    4.90999985    2.91000009
   16.33722305   90.62409973    4.90999985    2.91000009
   16.34000015   91.77590179    4.90999985    2.89000010
   16.34083366   92.44090271    4.90999985    2.91000009
   16.34416771   98.80909729    4.90999985    2.89000010
   16.35027885   98.80909729    4.90999985    2.89000010
   16.35444450   91.30970001    4.90999985    2.89000010
   16.35750008   93.91419983    4.90999985    2.89000010
   16.36083412   97.26850128    4.90999985    2.89000010
   16.36416626   92.99289703    4.90999985    2.89000010
   16.36722183   90.14440155    4.90999985    2.91000009
   16.37055588   96.65429688    4.90999985    2.89000010
   16.37333298   95.57180023    4.90999985    2.89000010
   16.37416649   90.12239838    4.90999985    2.89000010
   16.37750053   92.12580109    4.90999985    2.89000010
   16.38083267   90.72409821    4.90999985    2.89000010
   16.38388824   96.03130341    4.90999985    2.89000010
   16.38722229   96.85500336    4.90999985    2.89000010
   16.39305496   96.85500336    4.90999985    2.89000010
   16.39722252  103.77200317    4.90999985    2.89000010
   16.40055466   93.60169983    4.90999985    2.89000010
   16.40361023   98.76170349    4.90999985    2.89000010
   16.40666580   99.33139801    4.90999985    2.89000010
   16.40722275   99.96659851    4.90999985    2.91000009
   16.41055489  106.84899902    4.90999985    2.89000010
   16.41361046  100.26100159    4.90999985    2.89000010
   16.41694450   92.40000153    4.90999985    2.91000009
   16.42027664   97.05829620    4.90999985    2.89000010
   16.42333221  101.76100159    4.90999985    2.89000010
   16.42666626   87.06569672    4.90999985    2.89000010
   16.42972183   90.80670166    4.90999985    2.89000010
   16.43583298   90.80670166    4.90999985    2.89000010
   16.43999863   86.18319702    4.90999985    2.89000010
   16.44055557   94.72100067    4.90999985    2.89000010
   16.44388771   91.90029907    4.90999985    2.89000010
   16.44694328   93.56390381    4.90999985    2.89000010
   16.45027924   89.13069916    4.90999985    2.89000010
   16.45361137   90.22579956    4.90999985    2.89000010
   16.45666695  101.42199707    4.90999985    2.89000010
   16.46000099   91.26010132    4.90999985    2.89000010
   16.46333504   95.63780212    4.90999985    2.89000010
   16.46638870   92.59200287    4.90999985    2.89000010
   16.46972275   94.56159973    4.90999985    2.89000010
   16.47277832   90.55979919    4.90999985    2.89000010
   16.47333336   94.90579987    4.90999985    2.89000010
   16.47888947   94.90579987    4.90999985    2.89000010
   16.48277855   97.33630371    4.90999985    2.89000010
   16.48611069   98.38690186    4.90999985    2.89000010
   16.48944473   95.69989777    4.90999985    2.89000010
   16.49250031   99.65750122    4.90999985    2.89000010
   16.49583435   93.44899750    4.90999985    2.89000010
   16.49916649   92.45279694    4.90999985    2.89000010
   16.50222206   92.65799713    4.90999985    2.89000010
   16.50555611   94.00669861    4.90999985    2.89000010
   16.50694466   97.57409668    4.90999985    2.86999989
   16.50916672   97.57430267    4.90999985    2.89000010
   16.51250076  100.92800140    4.90999985    2.89000010
   16.51555634   90.80159760    4.90999985    2.89000010
   16.52166557   90.80159760    4.90999985    2.89000010
   16.52583313   91.63240051    4.90999985    2.89000010
   16.52888870   91.24310303    4.90999985    2.89000010
   16.53222275   94.69750214    4.90999985    2.89000010
   16.53555489   97.83300018    4.90999985    2.86999989
   16.53861046   98.43399811    4.90999985    2.89000010
   16.54027748   96.34559631    4.90999985    2.89000010
   16.54222107   96.67189789    4.90999985    2.86999989
   16.54555511  105.74500275    4.90999985    2.89000010
   16.54861069   97.62580109    4.90999985    2.86999989
   16.55194283   95.38120270    4.90999985    2.86999989
   16.55527687   95.15570068    4.90999985    2.89000010
   16.55833244   91.31719971    4.90999985    2.86999989
   16.56444359   91.31719971    4.90999985    2.89000010
   16.56861115   93.16159821    4.90999985    2.89000010
   16.57194519   87.21089935    4.90999985    2.89000010
   16.57361221   94.11260223    4.90999985    2.89000010
   16.57527924   87.42970276    4.90999985    2.89000010
   16.57861137   93.78849792    4.90999985    2.89000010
   16.58166695   86.69539642    4.90999985    2.86999989
   16.58500099   89.06710052    4.90999985    2.86999989
   16.58833313   93.39649963    4.90999985    2.89000010
   16.59138870   94.32510376    4.90999985    2.86999989
   16.59472275   90.56030273    4.90999985    2.86999989
   16.59805679   91.68750000    4.90999985    2.89000010
   16.60111237   92.18710327    4.90999985    2.89000010
   16.60722351   92.18710327    4.90999985    2.89000010
   16.61138916   93.63849640    4.90999985    2.89000010
   16.61472321   93.30380249    4.90999985    2.89000010
   16.61777878   91.19799805    4.90999985    2.89000010
   16.62111092   97.84829712    4.90999985    2.89000010
   16.62444496   90.51760101    4.90999985    2.86999989
   16.62750053   94.00499725    4.90999985    2.89000010
   16.63083267   90.42710114    4.90999985    2.89000010
   16.63416672   93.70099640    4.90999985    2.89000010
   16.63722229   91.03040314    4.90999985    2.89000010
   16.64027786   91.39479828    4.90999985    2.89000010
   16.64083290   93.17880249    4.90999985    2.86999989
   16.64416695   95.89469910    4.90999985    2.89000010
   16.65027809   95.89469910    4.90999985    2.89000010
   16.65416718   91.37110138    4.90999985    2.86999989
   16.65749931   91.06749725    4.90999985    2.86999989
   16.66083336   93.00050354    4.90999985    2.89000010
   16.66388893   89.08159637    4.90999985    2.89000010
   16.66722107   95.91380310    4.90999985    2.86999989
   16.67055511   91.16940308    4.90999985    2.89000010
   16.67361069   97.09510040    4.90999985    2.89000010
   16.67388916   93.49800110    4.90999985    2.89000010
   16.67722130   92.53399658    4.90999985    2.89000010
   16.68027687   88.60289764    4.90999985    2.86999989
   16.68361092   92.04840088    4.90999985    2.86999989
   16.68694305   96.94950104    4.90999985    2.86999989
   16.69305420   96.94950104    4.90999985    2.89000010
   16.69722176   90.54409790    4.90999985    2.86999989
   16.70027924   87.11779785    4.90999985    2.89000010
   16.70361137   94.32700348    4.90999985    2.89000010
   16.70694542   91.40920258    4.90999985    2.89000010
   16.70722389   85.25949860    4.90999985    2.89000010
   16.71055603   86.98819733    4.90999985    2.89000010
   16.71361160   90.88210297    4.90999985    2.89000010
   16.71694565   88.84290314    4.90999985    2.89000010
   16.72027779   90.18830109    4.90999985    2.89000010
   16.72333336   91.75550079    4.90999985    2.91000009
   16.72666740   91.91590118    4.90999985    2.91000009
   16.73000145   84.94989777    4.90999985    2.89000010
   16.73583412   84.94989777    4.90999985    2.89000010
   16.73999977   91.93229675    4.90999985    2.89000010
   16.74055672   92.57759857    4.90999985    2.86999989
   16.74388885   88.89939880    4.90999985    2.89000010
   16.74694443   88.35649872    4.90999985    2.89000010
   16.75027847   89.55580139    4.90999985    2.89000010
   16.75333405   87.30290222    4.90999985    2.89000010
   16.75666618   83.15599823    4.90999985    2.86999989
   16.76000023   92.52999878    4.90999985    2.86999989
   16.76305580   93.97039795    4.90999985    2.89000010
   16.76638794   89.65080261    4.90999985    2.89000010
   16.76972198   84.67749786    4.90999985    2.89000010
   16.77277756   88.86000061    4.90999985    2.86999989
   16.77388954   90.32540131    4.90999985    2.86999989
   16.77861023   90.32540131    4.90999985    2.78999996
   16.78277779   90.32369995    4.90999985    2.84999990
   16.78610992   90.33450317    4.90999985    2.86999989
   16.78916550   95.15190125    4.90999985    2.86999989
   16.79249954   90.43319702    4.90999985    2.89000010
   16.79583359   95.02989960    4.90999985    2.89000010
   16.79916573   93.96869659    4.90999985    2.86999989
   16.80222130   94.46279907    4.90999985    2.86999989
   16.80555534   92.36430359    4.90999985    2.86999989
   16.80722237   94.26820374    4.90999985    2.89000010
   16.80916595   95.11540222    4.90999985    2.86999989
   16.81222153   91.15840149    4.90999985    2.86999989
   16.81555557   89.32849884    4.90999985    2.86999989
   16.82166672   89.32849884    4.90999985    2.84999990
   16.82555580   93.38110352    4.90999985    2.86999989
   16.82888985   91.41590118    4.90999985    2.80999994
   16.83222389   87.66539764    4.90999985    2.86999989
   16.83527756   93.75460052    4.90999985    2.82999992
   16.83861160   87.72619629    4.90999985    2.71000004
   16.84055710   95.58879852    4.90999985    2.76999998
   16.84250069   97.14179993    4.90999985    2.76999998
   16.84555626   89.86019897    4.90999985    2.75000000
   16.84889030   96.90180206    4.90999985    2.80999994
   16.85194397   96.45379639    4.90999985    2.78999996
   16.85527802   87.89880371    4.90999985    2.82999992
   16.85861206   92.50920105    4.90999985    2.82999992
   16.86444473   92.50920105    4.90999985    2.76999998
   16.86861038   91.75599670    4.90999985    2.78999996
   16.87166595   96.76210022    4.90999985    2.84999990
   16.87388992   99.80310059    4.90999985    2.82999992
   16.87555504   92.84310150    4.90999985    2.76999998
   16.87861061   93.52719879    4.90999985    2.76999998
   16.88194466   97.58850098    4.90999985    2.75000000
   16.88500023   98.31510162    4.90999985    2.73000002
   16.88833237   96.49469757    4.90999985    2.78999996
   16.89166641  100.96900177    4.90999985    2.78999996
   16.89472198   96.70140076    4.90999985    2.84999990
   16.89805603   94.12740326    4.90999985    2.80999994
   16.90138817   93.16339874    4.90999985    2.82999992
   16.90722275   93.16339874    4.90999985    2.76999998
   16.91138840   92.11540222    4.90999985    2.86999989
   16.91472244   96.51290131    4.90999985    2.82999992
   16.91777802   95.52880096    4.90999985    2.75000000
   16.92111015   97.70159912    4.90999985    2.75000000
   16.92416573   94.42469788    4.90999985    2.80999994
   16.92749977   86.75520325    4.90999985    2.82999992
   16.93083191   87.29049683    4.90999985    2.86999989
   16.93388748   89.67350006    4.90999985    2.84999990
   16.93722153   89.03710175    4.90999985    2.86999989
   16.94055557   96.18689728    4.90999985    2.89000010
   16.94083214   97.69850159    4.90999985    2.86999989
   16.94416618   90.25679779    4.90999985    2.89000010
   16.95000076   90.25679779    4.90999985    2.86999989
   16.95416832   87.21679688    4.90999985    2.89000010
   16.95750046   95.88369751    4.90999985    2.89000010
   16.96055603   95.45690155    4.90999985    2.89000010
   16.96389008  102.57499695    4.90999985    2.89000010
   16.96722221   91.09989929    4.90999985    2.89000010
   16.97027779   96.88880157    4.90999985    2.89000010
   16.97361183   90.93340302    4.90999985    2.89000010
   16.97416687   93.30370331    4.90999985    2.86999989
   16.97722244   93.23729706    4.90999985    2.89000010
   16.98055649   92.84130096    4.90999985    2.86999989
   16.98361206   90.06900024    4.90999985    2.86999989
   16.98694420   92.58920288    4.90999985    2.71000004
   16.99305534   92.58920288    4.90999985    2.73000002
   16.99694443   99.92749786    4.90999985    2.59999990
   17.00027847   94.50389862    4.90999985    2.53999996
   17.00361061  100.72000122    4.90999985    2.50000000
   17.00666618  104.27799988    4.90999985    2.57999992
   17.00749969  103.73400116    4.90999985    2.57999992
   17.01027870  103.42099762    4.90999985    2.67000008
   17.01361084  111.11199951    4.90999985    2.53999996
   17.01666641  110.54199982    4.90999985    2.46000004
   17.02000046   98.38439941    4.90999985    2.59999990
   17.02333260  102.64700317    4.90999985    2.80999994
   17.02638817  106.71700287    4.90999985    2.73000002
   17.02972221   98.34079742    4.90999985    2.69000006
   17.03583336   98.34079742    4.90999985    2.84999990
   17.03999901  118.35099792    1.48000002    0.81999999
   17.04111099   95.89839935    1.05999994    0.67000002
   17.04361153   94.19550323    0.58999997    0.23000000
   17.04694366  102.34899902    0.51999998    0.09000000
   17.04999924   98.12339783    0.51999998    0.09000000
   17.05333328   92.26139832    0.51999998    0.09000000
   17.05666542   93.55210114    0.51999998    0.09000000
   17.05972099   90.06729889    0.51999998    0.09000000
   17.06305504   92.31839752    0.51999998    0.09000000
   17.06638718   95.07710266    0.51999998    0.09000000
   17.06944466   95.12169647    0.51999998    0.09000000
   17.07277870   92.02459717    0.51999998    0.09000000
   17.07444572   95.62409973    0.51999998    0.09000000
   17.07861137   95.62409973    0.51999998    0.09000000
   17.08277893   91.21450043    0.51999998    0.09000000
   17.08611107   88.51740265    0.51999998    0.09000000
   17.08916664   98.19020081    0.51999998    0.09000000
   17.09250069   99.56469727    0.51999998    0.09000000
   17.09555626   95.35749817    0.51999998    0.09000000
   17.09889030   90.45790100    0.51999998    0.09000000
   17.10222244   92.03050232    0.51999998    0.09000000
   17.10527802   94.14369965    0.51999998    0.09000000
   17.10777855   93.09839630    0.51999998    0.09000000
   17.10888863   97.86350250    0.51999998    0.09000000
   17.11222267   93.60780334    0.51999998    0.09000000
   17.11527824   97.92739868    0.51999998    0.09000000
   17.12138939   97.92739868    0.51999998    0.09000000
   17.12555504   91.44560242    0.51999998    0.09000000
   17.12888908   91.11380005    0.51999998    0.09000000
   17.13222313   91.06610107    0.51999998    0.09000000
   17.13527679   92.36669922    0.51999998    0.09000000
   17.13861084   97.49990082    0.51999998    0.09000000
   17.14111137  101.64299774    0.51999998    0.09000000
   17.14222145   91.38379669    0.51999998    0.09000000
   17.14555550   91.16030121    0.51999998    0.09000000
   17.14861107   92.11299896    0.51999998    0.09000000
   17.15194321   85.52390289    0.51999998    0.09000000
   17.15527725   93.05509949    0.51999998    0.09000000
   17.15833282   87.71959686    0.51999998    0.09000000
   17.16444397   87.71959686    0.51999998    0.09000000
   17.16833305   91.75070190    0.51999998    0.09000000
   17.17166519   87.34339905    0.51999998    0.09000000
   17.17444420   92.13610077    0.51999998    0.09000000
   17.17527771   89.11650085    0.51999998    0.09000000
   17.17860985   89.54160309    0.51999998    0.09000000
   17.18166542   87.96360016    0.51999998    0.09000000
   17.18499947   97.00160217    0.51999998    0.09000000
   17.18833160   87.60880280    0.51999998    0.09000000
   17.19138718   96.31089783    0.51999998    0.09000000
   17.19472122   94.59709930    0.51999998    0.09000000
   17.19805527   96.90350342    0.51999998    0.09000000
   17.20111275   92.37969971    0.51999998    0.09000000
   17.20722389   92.37969971    0.51999998    0.09000000
   17.22555542   91.68250275    0.51999998    0.09000000
   17.22888947   84.69010162    0.51999998    0.09000000
   17.23194504   88.09020233    0.51999998    0.09000000
   17.23527718   93.87750244    0.51999998    0.09000000
   17.23833275   90.50309753    0.51999998    0.09000000
   17.24166679  103.25099945    0.51999998    0.09000000
   17.24500084   92.62989807    0.51999998    0.09000000
   17.25027847   92.62989807    0.51999998    0.09000000
   17.25444412   94.50980377    0.51999998    0.09000000
   17.25749969   89.00759888    0.51999998    0.09000000
   17.25861168   93.44950104    0.51999998    0.09000000
   17.26138878   92.81639862    0.51999998    0.09000000
   17.26444435   89.12770081    0.51999998    0.09000000
   17.26777840   94.46849823    0.51999998    0.09000000
   17.27083397   89.60749817    0.51999998    0.09000000
   17.27416611   93.65290070    0.51999998    0.09000000
   17.27750015   97.03379822    0.51999998    0.09000000
   17.28055573   96.00849915    0.51999998    0.09000000
   17.28388786   94.30789948    0.51999998    0.09000000
   17.28722191   98.73509979    0.51999998    0.09000000
   17.29305458   98.73509979    0.51999998    0.09000000
   17.29722214  106.18099976    0.51999998    0.09000000
   17.30055428  101.69300079    0.51999998    0.09000000
   17.30360985   94.74819946    0.51999998    0.09000000
   17.30694389   95.53079987    0.51999998    0.09000000
   17.31027794   95.87599945    0.51999998    0.09000000
   17.31333351   92.65039825    0.51999998    0.09000000
   17.31666756   97.83820343    0.51999998    0.09000000
   17.32000160   96.41819763    0.51999998    0.09000000
   17.32305717   94.18620300    0.51999998    0.09000000
   17.32527924   92.25679779    0.51999998    0.09000000
   17.32694626   96.80580139    0.51999998    0.09000000
   17.33000183   93.40180206    0.51999998    0.09000000
   17.33583450   93.40180206    0.51999998    0.09000000
   17.34000015   93.26860046    0.51999998    0.09000000
   17.34333420   88.46170044    0.51999998    0.09000000
   17.34666824   93.69619751    0.51999998    0.09000000
   17.34972191   95.60330200    0.51999998    0.09000000
   17.35305595   98.59089661    0.51999998    0.09000000
   17.35611153   97.52850342    0.51999998    0.09000000
   17.35861206   98.13659668    0.51999998    0.09000000
   17.36000061   97.22429657    0.51999998    0.09000000
   17.36305618   93.85099792    0.51999998    0.09000000
   17.36638832   94.34950256    0.51999998    0.09000000
   17.36972237   91.80490112    0.51999998    0.09000000
   17.37277794   87.54609680    0.51999998    0.09000000
   17.37888908   87.54609680    0.51999998    0.09000000
   17.38305473   87.76779938    0.51999998    0.09000000
   17.38611031   89.69670105    0.51999998    0.09000000
   17.38944435   94.25000000    0.51999998    0.09000000
   17.39194489   90.13569641    0.51999998    0.09000000
   17.39305496   93.59680176    0.51999998    0.09000000
   17.39611053   91.78880310    0.51999998    0.09000000
   17.39944458   93.23999786    0.51999998    0.09000000
   17.40277672   89.50849915    0.51999998    0.09000000
   17.40583229   96.32340240    0.51999998    0.09000000
   17.40916634   91.57209778    0.51999998    0.09000000
   17.41222191   96.05210114    0.51999998    0.09000000
   17.41555595   96.45379639    0.51999998    0.09000000
   17.42166519   96.45379639    0.51999998    0.09000000
   17.42583275   90.35549927    0.51999998    0.09000000
   17.42888832   93.78759766    0.51999998    0.09000000
   17.43222237   95.26349640    0.51999998    0.09000000
   17.43555450   88.07939911    0.51999998    0.09000000
   17.43861008   94.83930206    0.51999998    0.09000000
   17.44194412   99.61370087    0.51999998    0.09000000
   17.44499969   95.79540253    0.51999998    0.09000000
   17.44833183   91.85369873    0.51999998    0.09000000
   17.45166779   93.06490326    0.51999998    0.09000000
   17.45472336   93.18699646    0.51999998    0.09000000
   17.45805550   94.05110168    0.51999998    0.09000000
   17.45861244   88.47760010    0.51999998    0.09000000
   17.46444511   88.47760010    0.51999998    0.09000000
   17.46861076   95.92060089    0.51999998    0.09000000
   17.47194481   96.44149780    0.51999998    0.09000000
   17.47500038  104.26499939    0.51999998    0.09000000
   17.47833443   99.81490326    0.51999998    0.09000000
   17.48139000  102.38099670    0.51999998    0.09000000
   17.48472214   93.51959991    0.51999998    0.09000000
   17.48805618  101.19899750    0.51999998    0.09000000
   17.49111176   99.80639648    0.51999998    0.09000000
   17.49194527   95.46130371    0.51999998    0.09000000
   17.49500084  104.69899750    0.51999998    0.09000000
   17.49805641  103.14900208    0.51999998    0.09000000
   17.50138855  103.32399750    0.51999998    0.09000000
   17.50722313  103.32399750    0.51999998    0.09000000
   17.51138878   96.55130005    0.51999998    0.09000000
   17.51472282   86.76969910    0.51999998    0.09000000
   17.51777840   96.10040283    0.51999998    0.09000000
   17.52111053   92.53019714    0.51999998    0.09000000
   17.52444458   96.00389862    0.51999998    0.09000000
   17.52527809   95.80180359    0.51999998    0.09000000
   17.52805519   98.73619843    0.51999998    0.09000000
   17.53111076   99.68489838    0.51999998    0.09000000
   17.53444481   86.38339996    0.51999998    0.09000000
   17.53777695   96.75700378    0.51999998    0.09000000
   17.54083252   86.71990204    0.51999998    0.09000000
   17.54416656   94.42659760    0.51999998    0.09000000
   17.55027771   94.42659760    0.51999998    0.09000000
   17.55416679   97.30370331    0.51999998    0.09000000
   17.55749893   95.86810303    0.51999998    0.09000000
   17.55861092  103.09200287    0.51999998    0.09000000
   17.56110954  102.35099792    0.51999998    0.09000000
   17.56416512  105.40699768    0.51999998    0.09000000
   17.56750107   96.92720032    0.51999998    0.09000000
   17.57083511   98.69640350    0.51999998    0.09000000
   17.57389069   94.92109680    0.51999998    0.09000000
   17.57722282  100.01100159    0.51999998    0.09000000
   17.58027840   94.93609619    0.51999998    0.09000000
   17.58361244   88.60520172    0.51999998    0.09000000
   17.58694458   98.57879639    0.51999998    0.09000000
   17.59305573   98.57879639    0.51999998    0.09000000
   17.59722328   95.74019623    0.51999998    0.09000000
   17.60027885   92.88330078    0.51999998    0.09000000
   17.60361099  104.36299896    0.51999998    0.09000000
   17.60694504   97.39279938    0.51999998    0.09000000
   17.61000061  100.44999695    0.51999998    0.09000000
   17.61333466   83.26360321    0.51999998    0.09000000
   17.61638832   97.44229889    0.51999998    0.09000000
   17.61972237   99.92829895    0.51999998    0.09000000
   17.62305641   97.05560303    0.51999998    0.09000000
   17.62527847   94.18289948    0.51999998    0.09000000
   17.62666702   94.97840118    0.51999998    0.09000000
   17.62972260   93.63469696    0.51999998    0.09000000
   17.63583374   93.63469696    0.51999998    0.09000000
   17.63999939   97.19110107    0.51999998    0.09000000
   17.64333344  100.27700043    0.51999998    0.09000000
   17.64638901   97.31990051    0.51999998    0.09000000
   17.64972115   94.15840149    0.51999998    0.09000000
   17.65277672   95.79460144    0.51999998    0.09000000
   17.65611076  100.67600250    0.51999998    0.09000000
   17.65861130   97.22109985    0.51999998    0.09000000
   17.65972137   97.22039795    0.51999998    0.09000000
   17.66277695   88.46479797    0.51999998    0.09000000
   17.66611099   94.14440155    0.51999998    0.09000000
   17.66944313   89.98940277    0.51999998    0.09000000
   17.67249870   99.03109741    0.51999998    0.09000000
   17.67860985   99.03109741    0.51999998    0.09000000
   17.68277740  101.97499847    0.51999998    0.09000000
   17.68610954   96.64230347    0.51999998    0.09000000
   17.68916512  133.27200317    0.51999998    0.09000000
   17.69194412   97.56809998    0.51999998    0.09000000
   17.69305420   96.01589966    0.51999998    0.09000000
   17.69610977   97.05780029    0.51999998    0.09000000
   17.69944382  107.01200104    0.51999998    0.09000000
   17.70277786  103.28800201    0.51999998    0.09000000
   17.70583344  102.05100250    0.51999998    0.09000000
   17.70916748   96.67169952    0.51999998    0.09000000
   17.71250153   -1.00000000    0.51999998    0.09000000
   17.71555710   95.46179962    0.51999998    0.09000000
   17.72166634   95.46179962    0.51999998    0.09000000
   17.72555542   94.14530182    0.51999998    0.09000000
   17.72888947   98.27940369    0.51999998    0.09000000
   17.73222351   95.80049896    0.51999998    0.09000000
   17.73527718   98.71559906    0.51999998    0.09000000
   17.73861122   96.12680054    0.51999998    0.09000000
   17.74194527   99.20580292    0.51999998    0.09000000
   17.74500084   98.82019806    0.51999998    0.09000000
   17.74833298  108.24500275    0.51999998    0.09000000
   17.75166702  103.09400177    0.51999998    0.09000000
   17.75472260   92.77069855    0.51999998    0.09000000
   17.75805473   98.32440186    0.51999998    0.09000000
   17.75861168   95.54560089    0.51999998    0.09000000
   17.76444435   95.54560089    0.51999998    0.09000000
   17.76861000   96.74299622    0.51999998    0.09000000
   17.77166557  101.58699799    0.51999998    0.09000000
   17.77499962  104.81300354    0.51999998    0.09000000
   17.77833366  101.32399750    0.51999998    0.09000000
   17.78138924   97.91619873    0.51999998    0.09000000
   17.78472137  102.12100220    0.51999998    0.09000000
   17.78777695  103.87400055    0.51999998    0.09000000
   17.79111099   99.77539825    0.51999998    0.09000000
   17.79194450  104.93399811    0.51999998    0.09000000
   17.79472160   95.52890015    0.51999998    0.09000000
   17.79777718  103.59500122    0.51999998    0.09000000
   17.80111122  102.57800293    0.51999998    0.09000000
   17.80722237  102.57800293    0.51999998    0.09000000
   17.81138802  100.20200348    0.51999998    0.09000000
   17.81472206   96.82309723    0.51999998    0.09000000
   17.81777954   93.88639832    0.51999998    0.09000000
   17.82111168   95.73320007    0.51999998    0.09000000
   17.82416725   92.27220154    0.51999998    0.09000000
   17.82527924  101.36599731    0.51999998    0.09000000
   17.82805634   96.95390320    0.51999998    0.09000000
   17.83111191   96.27670288    0.51999998    0.09000000
   17.83444595   95.18720245    0.51999998    0.09000000
   17.83777809   94.08010101    0.51999998    0.09000000
   17.84083366   97.07800293    0.51999998    0.09000000
   17.84416771   98.99890137    0.51999998    0.09000000
   17.85000038   98.99890137    0.51999998    0.09000000
   17.85416794   96.56600189    0.51999998    0.09000000
   17.85750008   91.80020142    0.51999998    0.09000000
   17.85861206   99.42449951    0.51999998    0.09000000
   17.86111069   99.53369904    0.51999998    0.09000000
   17.86444473   98.81719971    0.51999998    0.09000000
   17.86750031   96.53170013    0.51999998    0.09000000
   17.87083435  101.39299774    0.51999998    0.09000000
   17.87388992   92.89189911    0.51999998    0.09000000
   17.87722206   94.40730286    0.51999998    0.09000000
   17.88055611   89.60939789    0.51999998    0.09000000
   17.88361168  102.51799774    0.51999998    0.09000000
   17.88694382   92.67610168    0.51999998    0.09000000
   17.89305496   92.67610168    0.51999998    0.09000000
   17.89694405  100.96299744    0.51999998    0.09000000
   17.90027809  102.25599670    0.51999998    0.09000000
   17.90361023   97.15190125    0.51999998    0.09000000
   17.90666580  103.65000153    0.51999998    0.09000000
   17.90999985   91.53479767    0.51999998    0.09000000
   17.91333389   97.51290131    0.51999998    0.09000000
   17.91638756   95.96920013    0.51999998    0.09000000
   17.91972160   91.31710052    0.51999998    0.09000000
   17.92277718   95.57430267    0.51999998    0.09000000
   17.92527771  103.68000031    0.51999998    0.09000000
   17.92666626   89.74579620    0.51999998    0.09000000
   17.93000031   96.62270355    0.51999998    0.09000000
   17.93583298   96.62270355    0.51999998    0.09000000
   17.93999863   95.74739838    0.51999998    0.09000000
   17.94305420   96.11669922    0.51999998    0.09000000
   17.94638824  107.41899872    0.51999998    0.09000000
   17.94972038   93.45800018    0.51999998    0.09000000
   17.95277786   80.60679626    0.51999998    0.09000000
   17.95611191   85.42259979    0.51999998    0.09000000
   17.95861244  101.55100250    0.51999998    0.09000000
   17.95972252   93.47499847    0.51999998    0.09000000
   17.96305656  107.88800049    0.51999998    0.09000000
   17.96611214  104.94499969    0.51999998    0.09000000
   17.96944427  103.17700195    0.51999998    0.09000000
   17.97249985  101.74400330    0.51999998    0.09000000
   17.97861099  101.74400330    0.51999998    0.09000000
   17.98277855   95.20310211    0.51999998    0.09000000
   17.98611069  103.31600189    0.51999998    0.09000000
   17.98916626  103.60500336    0.51999998    0.09000000
   17.99194527  109.19499969    0.51999998    0.09000000
   17.99277878  102.91500092    0.51999998    0.09000000
   17.99611092  109.27700043    0.51999998    0.09000000
   17.99916649  100.32299805    0.51999998    0.09000000
   18.00250053  104.50499725    0.51999998    0.09000000
   18.00555611  106.39900208    0.51999998    0.09000000
   18.00888824   94.37339783    0.51999998    0.09000000
   18.01222229   94.45040131    0.51999998    0.09000000
   18.01527786  101.15599823    0.51999998    0.09000000
   18.02138901  101.15599823    0.51999998    0.09000000
   18.02555466   99.59429932    0.51999998    0.09000000
   18.02888870   94.34960175    0.51999998    0.09000000
   18.03194427  101.19000244    0.51999998    0.09000000
   18.03527641   95.69439697    0.51999998    0.09000000
   18.03861046   98.41149902    0.51999998    0.09000000
   18.04166603  100.06099701    0.51999998    0.09000000
   18.04500008   91.23439789    0.51999998    0.09000000
   18.04833221  100.47599792    0.51999998    0.09000000
   18.05138779   97.37509918    0.51999998    0.09000000
   18.05472183   90.55319977    0.51999998    0.09000000
   18.05777740   94.83190155    0.51999998    0.09000000
   18.05861092   84.40529633    0.51999998    0.09000000
   18.06416512   84.40529633    0.51999998    0.09000000
   18.06833458  101.59200287    0.51999998    0.09000000
   18.07166672   91.96540070    0.51999998    0.09000000
   18.07500076   88.89489746    0.51999998    0.09000000
   18.07805634   87.31870270    0.51999998    0.09000000
   18.08139038   97.92900085    0.51999998    0.09000000
   18.08472252   90.85220337    0.51999998    0.09000000
   18.08777809   93.96029663    0.51999998    0.09000000
   18.09111214   91.78739929    0.51999998    0.09000000
   18.09194565   95.35269928    0.51999998    0.09000000
   18.09472275   86.18489838    0.51999998    0.09000000
   18.09805679   85.99089813    0.51999998    0.09000000
   18.10111237   95.12779999    0.51999998    0.09000000
   18.10722351   95.12779999    0.51999998    0.09000000
   18.11138916   92.59639740    0.51999998    0.09000000
   18.11444473   99.87380219    0.51999998    0.09000000
   18.11777878   98.85990143    0.51999998    0.09000000
   18.12111092   97.52439880    0.51999998    0.09000000
   18.12416649  138.28199768    0.51999998    0.09000000
   18.12527847   98.88860321    0.51999998    0.09000000
   18.12777710   90.88710022    0.51999998    0.09000000
   18.13111115   99.05770111    0.51999998    0.09000000
   18.13416672  119.43000031    0.51999998    0.09000000
   18.13750076   88.62210083    0.51999998    0.09000000
   18.14083290   98.30359650    0.51999998    0.09000000
   18.14388847   91.40480042    0.51999998    0.09000000
   18.14999962   91.40480042    0.51999998    0.09000000
   18.15416718   99.02030182    0.51999998    0.09000000
   18.15749931   95.04730225    0.51999998    0.09000000
   18.15861130  100.02999878    0.51999998    0.09000000
   18.16110992   98.07270050    0.51999998    0.09000000
   18.16444397  102.66300201    0.51999998    0.09000000
   18.16749954   97.56109619    0.51999998    0.09000000
   18.17083359  101.15799713    0.51999998    0.09000000
   18.17416573   94.26229858    0.51999998    0.09000000
   18.17722130   95.22299957    0.51999998    0.09000000
   18.18055534   96.40000153    0.51999998    0.09000000
   18.18361092   87.53790283    0.51999998    0.09000000
   18.18694305   92.01370239    0.51999998    0.09000000
   18.19277763   92.01370239    0.51999998    0.09000000
   18.19694328   95.70580292    0.51999998    0.09000000
   18.20027924   90.12329865    0.51999998    0.09000000
   18.20333481   96.41770172    0.51999998    0.09000000
   18.20666695   -1.00000000    0.51999998    0.09000000
