    HOUR (UT)   FLARE FACTOR    SKY TESTER    SUN TESTER
   12.30333328   -1.00000000   -1.00000000   -1.00000000
   12.32305527   94.00789642    4.90999985    1.80999994
   12.32805538   98.92849731    4.90999985    1.80999994
   12.33138847  103.50700378    4.90999985    1.80999994
   12.33444405   97.03829956    4.90999985    1.83000004
   12.33777714  101.37500000    4.90999985    1.83000004
   12.34111118  100.39099884    4.90999985    1.83000004
   12.34416676   91.09559631    4.90999985    1.83000004
   12.34749985   96.00109863    4.90999985    1.85000002
   12.35083389   98.22059631    4.90999985    1.85000002
   12.35388947   94.95970154    4.90999985    1.85000002
   12.35611153   95.03220367    4.90999985    1.85000002
   12.35750008   89.46730042    4.90999985    1.86000001
   12.36083412   91.95580292    4.90999985    1.86000001
   12.36388969   95.42169952    4.90999985    1.86000001
   12.36722279   93.38960266    4.90999985    1.86000001
   12.37055588   91.01149750    4.90999985    1.88000000
   12.37361145   89.13539886    4.90999985    1.88000000
   12.37694454   92.45320129    4.90999985    1.88000000
   12.38027763   89.77639771    4.90999985    1.88000000
   12.38333321   89.69049835    4.90999985    1.89999998
   12.38666630   88.85199738    4.90999985    1.89999998
   12.38944435   90.91210175    4.90999985    1.89999998
   12.39027786   89.49939728    4.90999985    1.88000000
   12.39361095   91.18710327    4.90999985    1.89999998
   12.39666653   90.82219696    4.90999985    1.89999998
   12.39999962   88.59649658    4.90999985    1.89999998
   12.40333271   91.04620361    4.90999985    1.89999998
   12.40638828   87.67079926    4.90999985    1.89999998
   12.40972137   87.53730011    4.90999985    1.89999998
   12.41277695   89.11499786    4.90999985    1.91999996
   12.41611099   87.29820251    4.90999985    1.89999998
   12.41944504   85.82009888    4.90999985    1.89999998
   12.42250061   87.08779907    4.90999985    1.91999996
   12.42305565   85.50559998    4.90999985    1.91999996
   12.42638874   85.90869904    4.90999985    1.91999996
   12.42972279   88.15679932    4.90999985    1.91999996
   12.43277836   91.11190033    4.90999985    1.91999996
   12.43611145   91.31860352    4.90999985    1.91999996
   12.43916702   98.04869843    4.90999985    1.94000006
   12.44250011  102.63600159    4.90999985    1.94000006
   12.44583321   90.80169678    4.90999985    1.94000006
   12.44888878   88.98609924    4.90999985    1.94000006
   12.45222187   90.13919830    4.90999985    1.94000006
   12.45555496   91.78589630    4.90999985    1.94000006
   12.45638847   88.47029877    4.90999985    1.96000004
   12.45916653   89.26679993    4.90999985    1.94000006
   12.46249962   89.67970276    4.90999985    1.96000004
   12.46555519   87.34950256    4.90999985    1.94000006
   12.46888828   88.62870026    4.90999985    1.96000004
   12.47194386   88.25460052    4.90999985    1.96000004
   12.47527695   87.85980225    4.90999985    1.96000004
   12.47861099   88.40599823    4.90999985    1.96000004
   12.48166656   84.10289764    4.90999985    1.98000002
   12.48500061   92.42389679    4.90999985    1.98000002
   12.48833370   88.11779785    4.90999985    1.98000002
   12.48972225   92.97250366    4.90999985    1.98000002
   12.49194431   89.93340302    4.90999985    1.98000002
   12.49527836   90.82730103    4.90999985    1.98000002
   12.49833393   88.93710327    4.90999985    1.98000002
   12.50166702   88.84179688    4.88999987    1.98000002
   12.50472260   84.85649872    4.84999990    1.98000002
   12.50805569   90.12779999    4.80999994    1.98000002
   12.51138878   85.83100128    4.80000019    1.98000002
   12.51444435   91.25440216    4.78000021    2.00000000
   12.51777744   88.69080353    4.76000023    2.00000000
   12.52111053   86.61460114    4.76000023    2.01999998
   12.52305508   87.77580261    4.73999977    2.00000000
   12.52472210   91.10780334    4.73999977    2.00000000
   12.52805519   87.77539825    4.71999979    2.01999998
   12.53111076   82.98850250    4.71999979    2.01999998
   12.53444481   93.63240051    4.71999979    2.01999998
   12.53750038   91.27559662    4.73999977    2.01999998
   12.54083347   82.57199860    4.76000023    2.01999998
   12.54416752   93.58799744    4.76000023    2.01999998
   12.54722309   85.56610107    4.76000023    2.01999998
   12.55055618   82.73059845    4.73999977    2.03999996
   12.55388927   86.92140198    4.71999979    2.03999996
   12.55638885   89.05940247    4.71999979    2.03999996
   12.55749989   85.58450317    4.71999979    2.03999996
   12.56083393   86.13339996    4.69999981    2.05999994
   12.56388950   85.43520355    4.71999979    2.03999996
   12.56722260   86.99600220    4.71999979    2.03999996
   12.57055569   85.74659729    4.69999981    2.03999996
   12.57361126   85.61830139    4.65999985    2.05999994
   12.57694435   85.29350281    4.65999985    2.05999994
   12.58027744   84.03739929    4.63999987    2.05999994
   12.58333302   84.19699860    4.61999989    2.05999994
   12.58666611   85.61100006    4.59999990    2.05999994
   12.58972168   86.61090088    4.59999990    2.05999994
   12.59027767   89.20459747    4.59999990    2.05999994
   12.59361076   82.49949646    4.59999990    2.05999994
   12.59666634   87.84439850    4.59999990    2.05999994
   12.60000038   86.58360291    4.57999992    2.07999992
   12.60333347   87.21579742    4.57999992    2.05999994
   12.60638905   84.33789825    4.57999992    2.05999994
   12.60972214   85.02559662    4.55999994    2.07999992
   12.61277771   90.75769806    4.59999990    2.07999992
   12.61611176   85.55410004    4.59999990    2.07999992
   12.61944485   87.83889771    4.59999990    2.07999992
   12.62250042   94.09549713    4.59999990    2.09999990
   12.62305546   84.16220093    4.57999992    2.09999990
   12.62611103   83.16580200    4.57999992    2.09999990
   12.62944412   82.08869934    4.57999992    2.09999990
   12.63249969   92.18879700    4.55999994    2.07999992
   12.63583279   83.86299896    4.53999996    2.09999990
   12.63916683   84.60130310    4.53000021    2.09999990
   12.64222240   87.62220001    4.53000021    2.09999990
   12.64555550   82.58450317    4.53999996    2.09999990
   12.64861107   82.82759857    4.53999996    2.09999990
   12.65194416   80.41280365    4.59999990    2.09999990
   12.65527725   82.88480377    4.63999987    2.09999990
   12.65638828   86.45220184    4.63999987    2.09999990
   12.65888882   90.89209747    4.65999985    2.11999989
   12.66222191   83.68959808    4.63999987    2.11999989
   12.66527748   81.68969727    4.63999987    2.09999990
   12.66861153   81.23380280    4.63999987    2.11999989
   12.67194462   81.04109955    4.63999987    2.09999990
   12.67500019   87.29740143    4.61999989    2.09999990
   12.67833328   85.50720215    4.59999990    2.11999989
   12.68166733   82.44139862    4.53999996    2.11999989
   12.68472195   81.69699860    4.51000023    2.11999989
   12.68805599   85.25350189    4.46999979    2.13000011
   12.68972206   85.41929626    4.44999981    2.13000011
   12.69166660   83.62300110    4.44999981    2.13000011
   12.69499969   86.32640076    4.40999985    2.13000011
   12.69805527   86.39759827    4.36999989    2.13000011
   12.70138836   85.20619965    4.34999990    2.13000011
   12.70472240   82.29979706    4.32999992    2.13000011
   12.70777798   79.87909698    4.32999992    2.13000011
   12.71111107   86.69219971    4.32999992    2.13000011
   12.71444416   83.21839905    4.32999992    2.13000011
   12.71749973   83.54309845    4.34999990    2.15000010
   12.72083282   81.44439697    4.34999990    2.15000010
   12.72305489   83.10060120    4.34999990    2.13000011
   12.72444439   80.29000092    4.34999990    2.15000010
   12.72777748   82.18099976    4.36999989    2.13000011
   12.73083305   82.97270203    4.36999989    2.15000010
   12.73416710   80.59809875    4.38999987    2.15000010
   12.73750019   85.02600098    4.40999985    2.15000010
   12.74055576   81.40499878    4.38999987    2.15000010
   12.74388885   81.24720001    4.40999985    2.13000011
   12.74722290   80.83480072    4.40999985    2.17000008
   12.75027752   81.38629913    4.36999989    2.15000010
   12.75361156   78.77519989    4.38999987    2.13000011
   12.75638866   80.48930359    4.42999983    2.15000010
   12.75722218   84.19380188    4.42999983    2.17000008
   12.76055527   86.40149689    4.48999977    2.15000010
   12.76361084   88.28630066    4.53999996    2.15000010
   12.76694393   81.43440247    4.53000021    2.17000008
   12.77027798   80.61060333    4.51000023    2.17000008
   12.77333355   80.79209900    4.46999979    2.17000008
   12.77666664   79.44200134    4.42999983    2.17000008
   12.77999973   78.40859985    4.40999985    2.17000008
   12.78305531   80.19110107    4.36999989    2.17000008
   12.78638935   81.92310333    4.34999990    2.17000008
   12.78944492   81.14720154    4.32999992    2.17000008
   12.79000092   80.02739716    4.32999992    2.19000006
   12.79333401   80.18730164    4.30999994    2.17000008
   12.79666710   80.43229675    4.30999994    2.19000006
   12.79972267   77.27380371    4.30999994    2.19000006
   12.80305576   82.69570160    4.30999994    2.19000006
   12.80638885   78.55519867    4.32999992    2.19000006
   12.80944443   80.27359772    4.30999994    2.19000006
   12.81277752   79.98780060    4.26999998    2.19000006
   12.81583309   78.60540009    4.26999998    2.19000006
   12.81916618   80.40859985    4.26999998    2.21000004
   12.82250023   79.25569916    4.28999996    2.21000004
   12.82333374   81.31909943    4.28999996    2.21000004
   12.82611084   81.86799622    4.30999994    2.21000004
   12.82944393   80.26290131    4.30999994    2.21000004
   12.83249950   78.74340057    4.26999998    2.21000004
   12.83583260   88.93450165    4.26000023    2.21000004
   12.83888817   80.96700287    4.26999998    2.21000004
   12.84222221   81.98549652    4.30999994    2.21000004
   12.84555531   76.44000244    4.30999994    2.21000004
   12.84861088   80.47489929    4.30999994    2.19000006
   12.85194492   78.82180023    4.32999992    2.21000004
   12.85500050   80.70850372    4.32999992    2.21000004
   12.85666752   79.62329865    4.30999994    2.21000004
   12.85861111   78.88690186    4.30999994    2.21000004
   12.86194515   76.40660095    4.28999996    2.23000002
   12.86500072   79.95899963    4.28999996    2.21000004
   12.86833382   78.54319763    4.30999994    2.21000004
   12.87138939   77.33100128    4.32999992    2.23000002
   12.87472248   78.27449799    4.34999990    2.21000004
   12.87777805   83.15869904    4.34999990    2.23000002
   12.88111115   76.72090149    4.32999992    2.23000002
   12.88444424   76.43240356    4.30999994    2.23000002
   12.88749981   80.65799713    4.30999994    2.23000002
   12.89000034   79.81189728    4.28999996    2.23000002
   12.89111137   77.06580353    4.26999998    2.23000002
   12.89444447   78.97370148    4.26999998    2.23000002
   12.89750004   78.73660278    4.26999998    2.23000002
   12.90083313   77.85420227    4.26999998    2.23000002
   12.90388870   79.43450165    4.28999996    2.23000002
   12.90722179   79.33509827    4.28999996    2.23000002
   12.91055489   81.29080200    4.26999998    2.25000000
   12.91361046   80.92649841    4.23999977    2.25000000
   12.91694450   86.28099823    4.23999977    2.23000002
   12.92000008   81.30719757    4.19999981    2.25000000
   12.92333412   83.36150360    4.19999981    2.25000000
   12.92388916   79.38649750    4.19999981    2.25000000
   12.92722225   84.16609955    4.17999983    2.25000000
   12.93027782   80.79149628    4.15999985    2.25000000
   12.93361092   78.85520172    4.13999987    2.25000000
   12.93666649   80.36519623    4.11999989    2.26999998
   12.94000053   76.84760284    4.07999992    2.26999998
   12.94333363   77.32440186    4.05999994    2.25000000
   12.94638920   77.86019897    4.05999994    2.26999998
   12.94972229   76.59400177    4.05999994    2.25000000
   12.95277786   75.51899719    4.05999994    2.26999998
   12.95611095   77.98380280    4.03999996    2.25000000
   12.95666695   80.60140228    4.03999996    2.25000000
   12.95972157   76.90080261    4.01999998    2.26999998
   12.96305561   75.97299957    4.00000000    2.26999998
   12.96611118   76.43299866    4.00000000    2.26999998
   12.96944427   76.10769653    4.00000000    2.26999998
   12.97249985   76.24140167    4.01999998    2.26999998
   12.97583294   78.81800079    4.03999996    2.28999996
   12.97916603   76.33409882    4.01999998    2.26999998
   12.98222160   76.37830353    4.05999994    2.26999998
   12.98555565   75.68319702    4.07999992    2.26999998
   12.98861122   77.16079712    4.13999987    2.28999996
   12.99000072   78.33869934    4.15999985    2.26999998
   12.99222279   81.46350098    4.17999983    2.26999998
   12.99555588   76.43379974    4.19999981    2.26999998
   12.99861145   78.56529999    4.13999987    2.26999998
   13.00194454   78.26329803    4.11999989    2.26999998
   13.00500011   76.29489899    4.15999985    2.28999996
   13.00833321   78.44920349    4.15999985    2.28999996
   13.01138878   73.77420044    4.11999989    2.28999996
   13.01472187   75.04650116    4.05999994    2.28999996
   13.01805496   76.71579742    4.01999998    2.28999996
   13.02111053   76.08830261    4.00000000    2.28999996
   13.02333355   75.68750000    4.00000000    2.28999996
   13.02472210   73.99030304    4.00000000    2.28999996
   13.02805519   76.79090118    4.01999998    2.28999996
   13.03111076   74.49720001    4.00000000    2.28999996
   13.03444481   74.02239990    4.00000000    2.28999996
   13.03750038   77.98690033    3.99000001    2.30999994
   13.04083347   79.08190155    3.99000001    2.28999996
   13.04416752   77.75509644    3.99000001    2.30999994
   13.04722309   74.46649933    3.97000003    2.30999994
   13.05055618   76.90519714    3.99000001    2.28999996
   13.05361176   77.87879944    4.00000000    2.28999996
   13.05666733   75.61299896    4.01999998    2.30999994
   13.05722237   74.28579712    4.03999996    2.30999994
   13.06055546   74.37840271    4.05999994    2.30999994
   13.06361103   75.00659943    4.07999992    2.30999994
   13.06694412   76.57820129    4.07999992    2.30999994
   13.06999969   75.90000153    4.09999990    2.28999996
   13.07333374   74.08119965    4.03999996    2.30999994
   13.07666683   74.47049713    4.01999998    2.32999992
   13.07972240   74.89600372    4.00000000    2.30999994
   13.08305550   73.75009918    3.97000003    2.30999994
   13.08611107   73.29840088    3.95000005    2.32999992
   13.08944416   73.74870300    3.95000005    2.30999994
   13.09000015   74.31150055    3.95000005    2.30999994
   13.09305477   77.39150238    3.97000003    2.32999992
   13.09638882   77.27140045    3.99000001    2.32999992
   13.09944439   75.05149841    4.00000000    2.32999992
   13.10277843   74.09100342    4.00000000    2.30999994
   13.10611153   75.07869720    3.99000001    2.32999992
   13.10916710   74.38860321    4.00000000    2.32999992
   13.11250019   74.24050140    3.97000003    2.32999992
   13.11555576   74.92910004    3.91000009    2.32999992
   13.11888885   77.78040314    3.89000010    2.32999992
   13.12194443   79.28179932    3.84999990    2.32999992
   13.12333393   77.21559906    3.82999992    2.32999992
   13.12555599   77.24420166    3.82999992    2.32999992
   13.12888908   74.43620300    3.86999989    2.32999992
   13.13194466   76.51460266    3.86999989    2.32999992
   13.13527775   75.27339935    3.84999990    2.32999992
   13.13861084   77.75090027    3.84999990    2.32999992
   13.14166641   77.87870026    3.84999990    2.34999990
   13.14499950   75.62599945    3.84999990    2.34999990
   13.14805508   75.16320038    3.84999990    2.34999990
   13.15138817   72.92949677    3.86999989    2.34999990
   13.15444374   75.12220001    3.84999990    2.32999992
   13.15694427   77.02970123    3.82999992    2.32999992
   13.15805531   74.54509735    3.80999994    2.32999992
   13.16138840   75.13099670    3.73000002    2.34999990
   13.16444397   76.26249695    3.72000003    2.32999992
   13.16777802   77.66699982    3.72000003    2.34999990
   13.17083359   80.53260040    3.70000005    2.34999990
   13.17416668   77.24909973    3.70000005    2.34999990
   13.17750072   76.87129974    3.68000007    2.34999990
   13.18055630   74.25060272    3.64000010    2.36999989
   13.18388939   77.32740021    3.66000009    2.36999989
   13.18694496   73.65309906    3.64000010    2.36999989
   13.19000053   76.31849670    3.68000007    2.34999990
   13.19055557   74.39409637    3.70000005    2.36999989
   13.19388866   74.26750183    3.76999998    2.34999990
   13.19694424   75.24469757    3.78999996    2.34999990
   13.20027733   74.56379700    3.78999996    2.34999990
   13.20333290   77.06069946    3.78999996    2.34999990
   13.20666695   74.47840118    3.75000000    2.34999990
   13.21000004   71.26249695    3.73000002    2.36999989
   13.21305561   73.07260132    3.72000003    2.36999989
   13.21638870   76.01439667    3.72000003    2.36999989
   13.21972179   74.44609833    3.73000002    2.36999989
   13.22277737   76.40039825    3.73000002    2.36999989
   13.22361088   75.24140167    3.73000002    2.36999989
   13.22638798   74.12889862    3.72000003    2.36999989
   13.22972202   73.96369934    3.64000010    2.36999989
   13.23277760   74.10019684    3.61999989    2.36999989
   13.23611164   74.50009918    3.59999990    2.36999989
   13.23944473   76.52919769    3.57999992    2.36999989
   13.24250031   71.46579742    3.57999992    2.36999989
   13.24583340   75.70429993    3.55999994    2.36999989
   13.24888897   73.37310028    3.53999996    2.36999989
   13.25222206   74.83460236    3.51999998    2.39000010
   13.25555515   73.87010193    3.51999998    2.39000010
   13.25694466   73.60980225    3.51999998    2.39000010
   13.25916672   76.10189819    3.48000002    2.36999989
   13.26249981   74.95880127    3.50000000    2.36999989
   13.26555538   76.35530090    3.51999998    2.36999989
   13.26888847   74.38639832    3.51999998    2.36999989
   13.27222157   74.58750153    3.50000000    2.39000010
   13.27527714   72.54109955    3.50000000    2.36999989
   13.27861118   74.01059723    3.51999998    2.39000010
   13.28194427   74.86519623    3.53999996    2.39000010
   13.28500080   74.99109650    3.57999992    2.39000010
   13.28833389   78.11360168    3.59999990    2.39000010
   13.29027843   79.75039673    3.61999989    2.39000010
   13.29194450   73.02680206    3.61999989    2.39000010
   13.29527855   74.88760376    3.61999989    2.39000010
   13.29861164   71.73989868    3.61999989    2.39000010
   13.30166721   75.61039734    3.59999990    2.39000010
   13.30500031   73.39900208    3.59999990    2.39000010
   13.30805588   74.66120148    3.64000010    2.40000010
   13.31138897   76.60449982    3.70000005    2.39000010
   13.31472206   73.29730225    3.72000003    2.39000010
   13.31777763   74.66459656    3.70000005    2.36999989
   13.32111073   73.90820313    3.70000005    2.40000010
   13.33972168   75.35510254    3.59999990    2.40000010
   13.34138870   74.12850189    3.59999990    2.39000010
   13.34472179   77.93360138    3.55999994    2.40000010
   13.34777737   75.13649750    3.53999996    2.40000010
   13.35111141   79.04820251    3.55999994    2.40000010
   13.35416698   76.09369659    3.57999992    2.40000010
   13.35750008   76.40059662    3.57999992    2.40000010
   13.36055565   73.39849854    3.57999992    2.40000010
   13.36388969   75.23739624    3.55999994    2.40000010
   13.36722279   79.90139771    3.55999994    2.40000010
   13.37027836   74.22019958    3.57999992    2.40000010
   13.37277794   74.64250183    3.57999992    2.40000010
   13.37416649   74.64320374    3.59999990    2.40000010
   13.37722206   75.55169678    3.64000010    2.40000010
   13.38055611   76.75969696    3.68000007    2.40000010
   13.38388920   75.19020081    3.68000007    2.42000008
   13.38694477   75.81539917    3.66000009    2.40000010
   13.39027786   72.22840118    3.64000010    2.40000010
   13.39361095   73.95659637    3.64000010    2.40000010
   13.39666653   75.72489929    3.61999989    2.42000008
   13.39999962   77.74559784    3.64000010    2.40000010
   13.40305519   75.84559631    3.66000009    2.40000010
   13.40611076   73.99890137    3.70000005    2.40000010
   13.40694427   72.84590149    3.72000003    2.40000010
   13.40999985   76.55729675    3.76999998    2.42000008
   13.41333294   77.42489624    3.78999996    2.40000010
   13.41666698   76.12129974    3.86999989    2.40000010
   13.41972256   73.64009857    3.89000010    2.42000008
   13.42305565   75.02999878    3.89000010    2.42000008
   13.42638874   76.51470184    3.89000010    2.42000008
   13.42944431   74.15889740    3.91000009    2.42000008
   13.43277836   72.64559937    3.93000007    2.40000010
   13.43583298   76.45249939    3.89000010    2.40000010
   13.43916702   73.35600281    3.84999990    2.42000008
   13.43972206   74.57060242    3.84999990    2.42000008
   13.44305515   71.75839996    3.78999996    2.40000010
   13.44611073   75.28099823    3.73000002    2.40000010
   13.44944477   74.21309662    3.66000009    2.42000008
   13.45277786   73.52799988    3.55999994    2.42000008
   13.45583344   71.95890045    3.48000002    2.44000006
   13.45916653   75.53040314    3.41000009    2.42000008
   13.46222210   74.22200012    3.41000009    2.44000006
   13.46555519   74.99389648    3.43000007    2.44000006
   13.46888828   76.09850311    3.43000007    2.42000008
   13.47194386   75.65820313    3.43000007    2.42000008
   13.47305489   77.19589996    3.43000007    2.42000008
   13.47583294   78.32720184    3.39000010    2.44000006
   13.47888851   79.23909760    3.39000010    2.44000006
   13.48222160   82.16020203    3.39000010    2.42000008
   13.48555565   79.72319794    3.34999990    2.44000006
   13.48861122   82.07980347    3.32999992    2.44000006
   13.49194431   81.92420197    3.32999992    2.44000006
   13.49527836   84.62079620    3.32999992    2.44000006
   13.49833393   85.35269928    3.32999992    2.44000006
   13.50166702   87.03759766    3.28999996    2.44000006
   13.50472260   94.08280182    3.28999996    2.44000006
   13.50638866   92.57460022    3.30999994    2.44000006
   13.50861073   90.38729858    3.32999992    2.44000006
   13.51166630   94.10910034    3.32999992    2.44000006
   13.51500034  100.20600128    3.36999989    2.44000006
   13.51833344  103.69599915    3.41000009    2.44000006
   13.52138901  112.08999634    3.45000005    2.44000006
   13.52472210  133.57099915    3.48000002    2.44000006
   13.52777767  129.17199707    3.43000007    2.44000006
   13.66027737   -1.00000000   -1.00000000   -1.00000000
   13.76000023   -1.00000000   -1.00000000   -1.00000000
   13.86361122   -1.00000000   -1.00000000   -1.00000000
   13.89499950   67.17960358    2.98000002    2.51999998
   13.89833355   78.82199860    3.00000000    2.51999998
   13.90138817   75.47599792    3.00000000    2.51999998
   13.90472221   74.30909729    3.03999996    2.51999998
   13.90777779   73.91780090    3.01999998    2.51999998
   13.91111088   77.40570068    3.00000000    2.51999998
   13.91527748   77.40570068    3.01999998    2.51999998
   13.91944504   73.73320007    3.03999996    2.51999998
   13.92277813   72.96330261    3.07999992    2.51999998
   13.92583370   72.75160217    3.09999990    2.51999998
   13.92833328   77.68260193    3.11999989    2.51999998
   13.92972279   73.80970001    3.14000010    2.51999998
   13.93277836   73.24829865    3.11999989    2.51999998
   13.93611145   71.80829620    3.11999989    2.51999998
   13.93916702   73.49859619    3.07999992    2.51999998
   13.94250011   73.70200348    3.05999994    2.53999996
   13.94583321   73.21530151    3.09999990    2.51999998
   13.94888878   73.04530334    3.09999990    2.51999998
   13.95222187   71.49890137    3.18000007    2.51999998
   13.95805550   71.49890137    3.30999994    2.51999998
   13.96222210   72.55750275    3.43000007    2.51999998
   13.96555519   74.08709717    3.55999994    2.51999998
   13.96861076   74.17819977    3.73000002    2.53999996
   13.97194386   75.10199738    3.73000002    2.51999998
   13.97527695   73.59860229    3.72000003    2.53999996
   13.97833252   76.09909821    3.66000009    2.53999996
   13.98166656   81.36170197    3.45000005    2.53999996
   13.98472214   74.71600342    3.26999998    2.53999996
   13.98805618   74.85939789    3.25000000    2.53999996
   13.99138927   75.13929749    3.28999996    2.53999996
   13.99444485   75.13220215    3.28999996    2.53999996
   13.99499989   73.26290131    3.30999994    2.53999996
   14.00111103   73.26290131    3.34999990    2.53999996
   14.00500011   75.09989929    3.32999992    2.53999996
   14.00833321   76.12699890    3.32999992    2.53999996
   14.01166630   77.93779755    3.34999990    2.53999996
   14.01472187   76.57740021    3.36999989    2.53999996
   14.01805496   73.43209839    3.26999998    2.53999996
   14.02111053   75.86470032    3.16000009    2.53999996
   14.02444458   72.90209961    3.16000009    2.53999996
   14.02777767   75.21649933    3.20000005    2.53999996
   14.02833271   78.68009949    3.20000005    2.53999996
   14.03138828   72.86239624    3.21000004    2.53999996
   14.03472233   74.11409760    3.30999994    2.53999996
   14.03777790   73.37280273    3.50000000    2.53999996
   14.04388905   73.37280273    3.59999990    2.53999996
   14.04805565   75.70829773    3.53999996    2.53999996
   14.05111122   72.15350342    3.55999994    2.53999996
   14.05444431   74.92070007    3.45000005    2.55999994
   14.05749989   75.68460083    3.32999992    2.53999996
   14.06083393   76.88909912    3.23000002    2.53999996
   14.06166649   77.65409851    3.20000005    2.55999994
   14.06444454   74.03649902    3.16000009    2.53999996
   14.06777763   72.64420319    3.09999990    2.53999996
   14.07083321   74.89440155    3.11999989    2.53999996
   14.07416630   72.81539917    3.09999990    2.55999994
   14.07722187   75.73449707    3.09999990    2.53999996
   14.08055592   73.95680237    3.09999990    2.55999994
   14.08666611   73.95680237    3.11999989    2.55999994
   14.09083271   73.32659912    3.09999990    2.53999996
   14.09388828   75.09760284    3.21000004    2.55999994
   14.09499931   74.02970123    3.25000000    2.55999994
   14.09777737   74.72519684    3.34999990    2.55999994
   14.10111141   74.42269897    3.45000005    2.55999994
   14.10416698   73.13249969    3.53999996    2.53999996
   14.10750008   72.23639679    3.75000000    2.53999996
   14.11055565   72.79699707    3.97000003    2.55999994
   14.11388969   72.16760254    4.21999979    2.53999996
   14.11722279   74.11440277    4.36999989    2.53999996
   14.12027836   73.16970062    4.48999977    2.53999996
   14.12361145   72.49990082    4.55999994    2.51999998
   14.12944412   72.49990082    4.53000021    2.53999996
   14.13361073   75.55449677    4.34999990    2.53999996
   14.13694477   71.77210236    4.26999998    2.53999996
   14.14000034   72.47560120    4.07999992    2.55999994
   14.14333344   74.15329742    3.89000010    2.55999994
   14.14666653   75.66580200    3.82999992    2.55999994
   14.14972210   73.55629730    3.78999996    2.55999994
   14.15305519   72.48449707    3.75000000    2.55999994
   14.15611076   72.24330139    3.84999990    2.53999996
   14.15944386   73.78569794    4.00000000    2.53999996
   14.16166592   73.68900299    4.26999998    2.53999996
   14.16305542   75.84490204    4.34999990    2.53999996
   14.16638851   72.98410034    4.44999981    2.53999996
   14.17250061   72.98410034    4.61999989    2.51999998
   14.17638874   74.89969635    4.69999981    2.51999998
   14.17972279   73.37539673    4.67999983    2.51999998
   14.18305588   73.33350372    4.48999977    2.51999998
   14.18611145   78.72989655    4.28999996    2.51999998
   14.18944454   73.21810150    4.05999994    2.51999998
   14.19250011   74.31659698    3.89000010    2.55999994
   14.19499969   73.09739685    3.66000009    2.55999994
   14.19638920   75.74490356    3.53999996    2.55999994
   14.19972229   73.01129913    3.28999996    2.55999994
   14.20277786   75.94259644    3.25000000    2.55999994
   14.20611095   74.40419769    3.26999998    2.55999994
   14.20916653   72.09680176    3.39000010    2.55999994
   14.21527767   72.09680176    3.59999990    2.55999994
   14.21944427   74.06960297    3.68000007    2.55999994
   14.22249985   72.07180023    3.76999998    2.53999996
   14.22583294   72.09249878    3.86999989    2.55999994
   14.22833252   77.62660217    3.86999989    2.55999994
   14.22944355   76.73590088    3.82999992    2.55999994
   14.23277760   72.20230103    3.57999992    2.55999994
   14.23583317   75.06919861    3.46000004    2.55999994
   14.23916721   73.83059692    3.39000010    2.55999994
   14.24250031   73.71340179    3.32999992    2.55999994
   14.24555588   71.52429962    3.16000009    2.55999994
   14.24888897   73.74150085    3.16000009    2.55999994
   14.25222206   72.20259857    3.30999994    2.55999994
   14.25805569   72.20259857    3.36999989    2.57999992
   14.26222229   73.68360138    3.53999996    2.55999994
   14.26527786   74.87090302    3.72000003    2.55999994
   14.26861095   78.47910309    3.89000010    2.55999994
   14.27194405   78.72669983    4.13999987    2.55999994
   14.27499962   73.90399933    4.11999989    2.53999996
   14.27833271   75.09559631    4.07999992    2.55999994
   14.28166676   75.95539856    3.91000009    2.53999996
   14.28472233   71.35540009    3.80999994    2.55999994
   14.28805637   74.60510254    3.89000010    2.55999994
   14.29111195   74.20999908    4.09999990    2.57999992
   14.29444504   74.98490143    4.42999983    2.55999994
   14.29500008   73.61360168    4.42999983    2.55999994
   14.30083370   73.61360168    4.69999981    2.53999996
   14.30500031   73.54080200    4.86999989    2.51999998
   14.30833340   72.53320313    4.90999985    2.53999996
   14.31138897   74.32050323    4.90999985    2.51999998
   14.31472206   80.07550049    4.90999985    2.51999998
   14.31805515   76.62129974    4.90999985    2.51999998
   14.32111073   77.32630157    4.90999985    2.53999996
   14.32444477   76.71710205    4.90999985    2.57999992
   14.32777786   71.67630005    4.90999985    2.57999992
   14.32833290   73.44069672    4.90999985    2.55999994
   14.33138847   72.98210144    4.90999985    2.55999994
   14.33472157   74.44750214    4.90999985    2.53999996
   14.33777714   75.64199829    4.90999985    2.53999996
   14.34361076   75.64199829    4.90999985    2.55999994
   14.34777737   72.23059845    4.90999985    2.55999994
   14.35111141   71.68699646    4.90999985    2.55999994
   14.35444450   75.34220123    4.90999985    2.55999994
   14.35750008   75.23069763    4.90999985    2.55999994
   14.36083412   72.71559906    4.90999985    2.57999992
   14.36166668   76.37490082    4.90999985    2.55999994
   14.36444473   73.81250000    4.90999985    2.55999994
   14.36777782   74.45899963    4.90999985    2.55999994
   14.37083340   75.71040344    4.90999985    2.55999994
   14.37416649   74.47470093    4.90999985    2.55999994
   14.37750053   75.26159668    4.90999985    2.55999994
   14.38055611   76.37920380    4.90999985    2.53999996
   14.38666630   76.37920380    4.90999985    2.53999996
   14.39083290   73.65529633    4.90999985    2.55999994
   14.39388847   75.80400085    4.90999985    2.57999992
   14.39499950   75.45449829    4.90999985    2.57999992
   14.39750004   78.41729736    4.90999985    2.57999992
   14.40083313   77.98000336    4.90999985    2.57999992
   14.40388870   74.47149658    4.90999985    2.57999992
   14.40722179   78.51730347    4.90999985    2.55999994
   14.41055489   76.97280121    4.90999985    2.55999994
   14.41361046   78.74310303    4.90999985    2.55999994
   14.41694450   76.55210114    4.90999985    2.57999992
   14.42000008   75.94380188    4.90999985    2.57999992
   14.42333412   78.78070068    4.90999985    2.57999992
   14.42944431   78.78070068    4.90999985    2.55999994
   14.43361092   76.05619812    4.90999985    2.55999994
   14.43666649   73.65339661    4.90999985    2.55999994
   14.44000053   79.29620361    4.90999985    2.55999994
   14.44333363   75.14150238    4.90999985    2.55999994
   14.44638920   74.25769806    4.90999985    2.55999994
   14.44972229   77.39360046    4.90999985    2.55999994
   14.45305538   72.32890320    4.90999985    2.55999994
   14.45611095   74.45379639    4.90999985    2.57999992
   14.45944405   74.28829956    4.90999985    2.57999992
   14.46166611   80.48650360    4.90999985    2.55999994
   14.46305561   77.17160034    4.90999985    2.55999994
   14.46638870   73.82810211    4.90999985    2.55999994
   14.47222137   73.82810211    4.90999985    2.55999994
   14.47638798   74.30220032    4.90999985    2.55999994
   14.47972202   76.18190002    4.90999985    2.59999990
   14.48277760   74.17009735    4.90999985    2.55999994
   14.48611164   72.54389954    4.90999985    2.53999996
   14.48944473   74.13410187    4.90999985    2.53999996
   14.49250031   74.08270264    4.90999985    2.57999992
   14.49527836   73.38520050    4.90999985    2.59999990
   14.49611092   72.54199982    4.90999985    2.59999990
   14.49944496   71.89739990    4.90999985    2.57999992
   14.50249958   73.68049622    4.90999985    2.59999990
   14.50583363   75.46479797    4.90999985    2.50000000
   14.50916672   76.41790009    4.90999985    2.51999998
   14.51500034   76.41790009    4.90999985    2.53999996
   14.51916599   72.66799927    4.90999985    2.51999998
   14.52250004   73.81829834    4.90999985    2.55999994
   14.52583313   75.71549988    4.90999985    2.53999996
   14.52861118   78.41030121    4.90999985    2.53999996
   14.52944374   75.04499817    4.90999985    2.53999996
   14.53277779   76.40160370    4.90999985    2.55999994
   14.53583336   75.11499786    4.90999985    2.55999994
   14.53916740   74.12229919    4.90999985    2.55999994
   14.54250050   79.41049957    4.90999985    2.55999994
   14.54555607   75.27559662    4.90999985    2.55999994
   14.54888916   74.90579987    4.90999985    2.57999992
   14.55222225   75.60440063    4.90999985    2.53999996
   14.55805588   75.60440063    4.90999985    2.57999992
   14.56222248   81.55670166    4.90999985    2.55999994
   14.56527805   79.50289917    4.90999985    2.53999996
   14.56861115   75.79250336    4.90999985    2.51999998
   14.57166672   75.95760345    4.90999985    2.50000000
   14.57499981   77.39450073    4.90999985    2.48000002
   14.57833290   75.76180267    4.90999985    2.53999996
   14.58166695   75.22630310    4.90999985    2.53999996
   14.58472157   79.68769836    4.90999985    2.51999998
   14.58805561   77.41519928    4.90999985    2.53999996
   14.59111118   75.89510345    4.90999985    2.44000006
   14.59444427   77.89830017    4.90999985    2.48000002
   14.59527779   78.05930328    4.90999985    2.48000002
   14.60083389   78.05930328    4.90999985    2.50000000
   14.60500050   80.31569672    4.90999985    2.48000002
   14.60805607   75.92459869    4.90999985    2.53999996
   14.61138916   73.29509735    4.90999985    2.55999994
   14.61472225   76.17269897    4.90999985    2.57999992
   14.61777782   74.90039825    4.90999985    2.55999994
   14.62111092   74.00669861    4.90999985    2.55999994
   14.62444496   77.85980225    4.90999985    2.50000000
   14.62750053   78.38189697    4.90999985    2.46000004
   14.62861156   78.98970032    4.90999985    2.48000002
   14.63111115   76.86270142    4.90999985    2.46000004
   14.63444424   78.91230011    4.90999985    2.50000000
   14.63749981   78.30919647    4.90999985    2.46000004
   14.64361095   78.30919647    4.90999985    2.50000000
   14.64777756   82.45069885    4.90999985    2.44000006
   14.65111065   80.16259766    4.90999985    2.48000002
   14.65416622   79.86019897    4.90999985    2.48000002
   14.65749931   81.13749695    4.90999985    2.50000000
   14.66055489   87.86509705    4.90999985    2.51999998
   14.66194439   84.03279877    4.90999985    2.51999998
   14.66416645   82.28279877    4.90999985    2.48000002
   14.66750050   76.15650177    4.90999985    2.53999996
   14.67055607   76.61170197    4.90999985    2.53999996
   14.67388916   77.19950104    4.90999985    2.53999996
   14.67722225   81.99459839    4.90999985    2.51999998
   14.68027782   86.32530212    4.90999985    2.55999994
   14.68638897   86.32530212    4.90999985    2.55999994
   14.69055557   80.52210236    4.90999985    2.57999992
   14.69388866   74.83309937    4.90999985    2.55999994
   14.69527817   76.25450134    4.90999985    2.55999994
   14.69750023   72.69629669    4.90999985    2.55999994
   14.70083332   72.15470123    4.90999985    2.55999994
   14.70388889   76.40260315    4.90999985    2.57999992
   14.70722198   74.96549988    4.90999985    2.59999990
   14.71055508   82.34480286    4.90999985    2.57999992
   14.71361065   80.19640350    4.90999985    2.59999990
   14.71694374   78.11150360    4.90999985    2.55999994
   14.72027779   82.34269714    4.90999985    2.57999992
   14.72333336   80.44090271    4.90999985    2.57999992
   14.72944355   80.44090271    4.90999985    2.55999994
   14.73361111   76.84239960    4.90999985    2.57999992
   14.73666668   78.35350037    4.90999985    2.55999994
   14.74000072   79.17800140    4.90999985    2.55999994
   14.74305534   73.94490051    4.90999985    2.51999998
   14.74638939   75.39150238    4.90999985    2.55999994
   14.74972248   75.05180359    4.90999985    2.53999996
   14.75277805   78.23870087    4.90999985    2.55999994
   14.75611115   77.11959839    4.90999985    2.53999996
   14.75944424   80.04450226    4.90999985    2.51999998
   14.76194477   78.98909760    4.90999985    2.51999998
   14.76277733   77.51119995    4.90999985    2.55999994
   14.76611137   79.31809998    4.90999985    2.53999996
   14.77222157   79.31809998    4.90999985    2.51999998
   14.77638817   75.86479950    4.90999985    2.48000002
   14.77944374   75.43540192    4.90999985    2.50000000
   14.78277779   77.58270264    4.90999985    2.46000004
   14.78611183   82.40280151    4.90999985    2.40000010
   14.78916740   81.18710327    4.90999985    2.39000010
   14.79250050   86.09459686    4.90999985    2.39000010
   14.79527855   83.69920349    4.90999985    2.36999989
   14.79611111   84.43800354    4.90999985    2.40000010
   14.79944515   77.57250214    4.90999985    2.42000008
   14.80277824   80.40650177    4.90999985    2.44000006
   14.80583382   82.22100067    4.90999985    2.39000010
   14.80916691   82.99169922    4.90999985    2.32999992
   14.81500053   82.99169922    4.90999985    2.39000010
   14.81916618   82.27279663    4.90999985    2.39000010
   14.82250023   83.67330170    4.90999985    2.44000006
   14.82555580   80.09149933    4.90999985    2.50000000
   14.82861137   79.20600128    4.90999985    2.40000010
   14.82916641   79.41519928    4.90999985    2.40000010
   14.83249950   78.58139801    4.90999985    2.40000010
   14.83583260   85.43540192    4.90999985    2.44000006
   14.83888817   82.08229828    4.90999985    2.44000006
   14.84222221   78.46089935    4.90999985    2.44000006
   14.84527779   76.91860199    4.90999985    2.48000002
   14.84861088   76.71669769    4.90999985    2.50000000
   14.85194492   78.60269928    4.90999985    2.46000004
   14.85777855   78.60269928    4.90999985    2.51999998
   14.86194515   86.76069641    4.90999985    2.53999996
   14.86527824   74.70559692    4.90999985    2.51999998
   14.86833382   73.00150299    4.90999985    2.55999994
   14.87166691   74.69889832    4.90999985    2.57999992
   14.87500000   74.40589905    4.90999985    2.59999990
   14.87805557   74.44139862    4.90999985    2.57999992
   14.88138866   74.65399933    4.90999985    2.59999990
   14.88472176   75.68920135    4.90999985    2.59999990
   14.88777733   76.62190247    4.90999985    2.53999996
   14.89111137   78.89350128    4.90999985    2.50000000
   14.89416695   80.55950165    4.90999985    2.53999996
   14.89527798   78.77169800    4.90999985    2.53999996
   14.91583252   78.77169800    4.90999985    2.40000010
   14.92000008   80.09349823    4.90999985    2.53999996
   14.92333412   82.20140076    4.90999985    2.53999996
   14.92638874   83.74929810    4.90999985    2.55999994
   14.92861176   80.56719971    4.90999985    2.51999998
   14.93000031   81.49299622    4.90999985    2.50000000
   14.93333340   80.67780304    4.90999985    2.50000000
   14.93666649   79.56620026    4.90999985    2.48000002
   14.93972206   76.94660187    4.90999985    2.42000008
   14.94305515   78.42199707    4.90999985    2.51999998
   14.94638920   76.13909912    4.90999985    2.55999994
   14.94944477   74.60060120    4.90999985    2.53999996
   14.95277786   76.55519867    4.90999985    2.50000000
   14.95861053   76.55519867    4.90999985    2.50000000
   14.96277714   76.63649750    4.90999985    2.48000002
   14.96611118   77.55180359    4.90999985    2.44000006
   14.96916580   81.45500183    4.90999985    2.48000002
   14.97249985   79.93389893    4.90999985    2.51999998
   14.97583294   79.66809845    4.90999985    2.50000000
   14.97888851   78.27200317    4.90999985    2.50000000
   14.98222160   77.69290161    4.90999985    2.48000002
   14.98527813   81.07369995    4.90999985    2.46000004
   14.98861122   75.13390350    4.90999985    2.46000004
   14.99194431   73.89540100    4.90999985    2.51999998
   14.99499989   75.93250275    4.90999985    2.51999998
   14.99555588   76.07260132    4.90999985    2.51999998
   15.00138855   76.07260132    4.90999985    2.51999998
   15.00555515   76.27960205    4.90999985    2.53999996
   15.00888920   80.06390381    4.90999985    2.51999998
   15.01222229   77.94920349    4.90999985    2.51999998
   15.01527786   83.80310059    4.90999985    2.50000000
   15.01861095   78.16120148    4.90999985    2.48000002
   15.02166653   77.58399963    4.90999985    2.46000004
   15.02499962   78.14550018    4.90999985    2.44000006
   15.02833271   76.77420044    4.90999985    2.48000002
   15.02888870   76.78379822    4.90999985    2.48000002
   15.03194427   76.53050232    4.90999985    2.53999996
   15.03527832   78.57309723    4.90999985    2.48000002
   15.03833389   77.59700012    4.90999985    2.51999998
   15.04444504   77.59700012    4.90999985    2.57999992
   15.04861164   83.55039978    4.90999985    2.51999998
   15.05166721   87.35890198    4.90999985    2.48000002
   15.05500031   80.52860260    4.90999985    2.44000006
   15.05805588   83.44689941    4.90999985    2.46000004
   15.06138897   82.03700256    4.90999985    2.42000008
   15.06222248   77.55339813    4.90999985    2.40000010
   15.06500053   79.40350342    4.90999985    2.42000008
   15.06833363   81.78060150    4.90999985    2.46000004
   15.07138920   81.90129852    4.90999985    2.46000004
   15.07472229   78.85189819    4.90999985    2.46000004
   15.07777786   79.00890350    4.90999985    2.50000000
   15.08111095   80.60859680    4.90999985    2.51999998
   15.08722210   80.60859680    4.90999985    2.51999998
   15.09138870   80.48059845    4.90999985    2.50000000
   15.09444427   79.60590363    4.90999985    2.46000004
   15.09555531   85.47270203    4.90999985    2.46000004
   15.09833336   80.54100037    4.90999985    2.48000002
   15.10166740   81.84249878    4.90999985    2.48000002
   15.10472298   79.19000244    4.90999985    2.44000006
   15.10805607   82.21070099    4.90999985    2.46000004
   15.11111164   80.03639984    4.90999985    2.46000004
   15.11444473   89.92669678    4.90999985    2.51999998
   15.11777782   76.68049622    4.90999985    2.51999998
   15.12083340   83.18260193    4.90999985    2.50000000
   15.12416649   85.98549652    4.90999985    2.48000002
   15.13000011   85.98549652    4.90999985    2.50000000
   15.13416672   81.38729858    4.90999985    2.46000004
   15.13749981   85.91880035    4.90999985    2.48000002
   15.14055538   83.42259979    4.90999985    2.42000008
   15.14388847   80.93070221    4.90999985    2.40000010
   15.14722252   77.26499939    4.90999985    2.40000010
   15.15027714   80.47229767    4.90999985    2.48000002
   15.15361118   80.82140350    4.90999985    2.48000002
   15.15666676   79.45749664    4.90999985    2.48000002
   15.15999985   78.42870331    4.90999985    2.48000002
   15.16222191   78.64340210    4.90999985    2.51999998
   15.16361046   79.11889648    4.90999985    2.51999998
   15.16694450   74.84690094    4.90999985    2.51999998
   15.17277813   74.84690094    4.90999985    2.55999994
   15.17694473   78.64089966    4.90999985    2.53999996
   15.18027782   77.36160278    4.90999985    2.50000000
   15.18361092   78.20500183    4.90999985    2.51999998
   15.18666649   74.04759979    4.90999985    2.55999994
   15.19000053   78.99320221    4.90999985    2.55999994
   15.19305515   76.73079681    4.90999985    2.55999994
   15.19555569   75.90390015    4.90999985    2.53999996
   15.19694424   78.45800018    4.90999985    2.53999996
   15.20027733   76.02189636    4.90999985    2.57999992
   15.20333290   77.75199890    4.90999985    2.59999990
   15.20666695   76.76860046    4.90999985    2.59999990
   15.20972157   80.09760284    4.90999985    2.55999994
   15.21583271   80.09760284    4.90999985    2.57999992
   15.21999931   77.78939819    4.90999985    2.59999990
   15.22305489   75.16950226    4.90999985    2.55999994
   15.22638798   77.10449982    4.90999985    2.55999994
   15.22888851   75.18470001    4.90999985    2.55999994
   15.22999954   79.63790131    4.90999985    2.55999994
   15.23333359   77.87319946    4.90999985    2.57999992
   15.23638916   76.26010132    4.90999985    2.57999992
   15.23972225   76.46019745    4.90999985    2.55999994
   15.24305534   73.45339966    4.90999985    2.57999992
   15.24611092   73.80470276    4.90999985    2.55999994
   15.24944496   77.48889923    4.90999985    2.55999994
   15.25277805   73.86450195    4.90999985    2.57999992
   15.25861073   73.86450195    4.90999985    2.61999989
   15.26277733   75.29740143    4.90999985    2.59999990
   15.26583290   73.22779846    4.90999985    2.59999990
   15.26916599   77.32879639    4.90999985    2.55999994
   15.27250004   76.22699738    4.90999985    2.59999990
   15.27555561   73.92199707    4.90999985    2.59999990
   15.27888870   74.03749847    4.90999985    2.57999992
   15.28194427   74.85959625    4.90999985    2.59999990
   15.28527832   73.56580353    4.90999985    2.59999990
   15.28861141   76.43930054    4.90999985    2.61999989
   15.29166698   73.46160126    4.90999985    2.59999990
   15.29500008   77.44580078    4.90999985    2.61999989
   15.29555607   74.35910034    4.90999985    2.61999989
   15.30138874   74.35910034    4.90999985    2.59999990
   15.30555534   74.94100189    4.90999985    2.57999992
   15.30888939   75.18720245    4.90999985    2.55999994
   15.31194496   73.28459930    4.90999985    2.55999994
   15.31527805   75.26349640    4.90999985    2.55999994
   15.31833363   73.38359833    4.90999985    2.57999992
   15.32166672   74.37139893    4.90999985    2.59999990
   15.32499981   74.04779816    4.90999985    2.55999994
   15.32805538   74.62220001    4.90999985    2.57999992
   15.32888889   75.31539917    4.90999985    2.57999992
   15.33166695   80.55840302    4.90999985    2.57999992
   15.33500004   74.09670258    4.90999985    2.55999994
   15.33833313   73.00640106    4.90999985    2.53999996
   15.34416676   73.00640106    4.90999985    2.55999994
   15.34833336   76.66290283    4.90999985    2.55999994
   15.35166740   82.61750031    4.90999985    2.53999996
   15.35472298   79.55300140    4.90999985    2.55999994
   15.35805607   76.39189911    4.90999985    2.55999994
   15.36138916   74.83560181    4.90999985    2.55999994
   15.36222267   74.22450256    4.90999985    2.55999994
   15.36500072   77.39969635    4.90999985    2.55999994
   15.36833382   77.06349945    4.90999985    2.55999994
   15.37138939   75.13739777    4.90999985    2.53999996
   15.37472248   78.79409790    4.90999985    2.55999994
   15.37805557   79.03320313    4.90999985    2.51999998
   15.38111115   78.07029724    4.90999985    2.51999998
   15.38722229   78.07029724    4.90999985    2.55999994
   15.39111137   79.51550293    4.90999985    2.57999992
   15.39444447   75.95819855    4.90999985    2.55999994
   15.39555550   74.76679993    4.90999985    2.55999994
   15.39805508   79.28330231    4.90999985    2.55999994
   15.40138817   76.03649902    4.90999985    2.55999994
   15.40444374   77.10469818    4.90999985    2.55999994
   15.40777779   79.91510010    4.90999985    2.55999994
   15.41111088   74.45880127    4.90999985    2.55999994
   15.41416645   78.92690277    4.90999985    2.57999992
   15.41750050   74.79530334    4.90999985    2.59999990
   15.42055607   76.88569641    4.90999985    2.57999992
   15.42388916   80.05879974    4.90999985    2.57999992
   15.43000031   80.05879974    4.90999985    2.55999994
   15.43416691   77.75890350    4.90999985    2.55999994
   15.43722248   77.11509705    4.90999985    2.55999994
   15.44055557   77.13150024    4.90999985    2.53999996
   15.44388866   79.92710114    4.90999985    2.51999998
   15.44694424   77.90840149    4.90999985    2.53999996
   15.45027733   77.97059631    4.90999985    2.51999998
   15.45333290   74.91860199    4.90999985    2.55999994
   15.45666695   75.69629669    4.90999985    2.55999994
   15.46000004   76.67749786    4.90999985    2.53999996
   15.46222210   79.02980042    4.90999985    2.55999994
   15.46361065   80.54519653    4.90999985    2.55999994
   15.46694374   77.52880096    4.90999985    2.53999996
   15.47277737   77.52880096    4.90999985    2.50000000
   15.47694397   79.22579956    4.90999985    2.44000006
   15.48027706   77.52790070    4.90999985    2.44000006
   15.48333359   80.69619751    4.90999985    2.46000004
   15.48666668   78.80899811    4.90999985    2.48000002
   15.48972225   75.55860138    4.90999985    2.50000000
   15.49305534   76.83070374    4.90999985    2.51999998
   15.49555588   86.20780182    4.90999985    2.51999998
   15.49666691   86.87830353    4.90999985    2.48000002
   15.50000000   82.86820221    4.90999985    2.39000010
   15.50333309   79.80049896    4.90999985    2.40000010
   15.50638866   77.83309937    4.90999985    2.44000006
   15.50972176   84.32969666    4.90999985    2.44000006
   15.51555538   84.32969666    4.90999985    2.42000008
   15.51972198   80.49040222    4.90999985    2.48000002
   15.52305508   82.75189972    4.90999985    2.50000000
   15.52611065   80.13800049    4.90999985    2.48000002
   15.52888870   79.41590118    4.90999985    2.48000002
   15.52972221   79.92710114    4.90999985    2.48000002
   15.53305531   80.11070251    4.90999985    2.48000002
   15.53611183   79.41300201    4.90999985    2.51999998
   15.53944492   78.32369995    4.90999985    2.53999996
   15.54277802   76.24469757    4.90999985    2.51999998
   15.54583359   80.56580353    4.90999985    2.48000002
   15.54916668   76.09220123    4.90999985    2.48000002
   15.55222225   80.03399658    4.90999985    2.46000004
   15.55861092   80.03399658    4.90999985    2.44000006
   15.56250000   83.75289917    4.90999985    2.48000002
   15.56583309   78.79630280    4.90999985    2.44000006
   15.56916618   78.59239960    4.90999985    2.44000006
   15.57222176   78.98300171    4.90999985    2.44000006
   15.57555580   84.31439972    4.90999985    2.44000006
   15.57888889   76.50109863    4.90999985    2.42000008
   15.58194447   82.01159668    4.90999985    2.44000006
   15.58527756   79.91200256    4.90999985    2.40000010
   15.58833313   80.23970032    4.90999985    2.39000010
   15.59166622   83.11309814    4.90999985    2.42000008
   15.59499931   85.96150208    4.90999985    2.46000004
   15.59583282   85.70999908    4.90999985    2.44000006
   15.60138893   85.70999908    4.90999985    2.42000008
   15.60555553   74.78589630    4.90999985    2.46000004
   15.60861111   79.06220245    4.90999985    2.51999998
   15.61194515   78.47180176    4.90999985    2.50000000
   15.61527824   81.75789642    4.90999985    2.50000000
   15.61833382   89.77629852    4.90999985    2.48000002
   15.62166691   83.44879913    4.90999985    2.50000000
   15.62472248   80.10500336    4.90999985    2.48000002
   15.62805557   81.88580322    4.90999985    2.48000002
   15.62916660   80.83409882    4.90999985    2.46000004
   15.63166714   77.82430267    4.90999985    2.44000006
   15.63500023   83.70549774    4.90999985    2.44000006
   15.63805580   79.62039948    4.90999985    2.44000006
   15.64416695   79.62039948    4.90999985    2.44000006
   15.64833355   82.08869934    4.90999985    2.44000006
   15.65166664   77.42729950    4.90999985    2.42000008
   15.65472221   80.84980011    4.90999985    2.44000006
   15.65805531   81.65599823    4.90999985    2.42000008
   15.66111088   77.51619720    4.90999985    2.40000010
   15.66249943   85.63390350    4.90999985    2.40000010
   15.66472149   80.47119904    4.90999985    2.39000010
   15.66805553   81.81449890    4.90999985    2.42000008
   15.67111111   76.93650055    4.90999985    2.50000000
   15.67444515   76.50050354    4.90999985    2.53999996
   15.67777824   77.67990112    4.90999985    2.55999994
   15.68083382   78.43209839    4.90999985    2.53999996
   15.68694496   78.43209839    4.90999985    2.42000008
   15.69111156   84.49890137    4.90999985    2.40000010
   15.69444466   83.43160248    4.90999985    2.36999989
   15.69583321   86.26940155    4.90999985    2.39000010
   15.69805527   86.76670074    4.90999985    2.28999996
   15.70138836   85.04190063    4.90999985    2.34999990
   15.70444393   83.20290375    4.90999985    2.39000010
   15.70777798   84.74310303    4.90999985    2.36999989
   15.71111107   82.92169952    4.90999985    2.34999990
   15.71416664   78.58290100    4.90999985    2.40000010
   15.71749973   78.06079865    4.90999985    2.50000000
   15.72083282   79.21739960    4.90999985    2.48000002
   15.72388840   78.24549866    4.90999985    2.48000002
   15.72999954   78.24549866    4.90999985    2.46000004
   15.73416710   82.02429962    4.90999985    2.34999990
   15.73722267   82.66809845    4.90999985    2.36999989
   15.74055576   81.10669708    4.90999985    2.36999989
   15.74361134   81.97550201    4.90999985    2.30999994
   15.74694443   83.55290222    4.90999985    2.30999994
   15.75027752   85.46540070    4.90999985    2.25000000
   15.75333309   88.59400177    4.90999985    2.26999998
   15.75666714   81.79820251    4.90999985    2.25000000
   15.76000023   87.21040344    4.90999985    2.25000000
   15.76249981   86.77490234    4.90999985    2.25000000
   15.76333332   82.37889862    4.90999985    2.25000000
   15.76666641   84.24050140    4.90999985    2.32999992
   15.77277756   84.24050140    4.90999985    2.40000010
   15.77694416   80.56179810    4.90999985    2.40000010
   15.77999973   82.42510223    4.90999985    2.39000010
   15.78333378   77.49680328    4.90999985    2.39000010
   15.78666687   79.22910309    4.90999985    2.40000010
   15.78972244   81.01740265    4.90999985    2.39000010
   15.79305553   83.09500122    4.90999985    2.36999989
   15.79583359   83.74729919    4.90999985    2.30999994
   15.79666710   83.74089813    4.90999985    2.34999990
   15.80000019   80.34510040    4.90999985    2.34999990
   15.80333328   81.73269653    4.90999985    2.39000010
   15.80638885   79.78189850    4.90999985    2.39000010
   15.80972195   82.16840363    4.90999985    2.40000010
   15.81555557   82.16840363    4.90999985    2.40000010
   15.81972218   81.98580170    4.90999985    2.42000008
   15.82305527   78.91159821    4.90999985    2.40000010
   15.82611084   78.82779694    4.90999985    2.39000010
   15.82916641   83.90529633    4.90999985    2.36999989
   15.82972240   81.40039825    4.90999985    2.36999989
   15.83305550   81.04450226    4.90999985    2.36999989
   15.83638859   79.31790161    4.90999985    2.39000010
   15.83944416   78.01730347    4.90999985    2.40000010
   15.84277725   77.99120331    4.90999985    2.42000008
   15.84583282   78.72460175    4.90999985    2.46000004
   15.84916592   82.77500153    4.90999985    2.48000002
   15.85249996   81.23069763    4.90999985    2.46000004
   15.85833359   81.23069763    4.90999985    2.28999996
   15.86250019   80.95850372    4.90999985    2.26999998
   15.86583328   90.27780151    4.90999985    2.34999990
   15.86888885   86.90470123    4.90999985    2.30999994
   15.87222195   89.11029816    4.90999985    2.21000004
   15.87555599   87.28379822    4.90999985    2.17000008
   15.87861156   91.31109619    4.90999985    2.17000008
   15.88194466   81.90370178    4.90999985    2.25000000
   15.88527775   83.44619751    4.90999985    2.40000010
   15.88833332   87.11060333    4.90999985    2.42000008
   15.89166641   96.47609711    4.90999985    2.36999989
   15.89472198   86.93579865    4.90999985    2.28999996
   15.89583302   86.32319641    4.90999985    2.30999994
   15.90138817   86.32319641    4.90999985    2.28999996
   15.90527725   86.04509735    4.90999985    2.26999998
   15.90861034   84.43609619    4.90999985    2.32999992
   15.91194439   78.67060089    4.90999985    2.36999989
   15.92944431   79.98220062    4.90999985    2.42000008
   15.93194485   82.16760254    4.90999985    2.34999990
   15.93500042   84.17739868    4.90999985    2.28999996
   15.93833351   79.66300201    4.90999985    2.30999994
   15.94416714   79.66300201    4.90999985    2.28999996
   15.94833374   85.57070160    4.90999985    2.36999989
   15.95166683   83.70349884    4.90999985    2.32999992
   15.95499992   85.26820374    4.90999985    2.28999996
   15.95805550   77.43019867    4.90999985    2.32999992
   15.96138859   77.91320038    4.90999985    2.48000002
   15.96277714   76.08879852    4.90999985    2.48000002
   15.96500015   78.33730316    4.90999985    2.44000006
   15.96833324   79.11519623    4.90999985    2.46000004
   15.97166634   80.03720093    4.90999985    2.40000010
   15.97472191   78.87509918    4.90999985    2.36999989
   15.97805500   82.03430176    4.90999985    2.28999996
   15.98138809   88.66840363    4.90999985    2.23000002
   15.98722267   88.66840363    4.90999985    2.21000004
   15.99138927   81.79250336    4.90999985    2.32999992
   15.99444485   87.88610077    4.90999985    2.32999992
   15.99611092   95.50990295    4.90999985    2.32999992
   15.99805546   78.34059906    4.90999985    2.28999996
   16.00138855   87.28630066    4.90999985    2.32999992
   16.00472260   82.43910217    4.90999985    2.26999998
   16.00777817   89.79139709    4.90999985    2.30999994
   16.01111031   84.12110138    4.90999985    2.26999998
   16.01444435   91.54149628    4.90999985    2.28999996
   16.01749992   85.23889923    4.90999985    2.28999996
   16.02083397   82.55549622    4.90999985    2.34999990
   16.02416611   81.15540314    4.90999985    2.44000006
   16.03000069   81.15540314    4.90999985    2.42000008
   16.03416634   80.83869934    4.90999985    2.40000010
   16.03722191   84.80780029    4.90999985    2.34999990
   16.04055595   84.89530182    4.90999985    2.39000010
   16.04388809   86.46600342    4.90999985    2.28999996
   16.04694366   79.98950195    4.90999985    2.32999992
   16.05027771   81.58070374    4.90999985    2.32999992
   16.05360985   80.24469757    4.90999985    2.30999994
   16.05666542   89.22109985    4.90999985    2.30999994
   16.05999947   83.11190033    4.90999985    2.32999992
   16.06277657   86.15889740    4.90999985    2.32999992
   16.06361008   83.36029816    4.90999985    2.30999994
   16.06694603   86.33309937    4.90999985    2.32999992
   16.07277870   86.33309937    4.90999985    2.40000010
   16.07694626   79.39399719    4.90999985    2.42000008
   16.08027840   77.15170288    4.90999985    2.44000006
   16.08333397   79.13719940    4.90999985    2.44000006
   16.08666801   75.73310089    4.90999985    2.48000002
   16.09000015   77.42729950    4.90999985    2.46000004
   16.09305573   80.56179810    4.90999985    2.48000002
   16.09611130   82.31109619    4.90999985    2.40000010
   16.09666824   85.72910309    4.90999985    2.40000010
   16.10000038   80.51809692    4.90999985    2.32999992
   16.10333443   83.54350281    4.90999985    2.34999990
   16.10639000   80.64600372    4.90999985    2.39000010
   16.10972214   79.15650177    4.90999985    2.39000010
   16.11555672   79.15650177    4.90999985    2.46000004
   16.11972237   77.00170135    4.90999985    2.48000002
   16.12305641   77.24389648    4.90999985    2.48000002
   16.12638855   76.57129669    4.90999985    2.51999998
   16.12944412   75.08249664    4.90999985    2.50000000
   16.12972260   79.90419769    4.90999985    2.50000000
   16.13305473   76.15380096    4.90999985    2.51999998
   16.13638878   79.58730316    4.90999985    2.42000008
   16.13944435   82.37139893    4.90999985    2.46000004
   16.14277840   80.93260193    4.90999985    2.48000002
   16.14611053   77.68340302    4.90999985    2.48000002
   16.14916611   76.34400177    4.90999985    2.48000002
   16.15250015   75.51039886    4.90999985    2.55999994
   16.15861130   75.51039886    4.90999985    2.46000004
   16.16277695   79.01370239    4.90999985    2.44000006
   16.16305542   81.63929749    4.90999985    2.44000006
   16.16638756   79.40950012    4.90999985    2.39000010
   16.16972160   79.36479950    4.90999985    2.48000002
   16.17277718   88.90579987    4.90999985    2.44000006
   16.17611122   83.07939911    4.90999985    2.40000010
   16.17944336   87.58760071    4.90999985    2.40000010
   16.18249893   83.46759796    4.90999985    2.30999994
   16.18583298   80.48780060    4.90999985    2.32999992
   16.18916512   85.26119995    4.90999985    2.39000010
   16.19222069   90.46060181    4.90999985    2.30999994
   16.19555473   85.46810150    4.90999985    2.28999996
   16.19610977   85.05460358    4.90999985    2.32999992
   16.20138931   85.05460358    4.90999985    2.48000002
   16.20555687   79.47920227    4.90999985    2.44000006
   16.20861244   76.33209991    4.90999985    2.48000002
   16.21194458   79.51119995    4.90999985    2.51999998
   16.21527863   82.30840302    4.90999985    2.44000006
   16.21833420   87.34230042    4.90999985    2.39000010
   16.22166634   80.73760223    4.90999985    2.19000006
   16.22500038   84.26719666    4.90999985    2.25000000
   16.22805595   87.29419708    4.90999985    2.21000004
   16.22944450   86.78070068    4.90999985    2.19000006
   16.23194504   85.41690063    4.90999985    2.21000004
   16.23500061   89.58470154    4.90999985    2.28999996
   16.23833275   78.93930054    4.90999985    2.36999989
   16.24416733   78.93930054    4.90999985    2.42000008
   16.24833298   82.35900116    4.90999985    2.34999990
   16.25166702   92.94239807    4.90999985    2.40000010
   16.25472260  102.80400085    4.90999985    2.36999989
   16.25805473  101.19799805    4.90999985    2.36999989
   16.26138878  100.15499878    4.90999985    2.40000010
   16.26277733  109.23200226    4.90999985    2.34999990
   16.26499939   82.96790314    4.90999985    2.28999996
   16.26805496   96.81510162    4.90999985    2.28999996
   16.27138901   99.67620087    4.90999985    2.34999990
   16.27444458   93.20300293    4.90999985    2.34999990
   16.27777672  108.63800049    4.90999985    2.28999996
   16.28111076  110.45099640    4.90999985    2.39000010
   16.28694344  110.45099640    4.90999985    2.50000000
   16.29111099   90.27670288    4.90999985    2.48000002
   16.29444313   86.10890198    4.90999985    2.44000006
   16.29611015   80.02989960    4.90999985    2.44000006
   16.29833221   84.11430359    4.90999985    2.51999998
   16.30138779   91.58399963    4.90999985    2.53999996
   16.30472183   78.79570007    4.90999985    2.55999994
   16.30777740   84.63339996    4.90999985    2.50000000
   16.31110954  101.13600159    4.90999985    2.39000010
   16.31444359   93.97329712    4.90999985    2.40000010
   16.31750107   76.52220154    4.90999985    2.44000006
   16.32083511   99.24909973    4.90999985    2.42000008
   16.32416725   96.93650055    4.90999985    2.42000008
   16.33000183   96.93650055    4.90999985    2.32999992
   16.33416748   80.05770111    4.90999985    2.30999994
   16.33722305   84.80079651    4.90999985    2.32999992
   16.34055710   82.53559875    4.90999985    2.28999996
   16.34361267   96.40869904    4.90999985    2.34999990
   16.34694481   81.50520325    4.90999985    2.39000010
   16.35027885   88.10910034    4.90999985    2.36999989
   16.35333443   87.19830322    4.90999985    2.25000000
   16.35666656   87.87860107    4.90999985    2.23000002
   16.36000061   84.00910187    4.90999985    2.25000000
   16.36277771   88.34400177    4.90999985    2.23000002
   16.36361122   95.23100281    4.90999985    2.23000002
   16.36666679   84.28890228    4.90999985    2.23000002
   16.37277794   84.28890228    4.90999985    2.44000006
   16.37694550   80.68350220    4.90999985    2.44000006
   16.38000107   78.44460297    4.90999985    2.39000010
   16.38333321   80.87419891    4.90999985    2.36999989
   16.38666725   78.30470276    4.90999985    2.32999992
   16.38972282   81.40440369    4.90999985    2.39000010
   16.39305496   84.93910217    4.90999985    2.39000010
   16.39611053   75.16200256    4.90999985    2.44000006
   16.39666748   79.26159668    4.90999985    2.44000006
   16.39972115   79.37940216    4.90999985    2.48000002
   16.40305519   75.32009888    4.90999985    2.46000004
   16.40611076   78.83180237    4.90999985    2.55999994
   16.40944481   75.91739655    4.90999985    2.51999998
   16.41555595   75.91739655    4.90999985    2.55999994
   16.41972160   82.25839996    4.90999985    2.44000006
   16.42305565   76.76090240    4.90999985    2.42000008
   16.42611122   82.04979706    4.90999985    2.42000008
   16.42944336   76.42960358    4.90999985    2.40000010
   16.43000031   77.92209625    4.90999985    2.40000010
   16.43305397   74.92340088    4.90999985    2.44000006
   16.43638802   79.31379700    4.90999985    2.48000002
   16.43944359   75.29209900    4.90999985    2.50000000
   16.44277763   76.42240143    4.90999985    2.46000004
   16.44610977   76.83550262    4.90999985    2.51999998
   16.44916534   76.62310028    4.90999985    2.46000004
   16.45250130   75.63500214    4.90999985    2.53999996
   16.45833397   75.63500214    4.90999985    2.51999998
   16.46250153   79.99739838    4.90999985    2.51999998
   16.46305656   81.03630066    4.90999985    2.50000000
   16.46638870   78.08100128    4.90999985    2.50000000
   16.46944427   74.63159943    4.90999985    2.53999996
   16.47277832   85.27519989    4.90999985    2.55999994
   16.47611237   78.81430054    4.90999985    2.53999996
   16.47916794   75.82849884    4.90999985    2.50000000
   16.48250008   74.19069672    4.90999985    2.48000002
   16.48583412   82.40010071    4.90999985    2.48000002
   16.48888969   76.28009796    4.90999985    2.44000006
   16.49222183   76.95269775    4.90999985    2.48000002
   16.49527740   76.27899933    4.90999985    2.53999996
   16.49638939   76.59929657    4.90999985    2.51999998
   16.50138855   76.59929657    4.90999985    2.48000002
   16.50527763   81.39040375    4.90999985    2.46000004
   16.50861168   79.25420380    4.90999985    2.51999998
   16.51194382   77.40540314    4.90999985    2.57999992
   16.51499939   76.36519623    4.90999985    2.59999990
   16.51833344   76.40889740    4.90999985    2.61999989
   16.52166557   77.41120148    4.90999985    2.59999990
   16.52472115   73.99539948    4.90999985    2.64000010
   16.52805519   77.85579681    4.90999985    2.61999989
   16.52972221   76.20790100    4.90999985    2.59999990
   16.53166580   75.41230011    4.90999985    2.61999989
   16.53472137   75.67310333    4.90999985    2.59999990
   16.53805542   75.82180023    4.90999985    2.57999992
   16.54416656   75.82180023    4.90999985    2.55999994
   16.54833221   73.14179993    4.90999985    2.59999990
   16.55138779   75.58650208    4.90999985    2.57999992
   16.55472183   77.03690338    4.90999985    2.61999989
   16.55805397   76.68820190    4.90999985    2.66000009
   16.56110954   78.44290161    4.90999985    2.67000008
   16.56305504   75.16329956    4.90999985    2.67000008
   16.56472206   72.41449738    4.90999985    2.66000009
   16.56777954   72.18379974    4.90999985    2.66000009
   16.57111168   72.99890137    4.90999985    2.66000009
   16.57444572   71.16259766    4.90999985    2.66000009
   16.57750130   73.66079712    4.90999985    2.67000008
   16.58083344   71.99700165    4.90999985    2.67000008
   16.58694458   71.99700165    4.80999994    2.66000009
   16.59111214   71.81670380    4.80999994    2.66000009
   16.59444427   76.33219910    4.90999985    2.64000010
   16.59638977   75.92479706    4.90999985    2.64000010
   16.59805679   76.37809753    4.90999985    2.61999989
   16.60138893   79.89129639    4.90999985    2.55999994
   16.60444450   74.34700012    4.90999985    2.51999998
   16.60777855   77.40209961    4.90999985    2.57999992
   16.61083412   80.68160248    4.90999985    2.61999989
   16.61416626   76.30100250    4.90999985    2.61999989
   16.61750031   78.83260345    4.90999985    2.59999990
   16.62055588   75.42649841    4.90999985    2.64000010
   16.62388992   75.27159882    4.90999985    2.67000008
   16.62972260   75.27159882    4.90999985    2.64000010
   16.63388824   76.37879944    4.90999985    2.61999989
   16.63722229   79.46399689    4.90999985    2.64000010
   16.64027786   74.41190338    4.90999985    2.67000008
   16.64361191   72.87819672    4.90999985    2.69000006
   16.64694405   72.76339722    4.90999985    2.69000006
   16.64999962   70.98729706    4.42999983    2.69000006
   16.65333366   73.81050110    3.89000010    2.69000006
   16.65666580   70.96360016    3.84999990    2.69000006
   16.65972137   71.62529755    4.53999996    2.71000004
   16.66305542   75.93710327    4.90999985    2.69000006
   16.66499901   77.57710266    4.90999985    2.67000008
   16.66666603   78.39070129    4.90999985    2.64000010
   16.67277718   78.39070129    4.90999985    2.55999994
   16.67666626   73.72250366    4.90999985    2.55999994
   16.68000031   78.38009644    4.90999985    2.59999990
   16.68333244   74.49729919    4.90999985    2.55999994
   16.68638802   76.94349670    4.90999985    2.61999989
   16.68972206   77.20770264    4.90999985    2.64000010
   16.69305420   77.22660065    4.90999985    2.61999989
   16.69610977   74.07140350    4.90999985    2.64000010
   16.69833183   77.06199646    4.90999985    2.67000008
   16.69972038   74.37239838    4.90999985    2.67000008
   16.70305634   71.15229797    4.90999985    2.67000008
   16.70611191   73.41590118    4.90999985    2.67000008
   16.70944595   72.60520172    4.90999985    2.64000010
   16.71555710   72.60520172    4.90999985    2.66000009
   16.71972275   75.01529694    4.90999985    2.66000009
   16.72277832   77.63970184    4.90999985    2.64000010
   16.72611237   74.14959717    4.90999985    2.66000009
   16.72944450   75.85269928    4.90999985    2.66000009
   16.73166656   74.67199707    4.90999985    2.64000010
   16.73305511   73.91310120    4.90999985    2.64000010
   16.73638916   76.07109833    4.90999985    2.64000010
   16.73944473   74.30329895    4.90999985    2.66000009
   16.74277878   73.60119629    4.88999987    2.66000009
   16.74583435   72.19129944    4.46999979    2.66000009
   16.74916649   75.96009827    4.23999977    2.67000008
   16.75250053   74.61470032    3.76999998    2.67000008
   16.75833321   74.61470032    3.50000000    2.69000006
   16.76250076   71.46900177    3.18000007    2.69000006
   16.76499939   73.24459839    2.94000006    2.67000008
   16.76611137   72.89980316    2.86999989    2.67000008
   16.76944351   75.36730194    2.84999990    2.67000008
   16.77249908   73.28939819    2.89000010    2.67000008
   16.77583313   75.50479889    2.84999990    2.67000008
   16.77888870   73.15579987    2.84999990    2.67000008
   16.78222275   71.25399780    2.84999990    2.67000008
   16.78555489   74.57270050    2.84999990    2.67000008
   16.78861046   71.81109619    2.84999990    2.67000008
   16.79194450   71.09529877    2.84999990    2.67000008
   16.79527664   72.56060028    2.82999992    2.67000008
   16.80111122   72.56060028    2.80999994    2.67000008
   16.80527687   72.50379944    2.78999996    2.67000008
   16.80861092   73.38710022    2.76999998    2.67000008
   16.81166649   71.63279724    2.75000000    2.67000008
   16.81499863   75.24839783    2.76999998    2.67000008
   16.81833458   73.44039917    2.78999996    2.67000008
   16.82139015   71.75900269    2.78999996    2.69000006
   16.82472229   70.03250122    2.80999994    2.67000008
   16.82805634   71.71070099    2.86999989    2.67000008
   16.83111191   73.02110291    2.96000004    2.67000008
   16.83222389   73.50199890    2.96000004    2.67000008
   16.83472252   73.42230225    2.93000007    2.67000008
   16.83805656   73.57550049    2.91000009    2.67000008
   16.84416771   73.57550049    2.78999996    2.67000008
   16.84805679   71.40630341    2.80999994    2.67000008
   16.85138893   75.22170258    2.82999992    2.67000008
   16.85472298   71.73860168    2.76999998    2.67000008
   16.85777855   71.82879639    2.73000002    2.67000008
   16.86111069   73.35440063    2.76999998    2.67000008
   16.86444473   75.48220062    2.76999998    2.67000008
   16.86555672   70.36679840    2.78999996    2.67000008
   16.86805534   73.71839905    2.80999994    2.67000008
   16.87138939   75.96050262    2.82999992    2.67000008
   16.87472153   73.63520050    2.82999992    2.67000008
   16.87777710   73.60089874    2.82999992    2.67000008
   16.88111115   72.80670166    2.84999990    2.67000008
   16.88694382   72.80670166    2.84999990    2.67000008
   16.89111137   76.29340363    2.82999992    2.67000008
   16.89416695   77.86650085    2.84999990    2.67000008
   16.89749908   74.97090149    2.89000010    2.67000008
   16.89888954   73.47290039    2.89000010    2.69000006
   16.90111160   74.83820343    2.89000010    2.67000008
   16.90444374   73.81279755    2.86999989    2.67000008
   16.90749931   71.58619690    2.84999990    2.67000008
   16.91083336   73.13960266    2.82999992    2.67000008
   16.91388893   72.04560089    2.80999994    2.67000008
   16.91722107   74.44400024    2.80999994    2.67000008
   16.92055511   73.79460144    2.84999990    2.67000008
   16.92361069   71.58010101    2.84999990    2.67000008
   16.92972183   71.58010101    2.80999994    2.67000008
   16.94805527   75.68119812    2.75000000    2.67000008
   16.95138931   73.22090149    2.73000002    2.67000008
   16.95472336   74.12860107    2.71000004    2.67000008
   16.95777893   75.21119690    2.71000004    2.67000008
   16.96111107   75.02179718    2.71000004    2.67000008
   16.96416664   76.09870148    2.73000002    2.67000008
   16.96750069   75.02700043    2.75000000    2.67000008
   16.97277832   75.02700043    2.75000000    2.67000008
   16.97694588   72.08139801    2.76999998    2.67000008
   16.98027802   72.39730072    2.76999998    2.67000008
   16.98111153   74.58670044    2.76999998    2.67000008
   16.98388863   76.03399658    2.76999998    2.67000008
   16.98722267   71.72170258    2.76999998    2.67000008
   16.99027824   76.61460114    2.75000000    2.67000008
   16.99361229   72.81569672    2.73000002    2.67000008
   16.99666786   74.11489868    2.73000002    2.67000008
   17.00000000   74.07160187    2.71000004    2.67000008
   17.00333405   73.78749847    2.71000004    2.67000008
   17.00638962   73.36509705    2.69000006    2.67000008
   17.00972176   73.70300293    2.69000006    2.67000008
   17.01555634   73.70300293    2.71000004    2.67000008
   17.01972198   74.59220123    2.71000004    2.67000008
   17.02305603   73.79920197    2.71000004    2.67000008
   17.02638817   78.80030060    2.71000004    2.67000008
   17.02944374   73.23040009    2.73000002    2.67000008
   17.03277779   72.10849762    2.75000000    2.69000006
   17.03583336   76.48899841    2.75000000    2.67000008
   17.03916550   75.82900238    2.76999998    2.67000008
   17.04249954   73.72679901    2.78999996    2.67000008
   17.04555511   76.30349731    2.78999996    2.67000008
   17.04777718   76.05149841    2.78999996    2.67000008
   17.04916573   72.62290192    2.80999994    2.67000008
   17.05249977   74.76300049    2.78999996    2.67000008
   17.05861092   74.76300049    2.75000000    2.67000008
   17.06277657   73.55419922    2.75000000    2.67000008
   17.06583214   75.22119904    2.75000000    2.67000008
   17.06916809   74.76760101    2.73000002    2.67000008
   17.07250023   72.04550171    2.73000002    2.67000008
   17.07555580   73.68049622    2.89000010    2.67000008
   17.07888985   77.07530212    1.30999994    2.78999996
   17.08111191   72.15830231    0.20999999    0.51999998
   17.08250046   72.76899719    0.15000001    0.40000001
   17.08583450   72.03990173    0.11000000    0.25999999
   17.08889008   76.69860077    0.09000000    0.07000000
   17.09222221   75.84889984    0.09000000    0.07000000
   17.09527779   73.12349701    0.09000000    0.07000000
   17.10138893   73.12349701    0.09000000    0.07000000
   17.10555649   75.24669647    0.09000000    0.07000000
   17.10888863   78.07620239    0.09000000    0.07000000
   17.11194420   75.28869629    0.09000000    0.07000000
   17.11444473   73.45439911    0.09000000    0.07000000
   17.11555672   77.01319885    0.09000000    0.07000000
   17.11888885   74.26709747    0.09000000    0.07000000
   17.12194443   74.34169769    0.09000000    0.07000000
   17.12527847   72.93669891    0.09000000    0.07000000
   17.12861061   73.53839874    0.09000000    0.07000000
   17.13166618   73.85459900    0.09000000    0.07000000
   17.13500023   74.25579834    0.09000000    0.07000000
   17.13805580   74.95379639    0.09000000    0.07000000
   17.14416695   74.95379639    0.09000000    0.07000000
   17.14833260   72.62870026    0.09000000    0.07000000
   17.15166664   72.31050110    0.09000000    0.07000000
   17.15472221   74.48739624    0.09000000    0.07000000
   17.15805435   75.67199707    0.09000000    0.07000000
   17.16138840   74.28070068    0.09000000    0.07000000
   17.16444397   74.71499634    0.09000000    0.07000000
   17.16777802   72.24269867    0.09000000    0.07000000
   17.17083359   72.63140106    0.09000000    0.07000000
   17.17416573   72.55639648    0.09000000    0.07000000
   17.17749977   72.95760345    0.09000000    0.07000000
   17.18055534   74.02649689    0.09000000    0.07000000
   17.18111038   72.60230255    0.09000000    0.07000000
   17.18694305   72.60230255    0.09000000    0.07000000
   17.19111061   71.28369904    0.09000000    0.07000000
   17.19444275   74.18379974    0.09000000    0.07000000
   17.19777679   72.93939972    0.09000000    0.07000000
   17.20083427   73.48439789    0.09000000    0.07000000
   17.20416832   71.94360352    0.09000000    0.07000000
   17.20750046   74.90820313    0.09000000    0.07000000
   17.21055603   75.26789856    0.09000000    0.07000000
   17.21389008   71.48860168    0.09000000    0.07000000
   17.21444511   74.64260101    0.09000000    0.07000000
   17.21750069   73.48269653    0.09000000    0.07000000
   17.22083473   75.06710052    0.09000000    0.07000000
   17.22389030   76.54470062    0.09000000    0.07000000
   17.23000145   76.54470062    0.09000000    0.07000000
   17.23416710   72.58119965    0.09000000    0.07000000
   17.23722267   74.14219666    0.09000000    0.07000000
   17.24055672   74.22979736    0.09000000    0.07000000
   17.24361229   73.90129852    0.09000000    0.07000000
   17.24694443   75.18579865    0.09000000    0.07000000
   17.24777794   73.96289825    0.09000000    0.07000000
   17.25055504   79.71820068    0.09000000    0.07000000
   17.25388908   72.72499847    0.09000000    0.07000000
   17.25694466   72.59709930    0.09000000    0.07000000
   17.26027870   75.59600067    0.09000000    0.07000000
   17.26361084   73.96869659    0.09000000    0.07000000
   17.26666641   76.07810211    0.09000000    0.07000000
   17.27277756   76.07810211    0.09000000    0.07000000
   17.27694511   81.61350250    0.09000000    0.07000000
   17.28000069   74.65160370    0.09000000    0.07000000
   17.28111076   79.50340271    0.09000000    0.07000000
   17.28361130   78.36270142    0.09000000    0.07000000
   17.28694344   76.48040009    0.09000000    0.07000000
   17.28999901   74.87969971    0.09000000    0.07000000
   17.29333305   74.05750275    0.09000000    0.07000000
   17.29666710   76.84559631    0.09000000    0.07000000
   17.29972076   77.30570221    0.09000000    0.07000000
   17.30305481   76.81410217    0.09000000    0.07000000
   17.30611038   76.36720276    0.09000000    0.07000000
   17.30944443   76.20899963    0.09000000    0.07000000
   17.31555557   76.20899963    0.09000000    0.07000000
   17.31972313   73.65270233    0.09000000    0.07000000
   17.32305717   72.76760101    0.09000000    0.07000000
   17.32611275   72.61540222    0.09000000    0.07000000
   17.32944489   73.70369720    0.09000000    0.07000000
   17.33277893   74.09729767    0.09000000    0.07000000
   17.33583450   76.03620148    0.09000000    0.07000000
   17.33916664   72.60929871    0.09000000    0.07000000
   17.34250069   73.20269775    0.09000000    0.07000000
   17.34555626   74.62000275    0.09000000    0.07000000
   17.34777832   73.57559967    0.09000000    0.07000000
   17.34916687   75.81369781    0.09000000    0.07000000
   17.35250092   74.08630371    0.09000000    0.07000000
   17.35833359   74.08630371    0.09000000    0.07000000
   17.36250114   71.35150146    0.09000000    0.07000000
   17.36583328   73.57929993    0.09000000    0.07000000
   17.36916733   73.92919922    0.09000000    0.07000000
   17.37222290   72.00980377    0.09000000    0.07000000
   17.37555504   73.17669678    0.09000000    0.07000000
   17.37888908   74.98940277    0.09000000    0.07000000
   17.38111115   76.75990295    0.09000000    0.07000000
   17.38249969   74.22560120    0.09000000    0.07000000
   17.38583374   75.16030121    0.09000000    0.07000000
   17.38888931   71.49810028    0.09000000    0.07000000
   17.39222145   74.08489990    0.09000000    0.07000000
   17.39555550   71.44539642    0.09000000    0.07000000
   17.40138817   71.44539642    0.09000000    0.07000000
   17.40555573   73.64389801    0.09000000    0.07000000
   17.40861130   75.43329620    0.09000000    0.07000000
   17.41194344   77.51770020    0.09000000    0.07000000
   17.41444397   74.76889801    0.09000000    0.07000000
   17.41555595   74.86519623    0.09000000    0.07000000
   17.41888809   72.19740295    0.09000000    0.07000000
   17.42194366   76.85430145    0.09000000    0.07000000
   17.42527771   73.77380371    0.09000000    0.07000000
   17.42860985   78.88159943    0.09000000    0.07000000
   17.43166542   73.45999908    0.09000000    0.07000000
   17.43499947   74.58470154    0.09000000    0.07000000
   17.43805504   72.95240021    0.09000000    0.07000000
   17.44416618   72.95240021    0.09000000    0.07000000
   17.44833183   73.17369843    0.09000000    0.07000000
   17.45166779   75.74870300    0.09000000    0.07000000
   17.45472336   74.51210022    0.09000000    0.07000000
   17.45805550   71.47760010    0.09000000    0.07000000
   17.46138954   74.22460175    0.09000000    0.07000000
   17.46444511   75.40419769    0.09000000    0.07000000
   17.46777916   72.65239716    0.09000000    0.07000000
   17.47083473   75.40339661    0.09000000    0.07000000
   17.47416687   75.64489746    0.09000000    0.07000000
   17.47750092   81.14309692    0.09000000    0.07000000
   17.48055649   76.52850342    0.09000000    0.07000000
   17.48111153   77.23989868    0.09000000    0.07000000
   17.48694420   77.23989868    0.09000000    0.07000000
   17.49111176   79.15830231    0.09000000    0.07000000
   17.49444389   78.98480225    0.09000000    0.07000000
   17.49749947   80.38700104    0.09000000    0.07000000
   17.50083351   74.48190308    0.09000000    0.07000000
   17.50388908   83.56849670    0.09000000    0.07000000
   17.50722313   77.87100220    0.09000000    0.07000000
   17.51055527   74.10209656    0.09000000    0.07000000
   17.51361084   79.24749756    0.09000000    0.07000000
   17.51444435   73.70469666    0.09000000    0.07000000
   17.51722145   74.50150299    0.09000000    0.07000000
   17.52055550   78.34230042    0.09000000    0.07000000
   17.52361107   74.17440033    0.09000000    0.07000000
   17.52972221   74.17440033    0.09000000    0.07000000
   17.53388786   74.88729858    0.09000000    0.07000000
   17.53722191   72.96070099    0.09000000    0.07000000
   17.54027748   74.66169739    0.09000000    0.07000000
   17.54361153   74.81390381    0.09000000    0.07000000
   17.54694366   76.14150238    0.09000000    0.07000000
   17.54777718   78.09719849    0.09000000    0.07000000
   17.55055428   73.33119965    0.09000000    0.07000000
   17.55388832   73.78289795    0.09000000    0.07000000
   17.55694389   71.83830261    0.09000000    0.07000000
   17.56027794   73.57129669    0.09000000    0.07000000
   17.56361008   73.00250244    0.09000000    0.07000000
   17.56666756   76.30400085    0.09000000    0.07000000
   17.57277870   76.30400085    0.09000000    0.07000000
   17.57666779   76.30280304    0.09000000    0.07000000
   17.58000183   76.90850067    0.09000000    0.07000000
   17.58111191   77.04329681    0.09000000    0.07000000
   17.58361244   78.02130127    0.09000000    0.07000000
   17.58694458   75.44670105    0.09000000    0.07000000
   17.59000015   76.31490326    0.09000000    0.07000000
   17.59333420   73.42849731    0.09000000    0.07000000
   17.59666824   75.99720001    0.09000000    0.07000000
   17.59972191   74.77960205    0.09000000    0.07000000
   17.60305595   75.73829651    0.09000000    0.07000000
   17.60639000   73.86799622    0.09000000    0.07000000
   17.60944557   76.75910187    0.09000000    0.07000000
   17.61555672   76.75910187    0.09000000    0.07000000
   17.61972237   72.14040375    0.09000000    0.07000000
   17.62277794   73.66690063    0.09000000    0.07000000
   17.62611198   72.93440247    0.09000000    0.07000000
   17.62944412   73.66880035    0.09000000    0.07000000
   17.63249969   77.48049927    0.09000000    0.07000000
   17.63583374   72.58550262    0.09000000    0.07000000
   17.63888931   75.46320343    0.09000000    0.07000000
   17.64222145   74.51709747    0.09000000    0.07000000
   17.64555550   70.85350037    0.09000000    0.07000000
   17.64805603   73.13449860    0.09000000    0.07000000
   17.64916611   72.66850281    0.09000000    0.07000000
   17.65250015   74.71299744    0.09000000    0.07000000
   17.65833282   74.71299744    0.09000000    0.07000000
   17.66250038   70.31279755    0.09000000    0.07000000
   17.66583252   75.09609985    0.09000000    0.07000000
   17.66888809   74.99079895    0.09000000    0.07000000
   17.67222214   77.43080139    0.09000000    0.07000000
   17.67527771   78.00270081    0.09000000    0.07000000
   17.67860985   72.65840149    0.09000000    0.07000000
   17.68138885   74.96679688    0.09000000    0.07000000
   17.68222237   74.75160217    0.09000000    0.07000000
   17.68555450   73.16120148    0.09000000    0.07000000
   17.68861008   73.02799988    0.09000000    0.07000000
   17.69194412   75.35990143    0.09000000    0.07000000
   17.69527626   73.94100189    0.09000000    0.07000000
   17.70111275   73.94100189    0.09000000    0.07000000
   17.70527840   76.10749817    0.09000000    0.07000000
   17.70861244   72.84110260    0.09000000    0.07000000
   17.71166801   73.27539825    0.09000000    0.07000000
   17.71472359   77.19499969    0.09000000    0.07000000
   17.71527863   72.62169647    0.09000000    0.07000000
   17.71861076   74.03250122    0.09000000    0.07000000
   17.72166634   74.12999725    0.09000000    0.07000000
   17.72500038   75.94879913    0.09000000    0.07000000
   17.72833443   75.14050293    0.09000000    0.07000000
   17.73139000   74.33129883    0.09000000    0.07000000
   17.73472214   75.96710205    0.09000000    0.07000000
   17.73777771   73.03119659    0.09000000    0.07000000
   17.74416733   73.03119659    0.09000000    0.07000000
   17.74833298   72.82599640    0.09000000    0.07000000
   17.75138855   73.34919739    0.09000000    0.07000000
   17.75472260   72.67120361    0.09000000    0.07000000
   17.75777817   76.15830231    0.09000000    0.07000000
   17.76111031   71.91940308    0.09000000    0.07000000
   17.76444435   72.15699768    0.09000000    0.07000000
   17.76749992   74.27709961    0.09000000    0.07000000
   17.77083397   75.62940216    0.09000000    0.07000000
   17.77416611   72.41400146    0.09000000    0.07000000
   17.77722168   75.02829742    0.09000000    0.07000000
   17.78055573   72.82060242    0.09000000    0.07000000
   17.78138924   72.05020142    0.09000000    0.07000000
   17.78694344   72.05020142    0.09000000    0.07000000
   17.79111099   72.31670380    0.09000000    0.07000000
   17.79416656   74.47409821    0.09000000    0.07000000
   17.79749870   76.26529694    0.09000000    0.07000000
   17.80083275   77.03970337    0.09000000    0.07000000
   17.80388832   75.45040131    0.09000000    0.07000000
   17.80722237   75.30780029    0.09000000    0.07000000
   17.81055450   73.05879974    0.09000000    0.07000000
   17.81361008   79.83209991    0.09000000    0.07000000
   17.81472206   75.18840027    0.09000000    0.07000000
   17.81722260   73.46140289    0.09000000    0.07000000
   17.82055664   76.07890320    0.09000000    0.07000000
   17.82361221   71.88639832    0.09000000    0.07000000
   17.82972336   71.88639832    0.09000000    0.07000000
   17.83388901   72.39830017    0.09000000    0.07000000
   17.83722305   74.24880219    0.09000000    0.07000000
   17.84027863   72.68150330    0.09000000    0.07000000
   17.84361267   77.42649841    0.09000000    0.07000000
   17.84666824   78.60099792    0.09000000    0.07000000
   17.84805679   73.35209656    0.09000000    0.07000000
   17.85027885   73.39689636    0.09000000    0.07000000
   17.85361099   73.47250366    0.09000000    0.07000000
   17.85694504   74.24990082    0.09000000    0.07000000
   17.86000061   73.40589905    0.09000000    0.07000000
   17.86333466   73.19380188    0.09000000    0.07000000
   17.86638832   73.85520172    0.09000000    0.07000000
   17.87249947   73.85520172    0.09000000    0.07000000
   17.87666702   72.92199707    0.09000000    0.07000000
   17.88000107   73.53289795    0.09000000    0.07000000
   17.88138962   71.95939636    0.09000000    0.07000000
   17.88361168   73.03099823    0.09000000    0.07000000
   17.88694382   71.94570160    0.09000000    0.07000000
   17.89027786   72.90760040    0.09000000    0.07000000
   17.89333344   72.61579895    0.09000000    0.07000000
   17.89666748   71.79199982    0.09000000    0.07000000
   17.89972115   73.86119843    0.09000000    0.07000000
   17.90305519   72.91169739    0.09000000    0.07000000
   17.90638924   72.47250366    0.09000000    0.07000000
   17.90944481   73.55629730    0.09000000    0.07000000
   17.91555595   73.55629730    0.09000000    0.07000000
   17.91944313   73.46630096    0.09000000    0.07000000
   17.92277718   77.21920013    0.09000000    0.07000000
   17.92611122   74.60089874    0.09000000    0.07000000
   17.92916679   75.11820221    0.09000000    0.07000000
   17.93249893   73.62390137    0.09000000    0.07000000
   17.93583298   79.06289673    0.09000000    0.07000000
   17.93888855   74.11990356    0.09000000    0.07000000
   17.94222069   72.09860229    0.09000000    0.07000000
   17.94527626   76.15149689    0.09000000    0.07000000
   17.94805527   70.11440277    0.09000000    0.07000000
