    HOUR (UT)   FLARE FACTOR    SKY TESTER    SUN TESTER
   11.20749950   -1.00000000   -1.00000000   -1.00000000
   11.22999954  102.33699799    4.44999981    2.40000010
   11.23333359   98.94129944    4.42999983    2.40000010
   11.23638916   92.95120239    4.42999983    2.40000010
   11.23972225   97.69650269    4.42999983    2.42000008
   11.24277782   98.18939972    4.44999981    2.40000010
   11.24611092   95.84690094    4.44999981    2.40000010
   11.25027752   95.84690094    4.44999981    2.40000010
   11.25472260   90.31809998    4.42999983    2.40000010
   11.25777817   90.56359863    4.40999985    2.40000010
   11.26111126   90.32420349    4.36999989    2.40000010
   11.26305580   96.35800171    4.34999990    2.42000008
   11.26472187   93.82319641    4.34999990    2.40000010
   11.26777744   93.95999908    4.32999992    2.42000008
   11.27111053   92.70700073    4.26999998    2.42000008
   11.27444458   94.45140076    4.23999977    2.44000006
   11.27750015   98.31670380    4.21999979    2.42000008
   11.28083324  100.55999756    4.21999979    2.42000008
   11.28388977   88.21320343    4.19999981    2.44000006
   11.28722286   94.80699921    4.15999985    2.42000008
   11.29305553   94.80699921    4.09999990    2.44000006
   11.29722309   88.98069763    4.05999994    2.44000006
   11.30055618  105.44499969    4.03999996    2.46000004
   11.30361176  100.40299988    4.01999998    2.46000004
   11.30694485  110.67800140    4.05999994    2.44000006
   11.31027794  100.77400208    4.05999994    2.46000004
   11.31333351  105.67299652    4.07999992    2.44000006
   11.31666660   92.15769958    4.09999990    2.46000004
   11.31972218  101.77200317    4.11999989    2.46000004
   11.32305527   93.74410248    4.09999990    2.44000006
   11.32638836   91.27670288    4.13999987    2.44000006
   11.32944393  101.88800049    4.13999987    2.44000006
   11.32999992   95.19909668    4.13999987    2.44000006
   11.33583260   95.19909668    4.07999992    2.46000004
   11.34000015   91.35949707    4.01999998    2.46000004
   11.34333324   91.41269684    3.97000003    2.46000004
   11.34666634   99.03659821    3.93000007    2.46000004
   11.34972191   93.22329712    3.86999989    2.46000004
   11.35305595   96.84839630    3.80999994    2.46000004
   11.35611153  100.63800049    3.80999994    2.46000004
   11.35944462   84.92079926    3.82999992    2.46000004
   11.36277771  108.85900116    3.86999989    2.46000004
   11.36333370   90.42549896    3.89000010    2.46000004
   11.36638927  100.73799896    3.97000003    2.44000006
   11.36972237   97.25679779    4.01999998    2.46000004
   11.37277794   93.86289978    4.03999996    2.46000004
   11.37888908   93.86289978    4.03999996    2.46000004
   11.38305569   95.07409668    4.00000000    2.46000004
   11.38611126   91.27619934    3.95000005    2.48000002
   11.38944435  104.37400055    3.82999992    2.48000002
   11.39277744   93.71299744    3.75000000    2.46000004
   11.39583302   92.88230133    3.66000009    2.48000002
   11.39666653   87.63739777    3.64000010    2.48000002
   11.39999962   93.36039734    3.57999992    2.48000002
   11.40333271   95.75279999    3.55999994    2.48000002
   11.40638828   97.40760040    3.53999996    2.50000000
   11.40972137   94.95020294    3.51999998    2.50000000
   11.41305542   89.53919983    3.53999996    2.50000000
   11.41611099   86.76239777    3.55999994    2.50000000
   11.42166710   86.76239777    3.61999989    2.48000002
   11.42583370   90.25980377    3.68000007    2.50000000
   11.42888927   87.49649811    3.72000003    2.48000002
   11.43000031   85.43740082    3.75000000    2.48000002
   11.43277836   91.16380310    3.80999994    2.50000000
   11.43611145   90.28649902    3.84999990    2.48000002
   11.43916702  104.67900085    3.89000010    2.48000002
   11.44250011   93.12220001    3.93000007    2.48000002
   11.44555569   96.92890167    3.95000005    2.46000004
   11.44888878   88.26470184    3.95000005    2.48000002
   11.45222187   90.57270050    3.97000003    2.48000002
   11.45527744   92.41169739    4.00000000    2.48000002
   11.45861053   95.63659668    4.05999994    2.48000002
   11.46444416   95.63659668    4.09999990    2.46000004
   11.46861076   89.33920288    4.09999990    2.48000002
   11.47194386   91.48690033    4.11999989    2.46000004
   11.47499943   84.72609711    4.11999989    2.48000002
   11.47833252   90.37419891    4.11999989    2.48000002
   11.48166656   88.30799866    4.11999989    2.48000002
   11.48472214   99.50810242    4.11999989    2.48000002
   11.48805618   89.15769958    4.09999990    2.48000002
   11.49111176   88.22630310    4.05999994    2.48000002
   11.49444485   95.84230042    3.99000001    2.48000002
   11.49666691   88.73429871    3.93000007    2.48000002
   11.49805546   90.86940002    3.91000009    2.50000000
   11.50138855  100.69499969    3.86999989    2.50000000
   11.50722218  100.69499969    3.78999996    2.51999998
   11.51138878   97.12779999    3.73000002    2.50000000
   11.51472187   85.86579895    3.72000003    2.50000000
   11.51805496   87.68070221    3.70000005    2.51999998
   11.52111053   95.34960175    3.68000007    2.51999998
   11.52444458   88.74349976    3.68000007    2.51999998
   11.52750015   89.14489746    3.68000007    2.50000000
   11.52999973   93.55850220    3.66000009    2.51999998
   11.53138828  102.55100250    3.64000010    2.51999998
   11.53472233   93.58899689    3.61999989    2.51999998
   11.53777790   93.11229706    3.59999990    2.51999998
   11.54111195   89.74759674    3.57999992    2.51999998
   11.54416752   94.81379700    3.55999994    2.51999998
   11.55027771   94.81379700    3.50000000    2.53999996
   11.55444431   93.18460083    3.51999998    2.53999996
   11.55749989   92.21440125    3.59999990    2.53999996
   11.56083393   94.73320007    3.66000009    2.51999998
   11.56333351   92.85230255    3.72000003    2.51999998
   11.56444454  102.45500183    3.73000002    2.51999998
   11.56777763   98.10720062    3.80999994    2.51999998
   11.57083321   86.66649628    3.82999992    2.50000000
   11.57416630   94.27700043    3.86999989    2.50000000
   11.57722187   92.11959839    3.82999992    2.50000000
   11.58055592   90.29550171    3.80999994    2.51999998
   11.58388901   90.29160309    3.80999994    2.50000000
   11.58694458   83.90309906    3.82999992    2.50000000
   11.59305477   83.90309906    3.80999994    2.51999998
   11.59722233   91.09110260    3.72000003    2.51999998
   11.60027790   96.16989899    3.64000010    2.53999996
   11.60361195   87.36810303    3.59999990    2.51999998
   11.60694504   96.26629639    3.57999992    2.51999998
   11.61000061   96.66860199    3.57999992    2.53999996
   11.61333370   92.68969727    3.59999990    2.55999994
   11.61666679   91.61759949    3.59999990    2.53999996
   11.61972237   90.23220062    3.68000007    2.53999996
   11.62305546   90.27079773    3.73000002    2.51999998
   11.62611103   87.29290009    3.78999996    2.51999998
   11.62944412   85.56150055    3.84999990    2.53999996
   11.63000011   88.51709747    3.86999989    2.51999998
   11.63583279   88.51709747    3.93000007    2.53999996
   11.64000034   89.56050110    3.97000003    2.51999998
   11.64333344   89.29689789    4.01999998    2.51999998
   11.64638901   86.98320007    4.03999996    2.51999998
   11.64972210   84.60310364    4.05999994    2.51999998
   11.65305519   93.33599854    4.09999990    2.51999998
   11.65611076   87.63140106    4.09999990    2.53999996
   11.65944386   83.92489624    4.13999987    2.51999998
   11.66277695   93.17639923    4.17999983    2.51999998
   11.66333294   86.32489777    4.17999983    2.51999998
   11.66638851   90.41780090    4.17999983    2.51999998
   11.66972256   88.86699677    4.11999989    2.51999998
   11.67277813   92.66809845    4.05999994    2.53999996
   11.67861176   92.66809845    4.01999998    2.53999996
   11.68277836   99.48639679    4.00000000    2.53999996
   11.68611145   92.93840027    4.00000000    2.53999996
   11.68944454   89.67810059    4.00000000    2.53999996
   11.69250011   91.02529907    3.97000003    2.53999996
   11.69583321   90.00630188    3.93000007    2.53999996
   11.69666672   94.08920288    3.91000009    2.55999994
   11.69944477   88.49749756    3.86999989    2.55999994
   11.70277786   87.07620239    3.82999992    2.53999996
   11.70583344   87.73549652    3.82999992    2.53999996
   11.70916653   92.50090027    3.82999992    2.53999996
   11.71249962   95.16400146    3.84999990    2.53999996
   11.71555519   93.36239624    3.86999989    2.55999994
   11.72166634   93.36239624    3.91000009    2.53999996
   11.72583294   88.85220337    3.89000010    2.53999996
   11.72888851   83.11679840    3.89000010    2.55999994
   11.73027706   89.50039673    3.86999989    2.55999994
   11.73249912   85.75199890    3.89000010    2.55999994
   11.73583317   83.57350159    3.89000010    2.53999996
   11.73888874   94.14679718    3.89000010    2.55999994
   11.74222279   88.82089996    3.91000009    2.53999996
   11.74555588   88.68299866    3.93000007    2.53999996
   11.74861145   85.94059753    3.91000009    2.53999996
   11.75194454   91.17489624    3.95000005    2.53999996
   11.75527763   93.05919647    3.97000003    2.53999996
   11.75833321   92.07800293    3.97000003    2.53999996
   11.76444435   92.07800293    3.95000005    2.53999996
   11.76861095   96.57430267    3.99000001    2.53999996
   11.77166653   87.70079803    4.00000000    2.55999994
   11.77499962  108.68000031    4.01999998    2.55999994
   11.77833271   85.92440033    4.01999998    2.53999996
   11.78138828   90.37969971    4.00000000    2.53999996
   11.78472233   92.64689636    3.99000001    2.53999996
   11.78805637   88.14189911    3.95000005    2.55999994
   11.79111195   98.31909943    3.89000010    2.55999994
   11.79444504   95.29540253    3.86999989    2.55999994
   11.79666710   96.29949951    3.84999990    2.55999994
   11.79805565   89.52690125    3.84999990    2.55999994
   11.80138874   87.26609802    3.80999994    2.55999994
   11.80722237   87.26609802    3.80999994    2.55999994
   11.81138897   95.70919800    3.78999996    2.55999994
   11.81472206   88.65820313    3.78999996    2.55999994
   11.81777763   96.21700287    3.76999998    2.55999994
   11.82111073   92.24420166    3.76999998    2.55999994
   11.82444477   96.73509979    3.76999998    2.55999994
   11.82750034   91.20819855    3.72000003    2.55999994
   11.82999992   94.66290283    3.68000007    2.57999992
   11.83111095   90.77919769    3.68000007    2.55999994
   11.83444405   88.30069733    3.64000010    2.57999992
   11.83749962   94.97339630    3.61999989    2.55999994
   11.84083271   93.06390381    3.59999990    2.57999992
   11.84416676   91.74939728    3.57999992    2.57999992
   11.85000038   91.74939728    3.53999996    2.57999992
   11.85416698   89.64720154    3.50000000    2.57999992
   11.85750008   89.45330048    3.48000002    2.57999992
   11.86083412   83.89920044    3.45000005    2.57999992
   11.86333370   89.90019989    3.41000009    2.57999992
   11.86444473   86.74199677    3.41000009    2.57999992
   11.86777782   80.64109802    3.41000009    2.57999992
   11.87083340   98.29889679    3.39000010    2.59999990
   11.87416649   89.78880310    3.36999989    2.57999992
   11.87750053   89.02269745    3.41000009    2.57999992
   11.88055611   88.27339935    3.43000007    2.57999992
   11.88388920   83.39369965    3.45000005    2.57999992
   11.88694477   79.82060242    3.46000004    2.57999992
   11.89305496   79.82060242    2.19000006    2.67000008
   11.89722252   79.88569641    0.40000001    0.25000000
   11.90027714   86.83229828    0.40000001    0.25000000
   11.90361118   78.76180267    0.40000001    0.25000000
   11.90666676   91.22989655    0.40000001    0.25000000
   11.90999985   81.61000061    0.40000001    0.25000000
   11.91333294   85.66979980    0.40000001    0.25000000
   11.91638851   82.56359863    0.40000001    0.25000000
   11.91972256   83.32180023    0.40000001    0.25000000
   11.92305565   81.22200012    0.40000001    0.25000000
   11.92611122   84.92769623    0.40000001    0.25000000
   11.92944431   81.22889709    0.40000001    0.25000000
   11.93027782   79.97889709    0.40000001    0.25000000
   11.93583298   79.97889709    0.40000001    0.25000000
   11.94000053   86.87969971    0.40000001    0.25000000
   11.94305515   81.08609772    0.40000001    0.25000000
   11.94638920   83.77359772    0.40000001    0.25000000
   11.94972229   78.64230347    0.40000001    0.25000000
   11.95361137   85.49590302    0.00000000    0.00000000
   11.95722198   81.85140228    0.00000000    0.00000000
   11.96111107   78.91040039    0.00000000    0.00000000
   11.96333313   89.82180023    0.00000000    0.00000000
   11.96527767   88.33879852    0.00000000    0.00000000
   11.96916580   80.88079834    0.00000000    0.00000000
   11.97305489   81.86229706    0.00000000    0.00000000
   11.97916603   81.86229706    0.00000000    0.00000000
   11.98388958   84.76329803    0.00000000    0.00000000
   11.98777771   78.49980164    0.00000000    0.00000000
   11.99166679   84.34449768    0.00000000    0.00000000
   11.99555588   87.05100250    0.00000000    0.00000000
   11.99666691   78.56199646    0.00000000    0.00000000
   11.99944496   89.69259644    0.40000001    0.25000000
   12.00277805   82.75610352    0.40000001    0.25000000
   12.00611115   85.87699890    0.40000001    0.25000000
   12.00916672   87.49900055    0.40000001    0.25000000
   12.01249981   76.46309662    0.40000001    0.25000000
   12.01583290   79.07720184    0.40000001    0.25000000
   12.02138901   79.07720184    0.40000001    0.25000000
   12.02555561   79.87550354    0.40000001    0.25000000
   12.02888870   80.48600006    0.40000001    0.25000000
   12.03027725   79.14340210    0.40000001    0.25000000
   12.03249931   87.21230316    0.40000001    0.25000000
   12.03583336   82.64489746    0.40000001    0.25000000
   12.03888893   81.98149872    0.40000001    0.25000000
   12.04222298   87.59339905    0.40000001    0.25000000
   12.04555607   86.07990265    0.40000001    0.25000000
   12.04861164   89.40789795    0.40000001    0.25000000
   12.05194473   84.06980133    0.40000001    0.25000000
   12.05527782   82.63400269    0.40000001    0.25000000
   12.05833340   78.87069702    0.40000001    0.25000000
   12.06444454   78.87069702    0.40000001    0.25000000
   12.06833363   81.83039856    0.40000001    0.25000000
   12.07166672   80.39160156    0.40000001    0.25000000
   12.07499981   81.57959747    0.40000001    0.25000000
   12.07805538   89.82530212    0.40000001    0.25000000
   12.08138847   88.70480347    0.40000001    0.25000000
   12.08472157   93.32620239    0.40000001    0.25000000
   12.08777714   92.17459869    0.40000001    0.25000000
   12.09111118   88.07240295    0.40000001    0.25000000
   12.09416676   92.24929810    0.40000001    0.25000000
   12.09694386   83.49669647    0.40000001    0.25000000
   12.09777737   81.57839966    0.40000001    0.25000000
   12.10111141   90.05419922    0.40000001    0.25000000
   12.10722256   90.05419922    0.40000001    0.25000000
   12.11138916   87.37729645    0.40000001    0.25000000
   12.11444473   85.29389954    0.40000001    0.25000000
   12.11777782   84.83280182    0.40000001    0.25000000
   12.12111092   84.04399872    0.40000001    0.25000000
   12.12416649   81.62049866    0.40000001    0.25000000
   12.12750053   78.33489990    0.40000001    0.25000000
   12.13027763   80.44339752    0.40000001    0.25000000
   12.13111115   78.87689972    0.40000001    0.25000000
   12.13444424   78.10399628    0.40000001    0.25000000
   12.13777733   80.53260040    0.40000001    0.25000000
   12.14083290   83.45339966    0.40000001    0.25000000
   12.14416695   83.97160339    0.40000001    0.25000000
   12.14999962   83.97160339    0.40000001    0.25000000
   12.15416622   86.77660370    0.40000001    0.25000000
   12.15749931   89.92669678    0.40000001    0.25000000
   12.16055489   86.42030334    0.40000001    0.25000000
   12.16361046   95.89289856    0.40000001    0.25000000
   12.16416645   90.83090210    0.40000001    0.25000000
   12.16750050   86.93699646    0.40000001    0.25000000
   12.17083359   83.67330170    0.40000001    0.25000000
   12.17388916   92.75700378    0.40000001    0.25000000
   12.17722225   81.22699738    0.40000001    0.25000000
   12.18027782   81.29730225    0.40000001    0.25000000
   12.18361092   82.41020203    0.40000001    0.25000000
   12.18694496   90.40689850    0.40000001    0.25000000
   12.19277763   90.40689850    0.40000001    0.25000000
   12.19694424   87.03119659    0.40000001    0.25000000
   12.20027733   95.81079865    0.40000001    0.25000000
   12.20333290   87.87550354    0.40000001    0.25000000
   12.20666695   86.27600098    0.40000001    0.25000000
   12.21000004   83.46549988    0.40000001    0.25000000
   12.21305561   81.48619843    0.40000001    0.25000000
   12.21638870   96.43879700    0.40000001    0.25000000
   12.21972179   83.61479950    0.40000001    0.25000000
   12.22277737   81.01889801    0.40000001    0.25000000
   12.22611046   84.71250153    0.40000001    0.25000000
   12.22916603   88.85140228    0.40000001    0.25000000
   12.23027706   82.92259979    0.40000001    0.25000000
   12.25083351   82.92259979    4.90999985    1.85000002
   12.25500011   84.43080139    4.90999985    2.73000002
   12.25805569   80.28350067    4.90999985    2.75000000
   12.26138878   86.84519958    4.90999985    2.73000002
   12.26361084   91.43620300    2.86999989    2.67000008
   12.26527786   82.74549866    2.84999990    2.67000008
   12.26833344   94.03620148    2.80999994    2.69000006
   12.27166653   93.70790100    2.78999996    2.69000006
   12.27472210   87.69519806    2.78999996    2.69000006
   12.27805519   92.81520081    2.78999996    2.69000006
   12.28138828   88.97979736    2.78999996    2.69000006
   12.28444481   93.33869934    2.76999998    2.69000006
   12.28777790   85.17919922    2.78999996    2.69000006
   12.29361153   85.17919922    2.73000002    2.67000008
   12.29777813   90.62870026    2.80999994    2.67000008
   12.30083370   86.23179626    2.86999989    2.66000009
   12.30416679   95.00140381    2.91000009    2.66000009
   12.30749989   84.94960022    2.93000007    2.66000009
   12.31055546   85.54270172    2.93000007    2.66000009
   12.31388950   91.64869690    2.96000004    2.67000008
   12.31722260   95.66049957    3.03999996    2.67000008
   12.32027817   97.70369720    3.05999994    2.67000008
   12.32361126   91.25370026    3.05999994    2.67000008
   12.32666683   91.38020325    3.07999992    2.67000008
   12.32999992   85.75759888    3.07999992    2.67000008
   12.33055592   86.16790009    3.07999992    2.67000008
   12.33638859   86.16790009    3.03999996    2.67000008
   12.34055519   93.40350342    3.05999994    2.66000009
   12.34388828  102.14499664    3.07999992    2.66000009
   12.34694386   84.39109802    3.07999992    2.67000008
   12.35027790   91.53610229    3.07999992    2.67000008
   12.35361195   88.26860046    3.05999994    2.67000008
   12.35666752   80.60070038    3.05999994    2.66000009
   12.36000061   82.40779877    3.09999990    2.69000006
   12.36305618   96.29830170    3.09999990    2.67000008
   12.36388969   94.70570374    3.09999990    2.67000008
   12.36694431  101.75599670    3.09999990    2.67000008
   12.36999989   96.69490051    4.90999985    2.75000000
   12.37333393   93.89769745    0.34000000    0.41999999
   12.37916660   93.89769745    0.25999999    0.15000001
   12.38333321   79.65979767    0.25999999    0.15000001
   12.38666630   81.94370270    0.25999999    0.15000001
   12.38972187   84.32510376    0.25999999    0.15000001
   12.39305496   79.86779785    0.25999999    0.15000001
   12.39638901   88.97429657    0.25999999    0.15000001
   12.39722252   92.91870117    0.25999999    0.15000001
   12.39999962   96.60189819    0.25999999    0.15000001
   12.40305519   96.39700317    0.25999999    0.15000001
   12.40638828   98.07849884    0.25999999    0.15000001
   12.40972137  105.98699951    0.25999999    0.15000001
   12.41277695   93.41490173    0.25999999    0.15000001
   12.41611099  102.36100006    0.25999999    0.15000001
   12.42222214  102.36100006    0.25999999    0.15000001
   12.42611122   92.60710144    0.25999999    0.15000001
   12.42944431   90.57240295    0.23000000    0.01000000
   12.43055630   91.97440338    0.23000000    0.01000000
   12.43305588   97.40940094    0.20999999    0.03000000
   12.43611145   95.80770111    0.20999999    0.03000000
   12.43944454   96.48709869    0.19000000    0.03000000
   12.44277763   95.70279694    0.19000000    0.03000000
   12.44583321   94.57800293    0.19000000    0.03000000
   12.44916630   94.49579620    0.20999999    0.03000000
   12.45222187   94.89990234    0.20999999    0.03000000
   12.45555496   99.29519653    0.20999999    0.03000000
   12.45888901   98.52780151    0.20999999    0.03000000
   12.46500015   98.52780151    0.20999999    0.03000000
   12.46916580   93.84559631    0.20999999    0.03000000
   12.47222137  100.93299866    0.20999999    0.03000000
   12.47555542   96.84559631    0.20999999    0.03000000
   12.47888851   96.98979950    0.20999999    0.03000000
   12.48194408   96.47290039    0.20999999    0.03000000
   12.48527813   96.12200165    0.19000000    0.03000000
   12.48833370   93.48030090    0.20999999    0.03000000
   12.49166679  101.61799622    0.20999999    0.03000000
   12.49499989  101.90799713    0.20999999    0.03000000
   12.49722290   94.12439728    0.19000000    0.03000000
   12.49861145  105.57900238    0.19000000    0.03000000
   12.50166702   98.87229919    0.19000000    0.03000000
   12.50777817   98.87229919    0.19000000    0.03000000
   12.51194477   92.17659760    0.19000000    0.03000000
   12.51527786   92.88480377    0.20999999    0.03000000
   12.51833344   98.95120239    0.19000000    0.03000000
   12.52166653   97.07240295    0.19000000    0.03000000
   12.52472210  104.97799683    0.20999999    0.03000000
   12.52805519  104.48300171    0.19000000    0.03000000
   12.53055573   91.05300140    0.19000000    0.03000000
   12.53166676   88.85659790    0.20999999    0.03000000
   12.53472233   93.32879639    0.23000000    0.28000000
   12.53805637  102.88700104    4.90999985    2.75000000
   12.54138947  100.69100189    4.90999985    2.73000002
   12.54444504  103.30000305    4.90999985    2.75000000
   12.55055618  103.30000305    4.90999985    2.75000000
   12.55472279  101.76699829    4.90999985    2.73000002
   12.55805588   96.86430359    4.90999985    2.73000002
   12.56111145   99.52230072    4.90999985    2.75000000
   12.56388950   92.27700043    4.90999985    2.73000002
   12.56500053   88.57450104    4.90999985    2.73000002
   12.56805515   85.42579651    4.78000021    2.71000004
   12.57138920   77.40170288    3.45000005    2.71000004
   12.57472229   87.00509644    3.00000000    2.71000004
   12.57777786   86.96089935    3.01999998    2.67000008
   12.58111095   90.95369720    3.00000000    2.69000006
   12.58444405   83.62239838    2.96000004    2.71000004
   12.58749962   91.48269653    2.93000007    2.71000004
   12.59361076   91.48269653    2.86999989    2.71000004
   12.59749985   91.49220276    2.89000010    2.71000004
   12.60083389   92.67549896    2.89000010    2.69000006
   12.60416698   93.97389984    2.82999992    2.71000004
   12.60722256   95.90679932    2.80999994    2.71000004
   12.61055565   88.60970306    2.80999994    2.71000004
   12.61388969   94.63700104    2.80999994    2.71000004
   12.61694431   90.59069824    2.84999990    2.71000004
   12.62027836   81.04920197    2.84999990    2.71000004
   12.62333393   81.03679657    2.82999992    2.71000004
   12.62666702   84.25700378    2.89000010    2.73000002
   12.63000011   99.07620239    2.98000002    2.71000004
   12.63055611   96.75630188    2.98000002    2.71000004
   12.63638878   96.75630188    2.98000002    2.71000004
   12.64055538   85.15049744    3.00000000    2.71000004
   12.64361095   87.81719971    3.01999998    2.71000004
   12.64694405   84.13020325    3.05999994    2.71000004
   12.65027714   86.29740143    3.05999994    2.71000004
   12.65333271   94.01779938    2.96000004    2.71000004
   12.65666676   85.97029877    2.93000007    2.71000004
   12.65972137   94.68900299    2.91000009    2.71000004
   12.66305542   89.49510193    2.86999989    2.73000002
   12.66388893   87.68879700    2.86999989    2.71000004
   12.66666698   80.00830078    2.86999989    2.69000006
   12.66972256   90.64050293    2.86999989    2.71000004
   12.67305565   93.14679718    2.89000010    2.71000004
   12.67916679   93.14679718    2.91000009    2.71000004
   12.68333340   82.98040009    2.91000009    2.71000004
   12.68666649   89.25160217    2.86999989    2.71000004
   12.68972206   85.65019989    2.84999990    2.71000004
   12.69305515   95.02420044    2.84999990    2.71000004
   12.69611073   90.58350372    2.82999992    2.71000004
   12.69722271   86.11930084    2.84999990    2.71000004
   12.69999981   83.49900055    2.84999990    2.71000004
   12.70305538   94.10780334    2.82999992    2.73000002
   12.70638847   90.90299988    2.82999992    2.71000004
   12.70972157   93.18540192    2.80999994    2.71000004
   12.71277714   90.91529846    2.78999996    2.73000002
   12.71611118   94.42980194    2.78999996    2.71000004
   12.72194386   94.42980194    2.75000000    2.71000004
   12.72611046   85.37920380    2.76999998    2.71000004
   12.72944355   84.95379639    2.76999998    2.73000002
   12.73055553   94.55149841    2.76999998    2.71000004
   12.73305511   93.66799927    2.76999998    2.73000002
   12.73611164   91.88420105    2.73000002    2.73000002
   12.73944473   86.62969971    2.69000006    2.75000000
   12.74277782   99.71839905    2.67000008    2.73000002
   12.74583340   89.94270325    2.67000008    2.73000002
   12.74916649   90.24440002    2.67000008    2.73000002
   12.75249958   91.22869873    2.66000009    2.73000002
   12.75555515   87.28359985    2.59999990    2.73000002
   12.75888920   87.04380035    2.61999989    2.71000004
   12.76500034   87.04380035    2.66000009    2.73000002
   12.76888847   88.34750366    2.61999989    2.75000000
   12.77222157   82.15139771    2.64000010    2.75000000
   12.77555561  100.42800140    2.67000008    2.73000002
   12.77861118   93.35829926    2.69000006    2.73000002
   12.78194427   96.53849792    2.69000006    2.73000002
   12.78527832   87.77749634    2.69000006    2.75000000
   12.78833389   85.22840118    2.71000004    2.73000002
   12.79166698   86.40419769    2.71000004    2.75000000
   12.79472256   88.33599854    2.69000006    2.75000000
   12.79722309  101.48300171    2.67000008    2.73000002
   12.79861164   94.32379913    2.67000008    2.75000000
   12.80166721   95.27200317    2.66000009    2.75000000
   12.80777836   95.27200317    2.69000006    2.73000002
   12.81194496   93.70709991    2.75000000    2.73000002
   12.81500053  102.80500031    2.78999996    2.73000002
   12.81833363   90.51860046    2.76999998    2.73000002
   12.82166672   98.82510376    2.75000000    2.73000002
   12.82472229   89.15699768    2.73000002    2.75000000
   12.82805538   87.58489990    2.67000008    2.75000000
   12.83055592   93.09130096    2.66000009    2.75000000
   12.83166695   87.66709900    2.67000008    2.73000002
   12.83527756   81.63020325    2.71000004    2.73000002
   12.83916664   97.79589844    2.71000004    2.73000002
   12.84222221   89.22619629    2.69000006    2.73000002
   12.84555531  101.12200165    2.66000009    2.75000000
   12.85055637  101.12200165    2.64000010    2.75000000
   12.85472298   95.53309631    2.69000006    2.75000000
   12.85805607   97.90509796    2.76999998    2.73000002
   12.86111164  100.32399750    2.86999989    2.73000002
   12.86388969   98.49620056    2.91000009    2.73000002
   12.86472225  102.36900330    2.91000009    2.75000000
   12.86805534  101.00299835    2.96000004    2.71000004
   12.87111092   99.66200256    2.98000002    2.73000002
   12.87444496  100.68299866    3.01999998    2.71000004
   12.87777805   92.50009918    3.00000000    2.73000002
   12.88083363   99.03730011    2.91000009    2.73000002
   12.88416672   93.01129913    2.84999990    2.75000000
   12.88722229   84.76399994    2.91000009    2.75000000
   12.89333344   84.76399994    2.91000009    2.73000002
   12.89750004   84.45709991    2.73000002    2.75000000
   12.90083313   84.85800171    2.66000009    2.75000000
   12.90388870   81.21810150    2.61999989    2.75000000
   12.90722179   82.23950195    2.73000002    2.71000004
   12.91055489   91.33860016    2.78999996    2.73000002
   12.91361046   90.48819733    2.80999994    2.73000002
   12.91694450   93.00800323    2.76999998    2.73000002
   12.92027855   83.86430359    2.84999990    2.73000002
   12.92333412   89.23359680    2.84999990    2.73000002
   12.92666721   94.61250305    2.76999998    2.73000002
   12.92972279   89.89170074    2.82999992    2.73000002
   12.93055630   91.01730347    2.86999989    2.75000000
   12.93611145   91.01730347    2.93000007    2.73000002
   12.94027805   86.48570251    2.91000009    2.75000000
   12.94361115   85.69329834    2.84999990    2.75000000
   12.94694424   86.85569763    2.91000009    2.71000004
   12.94999981   91.13200378    2.94000006    2.71000004
   12.95333290   95.67800140    2.98000002    2.73000002
   12.95666695   92.27799988    2.96000004    2.73000002
   12.95972157   86.96820068    2.86999989    2.75000000
   12.96305561   81.59960175    2.86999989    2.73000002
   12.96388912   86.77110291    2.89000010    2.75000000
   12.96666622   89.64409637    2.93000007    2.73000002
   12.96999931   85.87049866    2.89000010    2.75000000
   12.97305489   93.78070068    2.84999990    2.75000000
   12.97916603   93.78070068    2.91000009    2.75000000
   12.98333359   94.14050293    2.98000002    2.73000002
   12.98638916   95.40940094    3.01999998    2.73000002
   12.98972225   90.35959625    2.98000002    2.73000002
   12.99305534   88.51969910    2.91000009    2.75000000
   12.99611092   92.26309967    2.80999994    2.75000000
   12.99722290   87.47589874    2.76999998    2.75000000
   12.99972248   91.90080261    2.67000008    2.75000000
   13.00305557   81.46739960    2.66000009    2.75000000
   13.00611115   89.27429962    2.67000008    2.75000000
   13.00944424   87.18479919    2.69000006    2.75000000
   13.01249981   78.09380341    2.71000004    2.75000000
   13.01583290   88.64779663    2.73000002    2.76999998
   13.02194405   88.64779663    2.75000000    2.73000002
   13.02611065   93.29579926    2.76999998    2.75000000
   13.02944374   88.86840057    2.82999992    2.75000000
   13.03055573   90.01170349    2.82999992    2.75000000
   13.03305531   88.41480255    2.91000009    2.73000002
   13.03638935  101.43000031    2.91000009    2.73000002
   13.03944492   85.49269867    2.80999994    2.75000000
   13.04277802   81.72609711    2.76999998    2.76999998
   13.04583359   95.15139771    2.78999996    2.75000000
   13.04916668   88.96559906    2.82999992    2.75000000
   13.05249977   98.12480164    2.80999994    2.75000000
   13.05555534   89.79049683    2.80999994    2.73000002
   13.05888939   94.27549744    2.76999998    2.75000000
   13.06472206   94.27549744    2.76999998    2.75000000
   13.06888866   85.21800232    2.69000006    2.75000000
   13.07222176   89.91780090    2.67000008    2.76999998
   13.07527733   93.50700378    2.67000008    2.76999998
   13.07861137   95.34809875    2.59999990    2.76999998
   13.08194447   94.03189850    2.59999990    2.76999998
   13.08500004   92.84670258    2.59999990    2.76999998
   13.08833313   94.36669922    2.61999989    2.75000000
   13.09138870   94.87049866    2.64000010    2.75000000
   13.09472179   94.32369995    2.69000006    2.75000000
   13.09722233   96.26360321    2.69000006    2.75000000
   13.09833336   92.14890289    2.69000006    2.76999998
   13.10138893   95.72540283    2.67000008    2.75000000
   13.10750008   95.72540283    2.66000009    2.76999998
   13.11166668   84.75659943    2.64000010    2.75000000
   13.11500072   82.13030243    2.64000010    2.75000000
   13.11833382   93.72689819    2.61999989    2.75000000
   13.12138939   91.18879700    2.61999989    2.76999998
   13.12472248   90.63079834    2.61999989    2.75000000
   13.12777805   85.02269745    2.61999989    2.75000000
   13.13055611   95.40309906    2.64000010    2.75000000
   13.13166714   90.73650360    2.67000008    2.76999998
   13.13500023   98.15799713    2.69000006    2.75000000
   13.13805580   93.06050110    2.71000004    2.76999998
   13.14138889   95.44480133    2.71000004    2.75000000
   13.14472198   91.86990356    2.71000004    2.76999998
   13.15055561   91.86990356    2.66000009    2.75000000
   13.15472221   94.17710114    2.67000008    2.75000000
   13.15777779   92.45749664    2.67000008    2.75000000
   13.16111088   93.36920166    2.61999989    2.75000000
   13.16388893   95.94689941    2.55999994    2.76999998
   13.16472149   96.79149628    2.55999994    2.76999998
   13.16805553   98.00000000    2.50000000    2.76999998
   13.17111111  103.54299927    2.50000000    2.76999998
   13.17444515  101.18199921    2.51999998    2.76999998
   13.17777824   98.57700348    2.51999998    2.76999998
   13.18083382   97.70120239    2.53999996    2.75000000
   13.18416691  100.09700012    2.55999994    2.76999998
   13.18722248   91.58910370    2.53999996    2.76999998
   13.19333363   91.58910370    2.53999996    2.76999998
   13.19750023  100.92099762    2.55999994    2.78999996
   13.20055580   83.24780273    2.57999992    2.76999998
   13.20388889   93.50949860    2.51999998    2.76999998
   13.20722198   92.22850037    2.48000002    2.76999998
   13.21027756   90.25229645    2.48000002    2.76999998
   13.21361065   97.68340302    2.53999996    2.76999998
   13.21694374   98.50199890    2.55999994    2.76999998
   13.21999931   87.51709747    2.57999992    2.76999998
   13.22333336   86.29149628    2.55999994    2.76999998
   13.22638798   96.26909637    2.53999996    2.75000000
   13.22972202   89.67479706    2.55999994    2.76999998
   13.23055553   98.11160278    2.57999992    2.76999998
   13.23611164   98.11160278    2.67000008    2.76999998
   13.24027824   94.83789825    2.64000010    2.75000000
   13.24361134   93.07749939    2.57999992    2.76999998
   13.24666691   91.26850128    2.57999992    2.76999998
   13.26416683   88.48899841    2.78999996    2.76999998
   13.26666641   97.32039642    2.80999994    2.75000000
   13.26999950   95.23719788    2.78999996    2.75000000
   13.27305508   91.49890137    2.69000006    2.75000000
   13.27916622   91.49890137    2.67000008    2.76999998
   13.28333378   96.70249939    2.76999998    2.76999998
   13.28666687  109.59700012    2.82999992    2.76999998
   13.28972244  111.30799866    2.89000010    2.75000000
   13.29305553   95.54070282    2.94000006    2.75000000
   13.29611111   92.25019836    2.98000002    2.75000000
   13.29750061   87.35990143    3.00000000    2.75000000
   13.30000019  100.04199982    2.96000004    2.75000000
   13.30333328   97.73670197    2.96000004    2.75000000
   13.30638885   92.70989990    3.00000000    2.75000000
   13.30972195   90.76570129    3.03999996    2.75000000
   13.31277752   83.60910034    3.01999998    2.75000000
   13.31611156   95.82060242    3.01999998    2.75000000
   13.32194424   95.82060242    2.98000002    2.75000000
   13.32611084   95.22460175    2.96000004    2.75000000
   13.32944393   95.86479950    2.93000007    2.75000000
   13.33083344   91.83080292    2.93000007    2.75000000
   13.33305550   96.72350311    2.93000007    2.75000000
   13.33611107   85.61660004    2.93000007    2.75000000
   13.33944416   89.57569885    2.93000007    2.76999998
   13.34277725  100.49299622    2.91000009    2.75000000
   13.34583282   95.70459747    2.86999989    2.76999998
   13.34916592   96.16259766    2.80999994    2.76999998
   13.35222244   85.61509705    2.75000000    2.76999998
   13.35555553   87.38279724    2.67000008    2.76999998
   13.35888958   81.42430115    2.67000008    2.76999998
   13.36500072   81.42430115    2.75000000    2.78999996
   13.36888885   87.09089661    2.69000006    2.76999998
   13.37222195   82.18949890    2.69000006    2.76999998
   13.37555599   82.19120026    2.66000009    2.78999996
   13.37861156   95.02290344    2.66000009    2.76999998
   13.38194466   90.75550079    2.67000008    2.76999998
   13.38500023   84.38189697    2.69000006    2.76999998
   13.38833332   81.51249695    2.67000008    2.76999998
   13.39166641   92.49030304    2.66000009    2.76999998
   13.39472198   87.32679749    2.67000008    2.78999996
   13.39750004   85.95059967    2.73000002    2.78999996
   13.39861107   86.37310028    2.73000002    2.78999996
   13.40166664   89.73529816    2.69000006    2.78999996
   13.40777779   89.73529816    2.55999994    2.78999996
   13.41194439   96.52369690    2.46000004    2.76999998
   13.41499996   95.98999786    2.39000010    2.76999998
   13.41833401   92.81340027    2.28999996    2.78999996
   13.42138958   87.82730103    2.15000010    2.80999994
   13.42472267   84.97029877    2.05999994    2.80999994
   13.42805576   85.27230072    2.01999998    2.80999994
   13.43083382   87.67690277    2.01999998    2.80999994
   13.43166733   88.04109955    2.03999996    2.80999994
   13.43472195   89.67299652    2.05999994    2.80999994
   13.43805599   82.45220184    2.11999989    2.78999996
   13.44138908   90.89389801    2.15000010    2.78999996
   13.44444466   92.15760040    2.15000010    2.82999992
   13.45055580   92.15760040    1.94000006    2.80999994
   13.45472240   95.17720032    1.86000001    2.80999994
   13.45777798   90.28859711    1.83000004    2.80999994
   13.46111107   92.97090149    1.86000001    2.80999994
   13.46416664   85.68840027    1.88000000    2.80999994
   13.46472168   88.96469879    1.89999998    2.80999994
   13.46805477   92.81250000    1.94000006    2.82999992
   13.47111034   90.55670166    1.98000002    2.82999992
   13.47444439   90.68319702    1.98000002    2.80999994
   13.47777748   90.58540344    1.98000002    2.82999992
   13.48083305   86.50980377    1.96000004    2.80999994
   13.48416710   88.98249817    1.94000006    2.82999992
   13.48722267   88.41619873    1.94000006    2.80999994
   13.49333382   88.41619873    2.05999994    2.80999994
   13.49750042   98.39389801    2.09999990    2.80999994
   13.49805546  100.74500275    2.09999990    2.80999994
   13.50111103   91.17179871    2.09999990    2.82999992
   13.50444412   85.84049988    2.07999992    2.78999996
   13.50777817   86.42479706    2.09999990    2.80999994
   13.51083374   92.72429657    2.11999989    2.80999994
   13.51416683   85.00710297    2.13000011    2.80999994
   13.51749992   87.69170380    2.13000011    2.80999994
   13.52055550   96.21379852    2.15000010    2.80999994
   13.52388859   91.98130035    2.13000011    2.78999996
   13.52694416   87.74890137    2.09999990    2.80999994
   13.53027725   84.00839996    2.07999992    2.80999994
   13.53083324   92.98789978    2.05999994    2.82999992
   13.53638935   92.98789978    2.09999990    2.80999994
   13.54027843   90.73359680    2.17000008    2.78999996
   13.54361153   88.49199677    2.23000002    2.78999996
   13.54694462   90.53669739    2.25000000    2.78999996
   13.55000019   93.01090240    2.30999994    2.78999996
   13.55333328   95.22499847    2.34999990    2.78999996
   13.55666733   91.38079834    2.36999989    2.78999996
   13.55972195   90.08489990    2.39000010    2.78999996
   13.56305599   95.76249695    2.40000010    2.78999996
   13.56416702   94.55310059    2.40000010    2.78999996
   13.56666660   89.65489960    2.40000010    2.78999996
   13.56999969  100.32399750    2.44000006    2.76999998
   13.57305527   93.09179688    2.48000002    2.78999996
   13.57916641   93.09179688    2.40000010    2.78999996
   13.58333302   87.17729950    2.39000010    2.76999998
   13.58638859   95.30519867    2.36999989    2.78999996
   13.58972168   87.52850342    2.36999989    2.78999996
   13.59277725   88.97200012    2.40000010    2.78999996
   13.59611034   90.43370056    2.46000004    2.78999996
   13.59749985   96.54290009    2.48000002    2.78999996
   13.59972191  100.04900360    2.50000000    2.78999996
   13.60305595   95.83419800    2.53999996    2.76999998
   13.60611153   88.24800110    2.57999992    2.78999996
   13.60944462   83.06259918    2.57999992    2.78999996
   13.61250019   93.68879700    2.66000009    2.75000000
   13.61583328   92.18370056    2.75000000    2.75000000
   13.62194443   92.18370056    2.80999994    2.76999998
   13.62611103   89.22509766    2.73000002    2.78999996
   13.62916660   81.73770142    2.66000009    2.78999996
   13.63083363   94.08100128    2.66000009    2.78999996
   13.63305569   86.12650299    2.66000009    2.78999996
   13.63638878   90.11000061    2.61999989    2.78999996
   13.63944435   82.47740173    2.51999998    2.78999996
   13.64277744   88.22229767    2.48000002    2.78999996
   13.64583302   90.84339905    2.46000004    2.78999996
   13.64916611   84.67880249    2.46000004    2.78999996
   13.65249920   83.92659760    2.44000006    2.80999994
   13.65555477   94.45870209    2.44000006    2.78999996
   13.65888882   88.03659821    2.44000006    2.78999996
   13.66472149   88.03659821    2.42000008    2.78999996
   13.66888905   91.63870239    2.50000000    2.78999996
   13.67222214   92.66220093    2.51999998    2.78999996
   13.67527771   99.39929962    2.51999998    2.78999996
   13.67861176   90.42620087    2.48000002    2.78999996
   13.68194485   91.69429779    2.44000006    2.80999994
   13.68500042   99.42710114    2.39000010    2.78999996
   13.68833351   90.91190338    2.39000010    2.78999996
   13.69166660   91.57939911    2.36999989    2.78999996
   13.69472218   94.80480194    2.39000010    2.78999996
   13.69750023   93.46080017    2.39000010    2.78999996
   13.69833374  104.60199738    2.40000010    2.80999994
   13.70166683   96.02169800    2.39000010    2.80999994
   13.70749950   96.02169800    2.40000010    2.78999996
   13.71166611  100.67099762    2.46000004    2.78999996
   13.71500015  104.03900146    2.46000004    2.78999996
   13.71833324   88.24109650    2.46000004    2.78999996
   13.72138882  101.65599823    2.42000008    2.78999996
   13.72472191   90.94709778    2.36999989    2.78999996
   13.72777748   93.09899902    2.32999992    2.78999996
   13.73083305   95.58540344    2.25000000    2.80999994
   13.73166656   87.87129974    2.23000002    2.80999994
   13.73500061   82.60759735    2.21000004    2.80999994
   13.73805618   91.66790009    2.19000006    2.78999996
   13.74138927   87.48359680    2.17000008    2.80999994
   13.74444485   88.23739624    2.19000006    2.80999994
   13.75055599   88.23739624    2.15000010    2.80999994
   13.75472260   91.65460205    2.17000008    2.80999994
   13.75777817   87.42929840    2.19000006    2.80999994
   13.76111126   87.18379974    2.19000006    2.80999994
   13.76416683   85.19539642    2.17000008    2.80999994
   13.76472187   83.57890320    2.17000008    2.80999994
   13.76805496   98.22200012    2.07999992    2.80999994
   13.77111053   90.02259827    1.98000002    2.82999992
   13.77444458   90.26309967    1.91999996    2.82999992
   13.77750015   85.59600067    1.98000002    2.82999992
   13.78083324   96.34239960    2.00000000    2.80999994
   13.78416729   89.96260071    1.94000006    2.82999992
   13.78722286   91.25460052    1.91999996    2.82999992
   13.79333401   91.25460052    1.94000006    2.82999992
   13.79750061   85.57060242    2.00000000    2.82999992
   13.79805565   93.47019958    2.00000000    2.82999992
   13.80138874   94.78759766    2.01999998    2.82999992
   13.80444431   94.92500305    2.05999994    2.82999992
   13.80777836   91.86090088    2.11999989    2.80999994
   13.81083393   89.49859619    2.13000011    2.80999994
   13.81416702   92.10970306    2.11999989    2.80999994
   13.81750011   86.77549744    2.07999992    2.80999994
   13.82055569   95.45709991    2.05999994    2.80999994
   13.82388878   96.22209930    2.09999990    2.82999992
   13.82722187   86.84400177    2.15000010    2.80999994
   13.83027744   99.14060211    2.23000002    2.80999994
   13.83138847  105.36599731    2.25000000    2.80999994
   13.83611107  105.36599731    2.28999996    2.78999996
   13.84027767   93.68299866    2.25000000    2.80999994
   13.84361076   96.19290161    2.28999996    2.78999996
   13.84666634   98.06330109    2.26999998    2.78999996
   13.85000038   89.99600220    2.26999998    2.80999994
   13.85333347   90.43139648    2.23000002    2.80999994
   13.85638905  103.59400177    2.19000006    2.80999994
   13.85972214   94.88819885    2.07999992    2.80999994
   13.86277771   88.88069916    2.01999998    2.82999992
   13.86472225   92.96759796    2.00000000    2.82999992
   13.86638927   94.96130371    2.00000000    2.84999990
   13.86972237   91.92759705    1.98000002    2.82999992
   13.87305546   87.07810211    1.89999998    2.82999992
   13.87888908   87.07810211    1.91999996    2.82999992
   13.88305569   91.98069763    1.94000006    2.82999992
   13.88638878  104.23600006    1.94000006    2.82999992
   13.88972187   81.88200378    1.88000000    2.82999992
   13.89277744   82.66829681    1.80999994    2.82999992
   13.89611053   97.32340240    1.78999996    2.82999992
   13.89805508   95.72920227    1.78999996    2.82999992
   13.89972210   89.70639801    1.76999998    2.84999990
   13.90305519   96.52719879    1.76999998    2.84999990
   13.90638828   89.57859802    1.76999998    2.84999990
   13.90944386   91.04409790    1.76999998    2.82999992
   13.91277695   96.83670044    1.83000004    2.84999990
   13.91611099  108.85900116    2.05999994    2.82999992
   13.92194462  108.85900116    2.03999996    2.82999992
   13.92611122   86.37439728    2.07999992    2.82999992
   13.92916679   86.23590088    2.09999990    2.80999994
   13.93138885   82.90209961    2.11999989    2.82999992
   13.93277836   87.32969666    2.11999989    2.80999994
   13.93611145   82.10449982    2.11999989    2.82999992
   13.93944454   87.54019928    2.13000011    2.82999992
   13.94250011   90.25749969    2.15000010    2.82999992
   13.94583321   92.44349670    2.15000010    2.82999992
   13.94916630   86.55519867    2.15000010    2.82999992
   13.95222187   82.90280151    2.13000011    2.82999992
   13.95555496   84.73930359    2.13000011    2.80999994
   13.95861053   84.40290070    2.11999989    2.82999992
   13.96472168   84.40290070    2.03999996    2.80999994
   13.96888828  102.88500214    2.00000000    2.80999994
   13.97194386   94.12370300    1.91999996    2.82999992
   13.97527695  101.20200348    1.88000000    2.82999992
   13.97861099   95.22910309    1.86000001    2.84999990
   13.98166656  108.42900085    1.86000001    2.84999990
   13.98500061  101.10299683    1.61000001    2.84999990
   13.98833370  105.51999664    1.60000002    2.86999989
   13.99138927   99.85449982    1.60000002    2.84999990
   13.99472237   96.46219635    1.61000001    2.84999990
   13.99777794   91.83709717    1.60000002    2.84999990
   13.99861145   92.79769897    1.60000002    2.84999990
   14.00166702  110.69999695    1.61000001    2.84999990
   14.00777817  110.69999695    1.61000001    2.84999990
   14.01222229  108.44300079    1.63000000    2.84999990
   14.01527786  106.80500031    1.60000002    2.84999990
   14.01861095  112.75599670    1.51999998    2.86999989
   14.02166653   88.81430054    1.51999998    2.84999990
   14.02499962   97.17849731    1.51999998    2.86999989
   14.02833271   96.24169922    1.51999998    2.86999989
   14.03138828  102.85900116    1.46000004    2.86999989
   14.03194427   91.93039703    1.46000004    2.86999989
   14.03527832   90.60939789    1.48000002    2.84999990
   14.03861141   93.26840210    1.48000002    2.84999990
   14.04166698   96.63030243    1.48000002    2.84999990
   14.04500008   98.40519714    1.55999994    2.86999989
   14.05027771   98.40519714    1.60000002    2.84999990
   14.05444431   91.11920166    1.61000001    2.84999990
   14.05777836   91.03160095    1.61000001    2.86999989
   14.06111145   92.99440002    1.66999996    2.84999990
   14.06416702   89.25250244    1.71000004    2.84999990
   14.06527805   88.25930023    1.71000004    2.84999990
   14.06805515   92.80180359    1.85000002    2.82999992
   14.07138920   87.95570374    1.96000004    2.84999990
   14.07444477  110.04599762    1.98000002    2.82999992
   14.07777786  101.26799774    2.03999996    2.80999994
   14.08083344   91.11810303    2.05999994    2.82999992
   14.08416653   92.60140228    2.01999998    2.84999990
   14.08749962  101.80999756    2.00000000    2.84999990
   14.09333324  101.80999756    2.05999994    2.82999992
   14.09749985  101.19200134    2.09999990    2.82999992
   14.09861088  111.67400360    2.09999990    2.82999992
   14.10111141  114.40699768    2.07999992    2.82999992
   14.10416698  116.29900360    2.05999994    2.82999992
   14.10750008  106.93399811    2.07999992    2.82999992
   14.11083412  116.93199921    2.09999990    2.82999992
   14.11388969  111.25099945    2.13000011    2.82999992
   14.11722279  136.98300171    2.15000010    2.82999992
   14.12027836   96.48139954    2.19000006    2.80999994
   14.12361145   97.20220184    2.19000006    2.82999992
   14.12694454  114.57199860    2.19000006    2.82999992
   14.13000011  106.57299805    2.21000004    2.80999994
   14.13194466  107.27700043    2.21000004    2.82999992
   14.13611126  107.27700043    2.23000002    2.80999994
   14.14027786  100.37100220    2.26999998    2.80999994
   14.14361095   93.35040283    2.25000000    2.80999994
   14.14666653   97.02469635    2.28999996    2.82999992
   14.14999962  119.55200195    2.32999992    2.80999994
   14.15333271  125.10900116    2.39000010    2.82999992
   14.15638828  111.20400238    2.36999989    2.82999992
   14.15972137  121.06400299    2.36999989    2.82999992
   14.16277695  103.17400360    2.39000010    2.82999992
   14.16527748   97.18000031    2.40000010    2.82999992
   14.16666698  109.06600189    2.42000008    2.80999994
   14.17000008  107.25199890    2.42000008    2.82999992
   14.17305565  127.28900146    2.36999989    2.80999994
   14.17888927  127.28900146    2.26999998    2.80999994
   14.18305588  111.57399750    2.26999998    2.82999992
   14.18638897  109.64199829    2.19000006    2.82999992
   14.18944454  106.12500000    2.09999990    2.82999992
   14.19277763  111.94899750    1.98000002    2.84999990
   14.19611073  110.42199707    1.89999998    2.84999990
   14.19861126  110.10900116    1.88000000    2.84999990
   14.19972229  105.76699829    1.86000001    2.84999990
   14.20305538   99.65219879    1.89999998    2.84999990
   14.20611095  101.02700043    1.85000002    2.84999990
   14.20944405   97.89179993    1.80999994    2.84999990
   14.21249962  111.59400177    1.80999994    2.86999989
   14.21583271  108.03600311    1.80999994    2.86999989
   14.22194386  108.03600311    1.73000002    2.84999990
   14.22611046  101.26399994    1.69000006    2.84999990
   14.22916603  119.95400238    1.69000006    2.84999990
   14.23194408  114.53299713    1.66999996    2.84999990
   14.23277760  115.33399963    1.66999996    2.84999990
   14.23583317  117.24500275    1.80999994    2.84999990
   14.23916721   86.13710022    1.83000004    2.84999990
   14.24250031  102.58799744    1.76999998    2.84999990
   14.24555588  103.05999756    1.66999996    2.84999990
   14.24888897  103.32900238    1.69000006    2.84999990
   14.25222206  115.41300201    1.69000006    2.84999990
   14.25555515  100.99800110    1.66999996    2.86999989
   14.25861073   97.89689636    1.58000004    2.84999990
   14.26472187   97.89689636    1.60000002    2.86999989
   14.28305531   97.14409637    1.53999996    2.86999989
   14.28638935   92.47550201    1.60000002    2.86999989
   14.28944492  108.33100128    1.53999996    2.84999990
   14.29277802  108.43499756    1.50000000    2.86999989
   14.29611111  104.88600159    1.50000000    2.86999989
   14.29916668   89.63980103    1.41999996    2.86999989
   14.30249977   91.70549774    1.44000006    2.86999989
   14.30777836   91.70549774    1.46000004    2.86999989
   14.31194496   94.74849701    1.44000006    2.86999989
   14.31527805   98.88210297    1.44000006    2.86999989
   14.31611156   99.26170349    1.44000006    2.86999989
   14.31888866   97.69779968    1.50000000    2.84999990
   14.32222176  101.66100311    1.53999996    2.86999989
   14.32527733   97.30310059    1.53999996    2.86999989
   14.32861137  100.65499878    1.55999994    2.84999990
   14.33166695   95.07340240    1.55999994    2.86999989
   14.33500004   88.89369965    1.55999994    2.86999989
   14.33833313  116.23899841    1.53999996    2.86999989
   14.34138870  106.74800110    1.51999998    2.86999989
   14.34472179   93.41590118    1.44000006    2.86999989
   14.35055637   93.41590118    1.41999996    2.86999989
   14.35472298  102.72499847    1.41999996    2.86999989
   14.35805607   92.96469879    1.46000004    2.86999989
   14.36111164  109.52200317    1.64999998    2.84999990
   14.36444473  104.20200348    1.71000004    2.86999989
   14.36777782   95.49949646    1.76999998    2.84999990
   14.37083340   91.71420288    1.76999998    2.84999990
   14.37416649   91.66200256    2.07999992    2.86999989
   14.37722206   95.83999634    2.23000002    2.84999990
   14.38055611   90.03440094    2.44000006    2.84999990
   14.38277817   98.34420013    1.94000006    2.84999990
   14.38416672   91.35510254    1.88000000    2.84999990
   14.38722229   98.47399902    1.86000001    2.84999990
   14.39361095   98.47399902    1.91999996    2.84999990
   14.39777756   93.53450012    1.94000006    2.84999990
   14.40083313   94.15249634    2.01999998    2.84999990
   14.40416622  106.10299683    2.01999998    2.84999990
   14.40722179   91.72599792    2.11999989    2.82999992
   14.41055489   96.17310333    2.11999989    2.84999990
   14.41361046   89.39540100    2.03999996    2.84999990
   14.41611099   95.87629700    1.98000002    2.84999990
   14.41750050   92.78820038    1.98000002    2.84999990
   14.42055607   90.70300293    1.94000006    2.84999990
   14.42388916   88.86370087    1.91999996    2.86999989
   14.42722225   97.99050140    1.89999998    2.84999990
   14.43027782   98.51409912    1.88000000    2.84999990
   14.43638897   98.51409912    1.80999994    2.84999990
   14.44055557   98.49210358    1.71000004    2.86999989
   14.44361115   97.48870087    1.61000001    2.86999989
   14.44694424   92.65650177    1.55999994    2.86999989
   14.44944477  100.56800079    1.55999994    2.86999989
   14.45055580  100.54499817    1.55999994    2.86999989
   14.45361137   97.04930115    1.50000000    2.86999989
   14.45694447   97.40599823    1.50000000    2.86999989
   14.46027756   98.76020050    1.48000002    2.86999989
   14.46333313   93.90609741    1.53999996    2.86999989
   14.46666622   94.56670380    1.53999996    2.86999989
   14.46972179   98.89679718    1.53999996    2.86999989
   14.47305489   95.95890045    1.53999996    2.84999990
   14.47916603   95.95890045    1.55999994    2.89000010
   14.48333359   85.70780182    1.55999994    2.86999989
   14.48666668   97.65019989    1.53999996    2.86999989
   14.48972225   93.18280029    1.53999996    2.86999989
   14.49305534   93.11299896    1.55999994    2.86999989
   14.49611092   87.42359924    1.58000004    2.86999989
   14.49944496   86.39399719    1.63000000    2.84999990
   14.50277805   94.22899628    1.73000002    2.84999990
   14.50583363   91.70420074    1.73000002    2.84999990
   14.50916672   94.54570007    1.85000002    2.84999990
   14.51249981   96.80190277    1.85000002    2.84999990
   14.51583290  102.41000366    1.85000002    2.84999990
   14.51638889   94.65229797    1.85000002    2.84999990
   14.52194405   94.65229797    1.73000002    2.84999990
   14.52611065   90.79750061    1.73000002    2.84999990
   14.52944374  101.81099701    1.73000002    2.84999990
   14.53249931   95.63729858    1.61000001    2.86999989
   14.53583336   96.22019958    1.55999994    2.86999989
   14.53888893   97.60209656    1.53999996    2.86999989
   14.54222298   93.25270081    1.50000000    2.86999989
   14.54527855   90.80999756    1.48000002    2.89000010
   14.54861164   95.78369904    1.46000004    2.86999989
   14.54972267   90.44439697    1.46000004    2.86999989
   14.55222225   95.17050171    1.46000004    2.86999989
   14.55527782   92.81240082    1.44000006    2.86999989
   14.55861092   96.34220123    1.46000004    2.86999989
   14.56527805   96.34220123    1.41999996    2.86999989
   14.56944466   96.26540375    1.41999996    2.86999989
   14.57250023   97.61160278    1.41999996    2.86999989
   14.57583332  107.90000153    1.39999998    2.86999989
   14.57916641   93.10970306    1.39999998    2.86999989
   14.58222198  105.18900299    1.26999998    2.86999989
   14.58305550  102.10700226    1.26999998    2.89000010
   14.58611107  109.72699738    1.26999998    2.89000010
   14.58916664  106.36799622    1.26999998    2.89000010
   14.59249973  100.74600220    1.28999996    2.89000010
   14.59555531  100.28099823    1.28999996    2.86999989
   14.59888840  107.05200195    1.38000000    2.86999989
   14.60194492  103.87500000    1.39999998    2.86999989
   14.60805607  103.87500000    1.38000000    2.86999989
   14.61222267  100.87699890    1.41999996    2.86999989
   14.61555576   98.21769714    1.44000006    2.86999989
   14.61638927   87.48770142    1.44000006    2.86999989
   14.61916637  105.13999939    1.58000004    2.86999989
   14.62222195   94.40630341    1.58000004    2.84999990
   14.62555599   95.25720215    1.64999998    2.86999989
   14.62861156   89.35880280    1.69000006    2.84999990
   14.63194466   91.69770050    1.69000006    2.86999989
   14.63500023   88.11750031    1.71000004    2.84999990
   14.63833332   95.38849640    1.69000006    2.84999990
   14.64138889  103.69200134    1.69000006    2.84999990
   14.64472198   93.23930359    1.69000006    2.84999990
   14.65111065   93.23930359    1.61000001    2.86999989
   14.65499973  122.13200378    1.60000002    2.84999990
   14.65833282  108.55400085    1.61000001    2.84999990
   14.66166592  118.29000092    1.63000000    2.86999989
   14.66472149  118.45899963    1.64999998    2.86999989
   14.66805553  124.35900116    1.66999996    2.86999989
   14.67111111  111.01599884    1.66999996    2.84999990
   14.67444515  102.11299896    1.66999996    2.86999989
   14.67750072  106.87400055    1.66999996    2.86999989
   14.68083382   94.61299896    1.64999998    2.84999990
   14.68305588   97.61759949    1.66999996    2.84999990
   14.68444443  106.16999817    1.66999996    2.84999990
   14.68777752  108.22100067    1.64999998    2.84999990
   14.69388866  108.22100067    1.71000004    2.84999990
   14.69805527  102.03500366    1.75000000    2.84999990
   14.70111084  101.55599976    1.73000002    2.84999990
   14.70444393   87.00180054    1.73000002    2.86999989
   14.70749950   92.56079865    1.66999996    2.84999990
   14.71083355   89.83480072    1.66999996    2.84999990
   14.71416664   92.77100372    1.66999996    2.84999990
   14.71638870  102.39600372    1.66999996    2.84999990
   14.71777725   92.55370331    1.66999996    2.84999990
   14.72083282   89.24970245    1.66999996    2.84999990
   14.72416592   97.76249695    1.41999996    2.86999989
   14.72722149   92.98529816    1.36000001    2.86999989
   14.73055553   86.46160126    1.44000006    2.86999989
   14.73666668   86.46160126    1.53999996    2.86999989
   14.74083328   89.91249847    1.63000000    2.84999990
   14.74388885   83.85510254    1.71000004    2.84999990
   14.95583344   97.51689911    1.88000000    2.84999990
   14.95638847  114.40100098    1.88000000    2.84999990
   14.96055508  114.40100098    1.88000000    2.84999990
   14.96444416  106.52700043    1.91999996    2.84999990
   15.16861153   -1.00000000   -1.00000000   -1.00000000
   15.28416729   -1.00000000   -1.00000000   -1.00000000
   15.47888851   -1.00000000   -1.00000000   -1.00000000
   15.62333393  136.28900146    1.94000006    2.84999990
   15.62666702  152.07200623    2.01999998    2.84999990
   15.62972260  146.48199463    2.01999998    2.84999990
   15.63305569  133.34700012    2.17000008    2.84999990
   15.63638878  127.34799957    4.46999979    2.84999990
   15.63944435  146.22200012    4.90999985    2.84999990
   15.64361095  146.22200012    2.76999998    2.84999990
   15.64777756  136.85000610    2.40000010    2.84999990
   15.65083313  114.00599670    2.13000011    2.84999990
   15.65416622  120.57800293    2.07999992    2.82999992
   15.65666676  103.08799744    1.98000002    2.82999992
   15.65777779  123.44699860    1.94000006    2.84999990
   15.66083336  106.56199646    1.88000000    2.86999989
   15.66416645  110.18199921    1.85000002    2.86999989
   15.66722298  127.11900330    1.83000004    2.86999989
   15.67055607  110.10399628    1.75000000    2.86999989
   15.67361164  103.09600067    1.75000000    2.86999989
   15.67694473  106.80799866    1.66999996    2.86999989
   15.68000031  105.43699646    1.64999998    2.86999989
   15.68638897  105.43699646    1.64999998    2.89000010
   15.69055557  106.34300232    1.66999996    2.89000010
   15.69388866  108.69699860    1.64999998    2.86999989
   15.69694424   99.78520203    1.64999998    2.86999989
   15.70027733  106.56400299    1.73000002    2.86999989
   15.70333290   96.43509674    1.96000004    2.86999989
   15.70666695   96.90840149    1.96000004    2.86999989
   15.71000004  105.91699982    1.98000002    2.86999989
   15.71305561  107.47499847    2.05999994    2.86999989
   15.71638870  101.55500031    1.98000002    2.86999989
   15.71944427  104.98799896    1.88000000    2.86999989
   15.72277737  112.16300201    1.86000001    2.86999989
   15.72333336   94.73609924    1.86000001    2.86999989
   15.72916603   94.73609924    4.55999994    2.71000004
   15.73333359   95.67140198    4.90999985    2.59999990
   15.73666668   95.10759735    4.90999985    2.78999996
   15.73972225   90.77880096    4.90999985    2.76999998
   15.74305534  145.95500183    4.90999985    2.82999992
   15.74611092  118.25700378    4.90999985    1.85000002
   15.74944496  108.44799805    4.90999985    2.51999998
   15.75277805  118.76599884    4.90999985    2.57999992
   15.75583363  107.29499817    4.90999985    2.59999990
   15.75666714  120.01399994    4.90999985    2.44000006
   15.75944424  114.27400208    4.90999985    2.50000000
   15.76249981  136.28399658    4.90999985    2.34999990
   15.76583290  215.89300537    4.90999985    2.34999990
   15.77222157  215.89300537    4.90999985    2.40000010
   15.77611065   -1.00000000    4.90999985    1.86000001
   15.77944374   -1.00000000    4.90999985    1.44000006
   15.78277779   -1.00000000    4.90999985    1.50000000
   15.78583336   -1.00000000    4.90999985    1.03999996
   15.78916740   -1.00000000    4.90999985    1.05999994
   15.79250050   -1.00000000    4.90999985    1.86000001
   15.79583359   -1.00000000    4.90999985    1.19000006
   15.79888916   -1.00000000    4.90999985    1.13000000
   15.80222225   -1.00000000    4.90999985    0.86000001
   15.80527782   -1.00000000    4.90999985    0.95999998
   15.80861092   -1.00000000    4.90999985    1.05999994
   18.08611107  107.91600037    0.13000000    0.28000000
   18.08944511  104.80799866    0.13000000    0.28000000
   18.09277916  106.16200256    0.13000000    0.28000000
   18.09583473  106.07900238    0.13000000    0.28000000
   18.09916687  104.16799927    0.13000000    0.28000000
   18.10222244  101.72299957    0.13000000    0.28000000
   18.10639000  101.72299957    0.13000000    0.28000000
   18.11055565  103.89199829    0.13000000    0.28000000
   18.11388969  114.04299927    0.13000000    0.28000000
   18.11694527  105.37000275    0.13000000    0.28000000
   18.11944389   98.31340027    0.13000000    0.28000000
   18.12055588  119.98200226    0.13000000    0.28000000
   18.12388992  105.69100189    0.13000000    0.28000000
   18.12694550  106.74400330    0.13000000    0.28000000
   18.13027763  121.37799835    0.13000000    0.28000000
   18.13333321   97.86859894    0.13000000    0.28000000
   18.13666725  104.86799622    0.13000000    0.28000000
   18.13972282   99.16349792    0.13000000    0.28000000
   18.14305496  105.77400208    0.13000000    0.28000000
   18.14944458  105.77400208    0.13000000    0.28000000
   18.15333366  108.97299957    0.13000000    0.28000000
   18.15666580   98.99749756    0.13000000    0.28000000
   18.15999985  103.22699738    0.13000000    0.28000000
   18.16305542  119.13099670    0.13000000    0.28000000
   18.16638756  122.68399811    0.13000000    0.28000000
   18.16944313  122.83899689    0.13000000    0.28000000
   18.17277718  113.69799805    0.13000000    0.28000000
   18.17583275   97.19129944    0.13000000    0.28000000
   18.17916679  108.80699921    0.13000000    0.28000000
   18.18222237  103.09200287    0.13000000    0.28000000
   18.18555450  109.30599976    0.13000000    0.28000000
   18.18638802  106.71600342    0.13000000    0.28000000
   18.19222069  106.71600342    0.13000000    0.28000000
   18.19638824   97.55770111    0.13000000    0.28000000
   18.19944382  100.48500061    0.13000000    0.28000000
   18.20277786  105.46800232    0.13000000    0.28000000
   18.20583344  116.85900116    0.13000000    0.28000000
   18.20916748   96.44170380    0.13000000    0.28000000
   18.21222305  100.24199677    0.13000000    0.28000000
   18.21555710  109.00499725    0.13000000    0.28000000
   18.21888924  116.34200287    0.13000000    0.28000000
   18.21972275  115.12200165    0.13000000    0.28000000
   18.22222328  118.89399719    0.13000000    0.28000000
   18.22555542  120.90100098    0.13000000    0.28000000
   18.22861099  107.49600220    0.13000000    0.28000000
   18.23500061  107.49600220    0.13000000    0.28000000
   18.23916626  104.68699646    0.13000000    0.28000000
   18.24250031  116.94200134    0.13000000    0.28000000
   18.24555588  112.85299683    0.13000000    0.28000000
   18.24888992  118.03700256    0.13000000    0.28000000
   18.25194359  119.19100189    0.13000000    0.28000000
   18.25305557  103.89900208    0.13000000    0.28000000
   18.25555611  112.33599854    0.13000000    0.28000000
   18.25888824  115.20700073    0.13000000    0.28000000
   18.26194382  112.40899658    0.13000000    0.28000000
   18.26527786  103.93900299    0.13000000    0.28000000
   18.26833344  108.64700317    0.13000000    0.28000000
   18.27166557  114.37400055    0.13000000    0.28000000
   18.27777672  114.37400055    0.13000000    0.28000000
   18.28194427  113.78399658    0.13000000    0.28000000
   18.28527641  117.57099915    0.13000000    0.28000000
   18.28638840  116.67700195    0.13000000    0.28000000
   18.28861046  121.23799896    0.13000000    0.28000000
   18.29194450  112.81300354    0.13000000    0.28000000
   18.29500008  110.45999908    0.13000000    0.28000000
   18.29833221  115.03700256    0.13000000    0.28000000
   18.30166626  116.02600098    0.13000000    0.28000000
   18.30472183  113.17800140    0.13000000    0.28000000
   18.30805397  111.42500305    0.13000000    0.28000000
   18.31110954  119.08100128    0.13000000    0.28000000
   18.31444359  107.99700165    0.13000000    0.28000000
   18.32083511  107.99700165    0.13000000    0.28000000
   18.32472229  114.36599731    0.13000000    0.28000000
   18.32805634  101.68299866    0.13000000    0.28000000
   18.33139038  101.99099731    0.13000000    0.28000000
   18.33444595  122.66500092    0.13000000    0.28000000
   18.33777809  115.96700287    0.13000000    0.28000000
   18.34083366  110.29199982    0.13000000    0.28000000
   18.34416771  110.26699829    0.13000000    0.28000000
   18.34722328  111.90699768    0.13000000    0.28000000
   18.35055542  105.33200073    0.13000000    0.28000000
   18.35305595  105.11299896    0.13000000    0.28000000
   18.35416794   98.26820374    0.13000000    0.28000000
   18.35750008   96.16950226    0.13000000    0.28000000
   18.36361122   96.16950226    0.13000000    0.28000000
   18.36777878  107.51699829    0.13000000    0.28000000
   18.37083435  108.31500244    0.13000000    0.28000000
   18.37416649  108.55400085    0.13000000    0.28000000
   18.37722206  105.80300140    0.13000000    0.28000000
   18.38055611  112.46800232    0.13000000    0.28000000
   18.38388824  114.59500122    0.13000000    0.28000000
   18.38638878  115.44000244    0.13000000    0.28000000
   18.38722229  122.32800293    0.13000000    0.28000000
   18.39055634  108.51799774    0.13000000    0.28000000
   18.39361191  109.40799713    0.13000000    0.28000000
   18.39694405  131.04100037    0.13000000    0.28000000
   18.40027809  124.10600281    0.13000000    0.28000000
   18.40638924  124.10600281    0.13000000    0.28000000
   18.41055489  117.35700226    0.13000000    0.28000000
   18.41361046  122.08799744    0.13000000    0.28000000
   18.41694450  124.55100250    0.13000000    0.28000000
   18.41972160  127.05000305    0.13000000    0.28000000
   18.42055511  122.95999908    0.13000000    0.28000000
   18.42388916  118.98600006    0.13000000    0.28000000
   18.42694473  121.07499695    0.13000000    0.28000000
   18.43027687  125.64299774    0.13000000    0.28000000
   18.43361092  122.58999634    0.13000000    0.28000000
   18.43666649  134.06399536    0.13000000    0.28000000
   18.43999863  116.91400146    0.13000000    0.28000000
   18.44305420  134.87300110    0.13000000    0.28000000
   18.44916534  134.87300110    0.13000000    0.28000000
   18.45333481  164.74499512    0.13000000    0.28000000
   18.45666695  121.38300323    0.13000000    0.28000000
   18.45972252  143.68800354    0.13000000    0.28000000
   18.46305656  134.42100525    0.13000000    0.28000000
   18.46611214  128.17399597    0.13000000    0.28000000
   18.46944427  126.90000153    0.13000000    0.28000000
   18.47277832  125.79499817    0.13000000    0.28000000
   18.47583389  126.00199890    0.13000000    0.28000000
   18.47916794  125.94100189    0.13000000    0.28000000
   18.48222351  134.31300354    0.13000000    0.28000000
   18.48555565  129.18299866    0.13000000    0.28000000
   18.48638916  143.09500122    0.13000000    0.28000000
   18.49222183  143.09500122    0.13000000    0.28000000
   18.49611092  134.95700073    0.13000000    0.28000000
   18.49944496  127.33699799    0.13000000    0.28000000
   18.50250053  146.90699768    0.13000000    0.28000000
   18.50583267  129.10400391    0.13000000    0.28000000
   18.50916672  126.85500336    0.13000000    0.28000000
   18.51222229  129.39599609    0.13000000    0.28000000
   18.51555634  129.26199341    0.13000000    0.28000000
   18.51861000  128.54499817    0.13000000    0.28000000
   18.51972198  121.91300201    0.13000000    0.28000000
   18.52222252  128.72300720    0.13000000    0.28000000
   18.52555466  139.77499390    0.13000000    0.28000000
   18.52861023  135.84500122    0.13000000    0.28000000
   18.53499985  135.84500122    0.13000000    0.28000000
   18.53916550  126.54299927    0.13000000    0.28000000
   18.54222107  132.94799805    0.13000000    0.28000000
   18.54555511  122.38999939    0.13000000    0.28000000
   18.54861069  121.71700287    0.13000000    0.28000000
   18.55194283  129.51499939    0.13000000    0.28000000
   18.55305481  115.08799744    0.13000000    0.28000000
   18.55555534  106.84700012    0.13000000    0.28000000
   18.55888748  133.82200623    0.13000000    0.28000000
   18.56194305  116.84899902    0.13000000    0.28000000
   18.56527710  123.53800201    0.13000000    0.28000000
   18.56861115  133.37899780    0.13000000    0.28000000
   18.57166672  120.97599792    0.13000000    0.28000000
   18.57777786  120.97599792    0.13000000    0.28000000
   18.58194542  132.41299438    0.13000000    0.28000000
   18.58500099  121.79199982    0.13000000    0.28000000
   18.58638954  114.91000366    0.13000000    0.28000000
   18.58861160  131.65600586    0.13000000    0.28000000
   18.59194565  103.37699890    0.13000000    0.28000000
   18.59527779   99.13870239    0.13000000    0.28000000
   18.59833336  102.39900208    0.13000000    0.28000000
   18.60166740  103.05100250    0.13000000    0.28000000
   18.60472298  111.39199829    0.13000000    0.28000000
   18.60805511   98.25309753    0.13000000    0.28000000
   18.61111069   96.94490051    0.13000000    0.28000000
   18.61444473  108.30000305    0.13000000    0.28000000
   18.62055588  108.30000305    0.13000000    0.28000000
   18.62472153  107.72899628    0.13000000    0.28000000
   18.62805557  111.12899780    0.13000000    0.28000000
   18.63111115  120.11199951    0.13000000    0.28000000
   18.63444519  112.89600372    0.13000000    0.28000000
   18.63750076  115.93800354    0.13000000    0.28000000
   18.64083290  111.86499786    0.13000000    0.28000000
   18.64416695  101.60800171    0.13000000    0.28000000
   18.64722252  111.06900024    0.13000000    0.28000000
   18.65055466  103.06900024    0.13000000    0.28000000
   18.65305519  100.07099915    0.13000000    0.28000000
   18.65388870  105.05500031    0.13000000    0.28000000
   18.65722275  104.66400146    0.13000000    0.28000000
   18.66361046  104.66400146    0.13000000    0.28000000
   18.66749954  103.97499847    0.13000000    0.28000000
   18.67083359  112.56999969    0.13000000    0.28000000
   18.67388916  110.36399841    0.13000000    0.28000000
   18.67722130  110.10099792    0.13000000    0.28000000
   18.68055534  100.41600037    0.13000000    0.28000000
   18.68361092  105.59200287    0.13000000    0.28000000
   18.68638802  105.70099640    0.13000000    0.28000000
   18.68722153  116.34700012    0.13000000    0.28000000
   18.69055557  109.10700226    0.13000000    0.28000000
   18.69388771  108.74099731    0.13000000    0.28000000
   18.69694328  115.89700317    0.13000000    0.28000000
   18.70027924  104.91699982    0.13000000    0.28000000
   18.70639038  104.91699982    0.13000000    0.28000000
   18.71055603  112.13700104    0.13000000    0.28000000
   18.71361160  101.14700317    0.13000000    0.28000000
   18.71694565  113.52600098    0.13000000    0.28000000
   18.71972275  120.76000214    0.13000000    0.28000000
   18.72027779  111.44200134    0.13000000    0.28000000
   18.72361183  106.49800110    0.13000000    0.28000000
   18.72694588  111.61100006    0.13000000    0.28000000
   18.73000145  123.03199768    0.13000000    0.28000000
   18.73333359  121.45700073    0.13000000    0.28000000
   18.73638916  114.97699738    0.13000000    0.28000000
   18.73972321  116.53299713    0.13000000    0.28000000
   18.74277878  110.39299774    0.13000000    0.28000000
   18.74916649  110.39299774    0.13000000    0.28000000
   18.75333405  115.97699738    0.13000000    0.28000000
   18.75638962  128.44599915    0.13000000    0.28000000
   18.75972176  122.73899841    0.13000000    0.28000000
   18.76305580  112.59899902    0.13000000    0.28000000
   18.76611137  119.23200226    0.13000000    0.28000000
   18.76944351  119.32399750    0.13000000    0.28000000
   18.77249908  107.62200165    0.13000000    0.28000000
   18.77583313  105.75299835    0.13000000    0.28000000
   18.77888870   88.30069733    0.13000000    0.28000000
   18.78222275  115.67099762    0.13000000    0.28000000
   18.78527641  100.31400299    0.13000000    0.28000000
   18.78638840  100.11499786    0.13000000    0.28000000
   18.79194450  100.11499786    0.13000000    0.28000000
   18.79611015   98.44080353    0.13000000    0.28000000
   18.79944420  106.63200378    0.13000000    0.28000000
   18.80249977  109.35900116    0.13000000    0.28000000
   18.80583191  113.85399628    0.13000000    0.28000000
   18.80888748  108.32499695    0.13000000    0.28000000
   18.81222153  104.62899780    0.13000000    0.28000000
   18.81527710  115.03299713    0.13000000    0.28000000
   18.81861115  113.33200073    0.13000000    0.28000000
   18.81972313  110.03600311    0.13000000    0.28000000
   18.82194519  108.47899628    0.13000000    0.28000000
   18.82527924  117.81300354    0.13000000    0.28000000
   18.82861137  117.37200165    0.13000000    0.28000000
   18.83500099  117.37200165    0.13000000    0.28000000
   18.83889008  110.44599915    0.13000000    0.28000000
   18.84222221  110.60099792    0.13000000    0.28000000
   18.84555626  112.12699890    0.13000000    0.28000000
   18.84861183  110.16999817    0.13000000    0.28000000
   18.85194397  111.69999695    0.13000000    0.28000000
   18.85305595  110.03500366    0.13000000    0.28000000
   18.85527802  112.70500183    0.13000000    0.28000000
   18.85861206   98.55480194    0.13000000    0.28000000
   18.86194420  102.31999969    0.13000000    0.28000000
   18.86499977  102.72200012    0.13000000    0.28000000
   18.86833382  108.25299835    0.13000000    0.28000000
   18.87138939  103.44200134    0.13000000    0.28000000
   18.87777710  103.44200134    0.13000000    0.28000000
   18.88194466  105.92099762    0.13000000    0.28000000
   18.88500023  108.39499664    0.13000000    0.28000000
   18.88638878  100.30500031    0.13000000    0.28000000
   18.88888931  107.55400085    0.13000000    0.28000000
   18.89194489  102.46900177    0.13000000    0.28000000
   18.89527702  100.01499939    0.13000000    0.28000000
   18.89833260  105.09899902    0.13000000    0.28000000
   18.90166664  104.72499847    0.13000000    0.28000000
   18.90472221  100.68499756    0.13000000    0.28000000
   18.90805435   98.09770203    0.13000000    0.28000000
   18.91110992   96.90139771    0.13000000    0.28000000
   18.91444397   88.84839630    0.13000000    0.28000000
   18.92055511   88.84839630    0.13000000    0.28000000
   18.92472076  101.64299774    0.13000000    0.28000000
   18.92777634  103.42900085    0.13000000    0.28000000
   18.93111038   84.12419891    0.13000000    0.28000000
   18.93444443   94.17659760    0.13000000    0.28000000
   18.93750000   96.23210144    0.13000000    0.28000000
   18.94083214   96.95480347    0.13000000    0.28000000
   18.94388771   89.92960358    0.13000000    0.28000000
   18.94722176   92.60579681    0.13000000    0.28000000
   18.95027924   96.83470154    0.13000000    0.28000000
   18.95305634  101.98600006    0.13000000    0.28000000
   18.95416832  103.87999725    0.13000000    0.28000000
   18.95722389   86.17099762    0.13000000    0.28000000
   18.96333504   86.17099762    0.13000000    0.28000000
   18.96750069  103.08899689    0.13000000    0.28000000
   18.97083473  100.64499664    0.13000000    0.28000000
   18.97389030  106.24299622    0.13000000    0.28000000
   18.97722244  108.30999756    0.13000000    0.28000000
   18.98027802  105.42500305    0.13000000    0.28000000
   18.98361206   99.34889984    0.13000000    0.28000000
   18.98638916   97.10669708    0.13000000    0.28000000
   18.98722267   98.64399719    0.13000000    0.28000000
   18.99027824  100.61399841    0.13000000    0.28000000
   18.99361229  103.10099792    0.13000000    0.28000000
   18.99666786   94.36630249    0.13000000    0.28000000
   19.00000000  102.55000305    0.13000000    0.28000000
   19.00638962  102.55000305    0.13000000    0.28000000
   19.01027870   97.59629822    0.13000000    0.28000000
   19.01361084   93.58640289    0.13000000    0.28000000
   19.01666641   96.20950317    0.13000000    0.28000000
   19.01972198   91.49469757    0.13000000    0.28000000
   19.02055550   95.04219818    0.13000000    0.28000000
   19.02361107  105.86699677    0.13000000    0.28000000
   19.02694511  102.70800018    0.13000000    0.28000000
   19.03000069  103.16799927    0.13000000    0.28000000
   19.03333282  105.68299866    0.13000000    0.28000000
   19.03638840  106.30599976    0.13000000    0.28000000
   19.03972244   96.77610016    0.13000000    0.28000000
   19.04277802   90.56320190    0.13000000    0.28000000
   19.04916573   90.56320190    0.13000000    0.28000000
   19.05333328   86.10019684    0.13000000    0.28000000
   19.05638885   98.73919678    0.13000000    0.28000000
   19.05972099  102.06800079    0.13000000    0.28000000
   19.06277657  107.57599640    0.13000000    0.28000000
   19.06611061  110.78700256    0.13000000    0.28000000
   19.06916809  106.83399963    0.13000000    0.28000000
   19.07250023  114.17900085    0.13000000    0.28000000
   19.07555580  103.78399658    0.13000000    0.28000000
   19.07888985  104.75800323    0.13000000    0.28000000
   19.08222389  108.21800232    0.13000000    0.28000000
   19.08527756  110.52600098    0.13000000    0.28000000
   19.08638954  115.47899628    0.13000000    0.28000000
   19.10694504  115.47899628    0.13000000    0.28000000
   19.11111069   99.50140381    0.13000000    0.28000000
   19.11444473  103.60099792    0.13000000    0.28000000
   19.11750031  109.59799957    0.13000000    0.28000000
   19.11972237   90.20860291    0.13000000    0.28000000
   19.12138939  102.60399628    0.13000000    0.28000000
   19.12444496  106.36799622    0.13000000    0.28000000
   19.12777710  106.50000000    0.13000000    0.28000000
   19.13083267   99.88690186    0.13000000    0.28000000
   19.13416672   98.25420380    0.13000000    0.28000000
   19.13722229  104.36499786    0.13000000    0.28000000
   19.14055634   96.54850006    0.13000000    0.28000000
   19.14361191  101.68399811    0.13000000    0.28000000
   19.14972115  101.68399811    0.13000000    0.28000000
   19.15388870   97.57389832    0.13000000    0.28000000
   19.15722275   95.91040039    0.13000000    0.28000000
   19.16027832  100.66699982    0.13000000    0.28000000
   19.16361046   98.95980072    0.13000000    0.28000000
   19.16666603  118.25299835    0.13000000    0.28000000
   19.17000008   99.40969849    0.13000000    0.28000000
   19.17305565  109.83399963    0.13000000    0.28000000
   19.17638779   96.09889984    0.13000000    0.28000000
   19.17944336  101.55799866    0.13000000    0.28000000
   19.18277740   99.59400177    0.13000000    0.28000000
   19.18610954   90.66999817    0.13000000    0.28000000
   19.18638802   99.60540009    0.13000000    0.28000000
   19.19249916   99.60540009    0.13000000    0.28000000
   19.19666672  103.21700287    0.13000000    0.28000000
   19.20000076   99.22730255    0.13000000    0.28000000
   19.20305634   93.03990173    0.13000000    0.28000000
   19.20639038   93.39790344    0.13000000    0.28000000
   19.20944595   94.50910187    0.13000000    0.28000000
   19.21277809   90.67320251    0.13000000    0.28000000
   19.21611214   90.96250153    0.13000000    0.28000000
   19.21916771   93.62889862    0.13000000    0.28000000
   19.21972275   97.94239807    0.13000000    0.28000000
   19.22277832   92.46019745    0.13000000    0.28000000
   19.22611237   92.99710083    0.13000000    0.28000000
   19.22916794   85.05619812    0.13000000    0.28000000
   19.23555565   85.05619812    0.13000000    0.28000000
   19.23944473   89.56639862    0.13000000    0.28000000
   19.24277878  103.21700287    0.13000000    0.28000000
   19.24611092  104.93800354    0.13000000    0.28000000
   19.24916649  103.36900330    0.13000000    0.28000000
   19.25250053   99.61229706    0.13000000    0.28000000
   19.25333405   93.13439941    0.13000000    0.28000000
   19.25611115   92.04930115    0.13000000    0.28000000
   19.25944519  102.94799805    0.13000000    0.28000000
   19.26250076  107.86599731    0.13000000    0.28000000
   19.26583290  104.21299744    0.13000000    0.28000000
   19.26888847   94.59590149    0.13000000    0.28000000
   19.27222252  107.59700012    0.13000000    0.28000000
   19.27833366  107.59700012    0.13000000    0.28000000
   19.28249931  107.95300293    0.13000000    0.28000000
   19.28555489  108.53099823    0.13000000    0.28000000
   19.28666687  108.99400330    0.13000000    0.28000000
   19.28916550  107.60299683    0.13000000    0.28000000
   19.29249954  100.73400116    0.13000000    0.28000000
   19.29555511  101.71800232    0.13000000    0.28000000
   19.29888916  115.75900269    0.13000000    0.28000000
   19.30194283  116.14600372    0.13000000    0.28000000
   19.30527687  106.54900360    0.13000000    0.28000000
   19.30833244  108.52500153    0.13000000    0.28000000
   19.31166649  101.16300201    0.13000000    0.28000000
   19.31499863  103.52600098    0.13000000    0.28000000
   19.32111168  103.52600098    0.13000000    0.28000000
   19.32527924  101.24900055    0.13000000    0.28000000
   19.32861137  104.91799927    0.13000000    0.28000000
   19.33166695   93.70110321    0.13000000    0.28000000
   19.33500099  103.46800232    0.13000000    0.28000000
   19.33805656  103.03700256    0.13000000    0.28000000
   19.34138870  107.02700043    0.13000000    0.28000000
   19.34444427  102.28199768    0.13000000    0.28000000
   19.34777832  100.15599823    0.13000000    0.28000000
   19.35083389  107.50099945    0.13000000    0.28000000
   19.35333443  107.13999939    0.13000000    0.28000000
   19.35444450   98.64969635    0.13000000    0.28000000
   19.35777855   95.66590118    0.13000000    0.28000000
   19.36388969   95.66590118    0.13000000    0.28000000
   19.36805534  109.89299774    0.13000000    0.28000000
   19.37138939  106.06400299    0.13000000    0.28000000
   19.37444496  116.44699860    0.13000000    0.28000000
   19.37777710  106.71199799    0.13000000    0.28000000
   19.38083267  106.47699738    0.13000000    0.28000000
   19.38416672  108.40299988    0.13000000    0.28000000
   19.38666725  102.97000122    0.13000000    0.28000000
   19.38777733   94.30110168    0.13000000    0.28000000
   19.39111137  108.55000305    0.13000000    0.28000000
   19.39416695   98.45539856    0.13000000    0.28000000
   19.39749908  107.44799805    0.13000000    0.28000000
   19.40055466  107.32900238    0.13000000    0.28000000
   19.40694427  107.32900238    0.13000000    0.28000000
   19.41083336   90.35040283    0.13000000    0.28000000
   19.41416550  104.50800323    0.13000000    0.28000000
   19.41749954  105.94400024    0.13000000    0.28000000
   19.42000008  104.87500000    0.13000000    0.28000000
   19.42083359   98.10220337    0.13000000    0.28000000
   19.42416573   83.71150208    0.13000000    0.28000000
   19.42749977   91.41999817    0.13000000    0.28000000
   19.43055534  104.92099762    0.13000000    0.28000000
   19.43388748  103.85600281    0.13000000    0.28000000
   19.43694305   95.43049622    0.13000000    0.28000000
   19.44027710  106.37200165    0.13000000    0.28000000
   19.44333267  108.30500031    0.13000000    0.28000000
   19.44972038  108.30500031    0.13000000    0.28000000
   19.45388985  111.06500244    0.13000000    0.28000000
   19.45694542  113.06300354    0.13000000    0.28000000
   19.46027946   93.41510010    0.13000000    0.28000000
   19.46333504  102.29299927    0.13000000    0.28000000
   19.46666718   88.47429657    0.13000000    0.28000000
   19.47000122  108.33399963    0.13000000    0.28000000
   19.47305679  109.85399628    0.13000000    0.28000000
   19.47638893   92.84819794    0.13000000    0.28000000
   19.47944450  104.33599854    0.13000000    0.28000000
   19.48277855  103.15000153    0.13000000    0.28000000
   19.48583412  124.21499634    0.13000000    0.28000000
   19.48666763  101.96800232    0.13000000    0.28000000
   19.49250031  101.96800232    0.13000000    0.28000000
   19.49666786  107.54399872    0.13000000    0.28000000
   19.50000000  120.10800171    0.13000000    0.28000000
   19.50305557  104.56500244    0.13000000    0.28000000
   19.50638962   97.22540283    0.13000000    0.28000000
   19.50944519  121.14199829    0.13000000    0.28000000
   19.51277733  110.44200134    0.13000000    0.28000000
   19.51583290  103.54399872    0.13000000    0.28000000
   19.51916695  121.36399841    0.13000000    0.28000000
   19.52000046  120.60800171    0.13000000    0.28000000
   19.52277756  121.60900116    0.13000000    0.28000000
   19.52611160  106.73000336    0.13000000    0.28000000
   19.52916718  114.04100037    0.13000000    0.28000000
   19.53527641  114.04100037    0.13000000    0.28000000
   19.53944397  113.91100311    0.13000000    0.28000000
   19.54277802  122.26899719    0.13000000    0.28000000
   19.54583359  115.82199860    0.13000000    0.28000000
   19.54916573  117.54599762    0.13000000    0.28000000
   19.55222130  123.31900024    0.13000000    0.28000000
   19.55333328  115.77400208    0.13000000    0.28000000
   19.55583191  129.54800415    0.13000000    0.28000000
   19.55916595  131.08799744    0.13000000    0.28000000
   19.56222153  127.25399780    0.13000000    0.28000000
   19.56555557  141.57899475    0.13000000    0.28000000
   19.56861115  144.48300171    0.13000000    0.28000000
   19.57194519  138.08900452    0.13000000    0.28000000
   19.57833481  138.08900452    0.13000000    0.28000000
   19.58222389  114.50000000    0.13000000    0.28000000
   19.58555603  133.91299438    0.13000000    0.28000000
   19.58666801  135.13299561    0.13000000    0.28000000
   19.58916664  132.06199646    0.13000000    0.28000000
   19.59250069  140.85099792    0.13000000    0.28000000
   19.59555626  141.18600464    0.13000000    0.28000000
   19.59889030  117.57199860    0.13000000    0.28000000
   19.60222244  144.59300232    0.13000000    0.28000000
   19.60527802  128.95199585    0.13000000    0.28000000
   19.60861206  109.77799988    0.13000000    0.28000000
   19.61166763  130.19299316    0.13000000    0.28000000
   19.61499977  120.33200073    0.13000000    0.28000000
   19.62111092  120.33200073    0.13000000    0.28000000
   19.62527847  125.79399872    0.13000000    0.28000000
   19.62833405  115.81600189    0.13000000    0.28000000
   19.63166618  120.75900269    0.13000000    0.28000000
   19.63472176  120.38700104    0.13000000    0.28000000
   19.63805580  122.98600006    0.13000000    0.28000000
   19.64111137  114.88300323    0.13000000    0.28000000
   19.64444351  125.27799988    0.13000000    0.28000000
   19.64777756  116.64099884    0.13000000    0.28000000
   19.65083313  112.95400238    0.13000000    0.28000000
   19.65333366  121.51100159    0.13000000    0.28000000
   19.65444374  104.21399689    0.13000000    0.28000000
   19.65777779  121.13700104    0.13000000    0.28000000
   19.66388893  121.13700104    0.13000000    0.28000000
   19.66805458  108.24700165    0.13000000    0.28000000
   19.67138863  110.05200195    0.13000000    0.28000000
   19.67444420  122.98999786    0.13000000    0.28000000
   19.67777634  116.71299744    0.13000000    0.28000000
   19.68083191  104.10900116    0.13000000    0.28000000
   19.68416595  108.18499756    0.13000000    0.28000000
   19.68666649  117.58899689    0.13000000    0.28000000
   19.68750000  120.61199951    0.13000000    0.28000000
   19.69083214  114.62400055    0.13000000    0.28000000
   19.69388771  117.95200348    0.13000000    0.28000000
   19.69722176  130.30299377    0.13000000    0.28000000
   19.70055580  121.20600128    0.13000000    0.28000000
   19.70666695  121.20600128    0.13000000    0.28000000
   19.71083450  124.13500214    0.13000000    0.28000000
   19.71416664  127.47599792    0.13000000    0.28000000
   19.71722221  123.96700287    0.13000000    0.28000000
   19.72000122  123.62799835    0.13000000    0.28000000
   19.72083473  118.76100159    0.13000000    0.28000000
   19.72416687  130.04499817    0.13000000    0.28000000
   19.72722244  113.50000000    0.13000000    0.28000000
   19.73055649  140.13600159    0.13000000    0.28000000
   19.73361206  120.19000244    0.13000000    0.28000000
   19.73694420  101.54399872    0.13000000    0.28000000
   19.74027824  111.77200317    0.13000000    0.28000000
   19.74333382  114.50399780    0.13000000    0.28000000
   19.74972153  114.50399780    0.13000000    0.28000000
   19.75361061  120.01100159    0.13000000    0.28000000
   19.75694466  130.11099243    0.13000000    0.28000000
   19.76027870  133.60000610    0.13000000    0.28000000
   19.76333427  113.65299988    0.13000000    0.28000000
   19.76666641  133.39599609    0.13000000    0.28000000
   19.76972198  128.90100098    0.13000000    0.28000000
   19.77305603  148.37500000    0.13000000    0.28000000
   19.77611160  132.17999268    0.13000000    0.28000000
   19.77944374  133.67900085    0.13000000    0.28000000
   19.78277779  148.58399963    0.13000000    0.28000000
   19.78583336  127.22799683    0.13000000    0.28000000
   19.78666687  147.20399475    0.13000000    0.28000000
   19.79249954  147.20399475    0.13000000    0.28000000
   19.79666710  172.41799927    0.13000000    0.28000000
   19.79972076  135.05499268    0.13000000    0.28000000
   19.80305481  158.37800598    0.13000000    0.28000000
   19.80611038  131.85600281    0.13000000    0.28000000
   19.80944443  134.41000366    0.13000000    0.28000000
   19.81250000  137.14900208    0.13000000    0.28000000
   19.81583214  145.89100647    0.13000000    0.28000000
   19.81916809  158.72599792    0.13000000    0.28000000
   19.82000160  146.10299683    0.13000000    0.28000000
   19.82250023  140.76800537    0.13000000    0.28000000
   19.82583427  146.06399536    0.13000000    0.28000000
   19.82888985  114.03500366    0.13000000    0.28000000
   19.83527756  114.03500366    0.13000000    0.28000000
   19.83944511  143.91700745    0.13000000    0.28000000
   19.84250069  136.55499268    0.13000000    0.28000000
   19.84583473  157.41200256    0.13000000    0.28000000
   19.84916687  128.98199463    0.13000000    0.28000000
   19.85222244  141.21499634    0.13000000    0.28000000
   19.85333443  152.57699585    0.13000000    0.28000000
   19.85583305  158.21099854    0.13000000    0.28000000
   19.85916710  135.54200745    0.13000000    0.28000000
   19.86222267  151.63499451    0.13000000    0.28000000
   19.86555672  165.98699951    0.13000000    0.28000000
   19.86888885  191.05099487    0.13000000    0.28000000
   19.87194443  188.96400452    0.13000000    0.28000000
   19.87805557  188.96400452    0.13000000    0.28000000
   19.88222313  180.57499695    0.13000000    0.28000000
   19.88555527  158.62399292    0.13000000    0.28000000
   19.88666725  181.10699463    0.13000000    0.28000000
   19.88888931  172.90800476    0.13000000    0.28000000
   19.89222145  164.95899963    0.13000000    0.28000000
   19.89527702  176.85899353    0.13000000    0.28000000
   19.89861107  156.83700562    0.13000000    0.28000000
   19.90194321  154.68600464    0.13000000    0.28000000
   19.90499878  167.34100342    0.13000000    0.28000000
   19.90833282  173.27299500    0.13000000    0.28000000
   19.91138840  189.59500122    0.13000000    0.28000000
   19.91472244  169.98399353    0.13000000    0.28000000
   19.92111015  169.98399353    0.13000000    0.28000000
   19.92499924  166.17599487    0.13000000    0.28000000
   19.92833328  157.76600647    0.13000000    0.28000000
   19.93166542  140.58000183    0.13000000    0.28000000
   19.93472099  143.42799377    0.13000000    0.28000000
   19.93805504  150.47099304    0.13000000    0.28000000
   19.94111061  155.61500549    0.13000000    0.28000000
   19.94444275  116.12699890    0.13000000    0.28000000
   19.94749832  117.35399628    0.13000000    0.28000000
   19.95083427  131.81399536    0.13000000    0.28000000
   19.95333481  122.29699707    0.13000000    0.28000000
   19.95416832  132.60800171    0.13000000    0.28000000
   19.95750046  136.29200745    0.13000000    0.28000000
   19.96389008  136.29200745    0.13000000    0.28000000
   19.96805573  128.74600220    0.13000000    0.28000000
   19.97111130  126.26499939    0.13000000    0.28000000
   19.97444534  130.43099976    0.13000000    0.28000000
   19.97750092  122.58799744    0.13000000    0.28000000
   19.98083305  120.64299774    0.13000000    0.28000000
   19.98388863  112.03199768    0.13000000    0.28000000
   19.98666763  105.34700012    0.13000000    0.28000000
   19.98750114  133.96099854    0.13000000    0.28000000
   19.99083328  102.99400330    0.13000000    0.28000000
   19.99416733  112.11900330    0.13000000    0.28000000
   19.99722290  130.81900024    0.13000000    0.28000000
   20.00055504  118.06400299    0.13000000    0.28000000
   20.00666618  118.06400299    0.13000000    0.28000000
   20.01083374  119.47399902    0.13000000    0.28000000
   20.01388931  126.58300018    0.13000000    0.28000000
   20.01722145  122.45899963    0.13000000    0.28000000
   20.02000046  123.06400299    0.13000000    0.28000000
   20.02083397  113.57299805    0.13000000    0.28000000
   20.02416611  117.55300140    0.13000000    0.28000000
   20.02750015  133.83599854    0.13000000    0.28000000
   20.03055573  118.30400085    0.13000000    0.28000000
   20.03388786  114.05200195    0.13000000    0.28000000
   20.03694344  103.31700134    0.13000000    0.28000000
   20.04027748  114.29100037    0.13000000    0.28000000
   20.04333305   96.64150238    0.13000000    0.28000000
   20.04944420   96.64150238    0.13000000    0.28000000
   20.05360985  106.97599792    0.13000000    0.28000000
   20.05694389  107.64800262    0.13000000    0.28000000
   20.05999947  115.00399780    0.13000000    0.28000000
   20.06333351  111.54000092    0.13000000    0.28000000
   20.06638718  113.96900177    0.13000000    0.28000000
   20.06972313  113.20200348    0.13000000    0.28000000
   20.07277870  112.96900177    0.13000000    0.28000000
   20.07611275  117.61399841    0.13000000    0.28000000
   20.07944489  109.65799713    0.13000000    0.28000000
   20.08250046  124.58399963    0.13000000    0.28000000
   20.08583450  120.91500092    0.13000000    0.28000000
   20.08666801  124.62899780    0.13000000    0.28000000
   20.09250069  124.62899780    0.13000000    0.28000000
   20.09638977  116.19799805    0.13000000    0.28000000
   20.09972191  114.44699860    0.13000000    0.28000000
   20.10277748  133.68099976    0.13000000    0.28000000
   20.12055588  109.54399872    0.13000000    0.28000000
   20.12277794  111.58499908    0.13000000    0.28000000
   20.12583351  120.91899872    0.13000000    0.28000000
   20.12916756  116.30100250    0.13000000    0.28000000
   20.13527679  116.30100250    0.13000000    0.28000000
   20.13944435  121.62400055    0.13000000    0.28000000
   20.14277840  108.84799957    0.13000000    0.28000000
   20.14583397  115.51699829    0.13000000    0.28000000
   20.14916611  119.99299622    0.13000000    0.28000000
   20.15222168  111.14600372    0.13000000    0.28000000
   20.15388870  109.24700165    0.13000000    0.28000000
   20.15583229  113.24900055    0.13000000    0.28000000
   20.15916634  103.35500336    0.13000000    0.28000000
   20.16222191  114.49400330    0.13000000    0.28000000
   20.16555595  111.27300262    0.13000000    0.28000000
   20.16888809  110.59899902    0.13000000    0.28000000
   20.17194366  106.68900299    0.13000000    0.28000000
   20.17833328  106.68900299    0.13000000    0.28000000
   20.18249893  113.17600250    0.13000000    0.28000000
   20.18555450  111.08899689    0.13000000    0.28000000
   20.18722153  103.21099854    0.13000000    0.28000000
   20.18916512  124.76899719    0.13000000    0.28000000
   20.19249916  123.53900146    0.13000000    0.28000000
   20.19555473  103.67700195    0.13000000    0.28000000
   20.19888878  109.85800171    0.13000000    0.28000000
   20.20222282  103.71499634    0.13000000    0.28000000
   20.20527840  111.31999969    0.13000000    0.28000000
   20.20861244   99.78399658    0.13000000    0.28000000
   20.21166801   87.78260040    0.13000000    0.28000000
   20.21500015   86.37229919    0.13000000    0.28000000
   20.22111130   86.37229919    0.13000000    0.28000000
   20.22527885   95.61009979    0.13000000    0.28000000
   20.22833443   93.33249664    0.13000000    0.28000000
   20.23166656   92.67050171    0.13000000    0.28000000
   20.23472214   80.14649963    0.13000000    0.28000000
   20.23805618   93.58270264    0.13000000    0.28000000
   20.24138832   91.60350037    0.13000000    0.28000000
   20.24444389   93.88749695    0.13000000    0.28000000
   20.24777794  100.12799835    0.13000000    0.28000000
   20.25083351   87.10690308    0.13000000    0.28000000
   20.25388908   92.37640381    0.13000000    0.28000000
   20.25444412   88.06939697    0.13000000    0.28000000
   20.25777817  101.25399780    0.13000000    0.28000000
   20.26388931  101.25399780    0.13000000    0.28000000
   20.26805496  101.03199768    0.13000000    0.28000000
   20.27138901   99.59760284    0.13000000    0.28000000
   20.27444458  102.63800049    0.13000000    0.28000000
   20.27777672   97.29949951    0.13000000    0.28000000
   20.28083229  104.63600159    0.13000000    0.28000000
   20.28416634  106.17099762    0.13000000    0.28000000
   20.28722191  108.91300201    0.13000000    0.28000000
   20.28777695  109.69100189    0.13000000    0.28000000
   20.29083252  117.82399750    0.13000000    0.28000000
   20.29416656  119.24900055    0.13000000    0.28000000
   20.29722214  115.72499847    0.13000000    0.28000000
   20.30055428  133.99800110    0.13000000    0.28000000
   20.30666542  133.99800110    0.13000000    0.28000000
   20.31083298  133.62300110    0.13000000    0.28000000
   20.31416512  120.91999817    0.13000000    0.28000000
   20.31722260  123.71399689    0.13000000    0.28000000
   20.32055664  116.75099945    0.13000000    0.28000000
   20.32083511  124.36599731    0.13000000    0.28000000
   20.32416725  128.64500427    0.13000000    0.28000000
   20.32750130  131.75799561    0.13000000    0.28000000
   20.33055687  130.53199768    0.13000000    0.28000000
   20.33388901  125.31199646    0.13000000    0.28000000
   20.33694458  126.89600372    0.13000000    0.28000000
   20.34027863  123.76100159    0.13000000    0.28000000
   20.34333420  131.39599609    0.13000000    0.28000000
   20.34972191  131.39599609    0.13000000    0.28000000
   20.35361099  131.35099792    0.13000000    0.28000000
   20.35416794  133.67399597    0.13000000    0.28000000
   20.35750008  120.95800018    0.13000000    0.28000000
   20.36083412  121.75599670    0.13000000    0.28000000
   20.36388969  120.90100098    0.13000000    0.28000000
   20.36722183  124.34999847    0.13000000    0.28000000
   20.37027740  111.56600189    0.13000000    0.28000000
   20.37361145  116.67099762    0.13000000    0.28000000
   20.37666702  120.39399719    0.13000000    0.28000000
   20.38000107  121.59600067    0.13000000    0.28000000
   20.38305473  107.71900177    0.13000000    0.28000000
   20.38638878  118.50000000    0.13000000    0.28000000
   20.38750076  115.68699646    0.13000000    0.28000000
   20.39249992  115.68699646    0.13000000    0.28000000
   20.39666748  109.79299927    0.13000000    0.28000000
   20.39972115   93.53710175    0.13000000    0.28000000
   20.40305519  112.42500305    0.13000000    0.28000000
   20.40611076  112.84999847    0.13000000    0.28000000
   20.40944481  122.38300323    0.13000000    0.28000000
   20.41250038  117.10500336    0.13000000    0.28000000
   20.41583252  113.79399872    0.13000000    0.28000000
   20.41916656  108.51899719    0.13000000    0.28000000
   20.42083359  110.82599640    0.13000000    0.28000000
   20.42277718  113.47200012    0.13000000    0.28000000
   20.42611122  103.37200165    0.13000000    0.28000000
   20.42916679  111.70999908    0.13000000    0.28000000
   20.43527603  111.70999908    0.13000000    0.28000000
   20.43944359  110.50000000    0.13000000    0.28000000
   20.44277763  111.98500061    0.13000000    0.28000000
   20.44583321  111.65100098    0.13000000    0.28000000
   20.44916534  116.21099854    0.13000000    0.28000000
   20.45222282  105.78800201    0.13000000    0.28000000
   20.45416832  107.12799835    0.13000000    0.28000000
   20.45583344  107.51200104    0.13000000    0.28000000
   20.45916748  116.84999847    0.13000000    0.28000000
   20.46222305  116.59899902    0.13000000    0.28000000
   20.46555710  113.80300140    0.13000000    0.28000000
   20.46861076  110.55899811    0.13000000    0.28000000
   20.47194481  105.71800232    0.13000000    0.28000000
   20.47805595  105.71800232    0.13000000    0.28000000
   20.48222351  104.89199829    0.13000000    0.28000000
   20.48555565  103.99299622    0.13000000    0.28000000
   20.48750114  113.00900269    0.13000000    0.28000000
   20.48916626  111.47899628    0.13000000    0.28000000
   20.49250031  102.00399780    0.13000000    0.28000000
   20.49555588  100.41500092    0.13000000    0.28000000
   20.49888992  105.77899933    0.13000000    0.28000000
   20.50194359   99.17500305    0.13000000    0.28000000
   20.50527763  105.80999756    0.13000000    0.28000000
   20.50833321  101.79299927    0.13000000    0.28000000
   20.51166725   93.76329803    0.13000000    0.28000000
   20.51472282  115.37000275    0.13000000    0.28000000
   20.52111053  115.37000275    0.13000000    0.28000000
   20.52527809  106.25800323    0.13000000    0.28000000
   20.52833366  110.28600311    0.13000000    0.28000000
   20.53166580  110.08399963    0.13000000    0.28000000
   20.53472137   92.80829620    0.13000000    0.28000000
   20.53805542  105.70700073    0.13000000    0.28000000
   20.54111099  117.33200073    0.13000000    0.28000000
   20.54444313  120.59600067    0.13000000    0.28000000
   20.54749870  118.82399750    0.13000000    0.28000000
   20.55083275  109.46900177    0.13000000    0.28000000
   20.55416679  108.39399719    0.13000000    0.28000000
   20.55444336  109.86199951    0.13000000    0.28000000
   20.55777740  112.06600189    0.13000000    0.28000000
   20.56388855  112.06600189    0.13000000    0.28000000
   20.56805611   94.52590179    0.13000000    0.28000000
   20.57139015   97.59200287    0.13000000    0.28000000
   20.57444572  102.07299805    0.13000000    0.28000000
   20.57777786  104.40699768    0.13000000    0.28000000
   20.58083344   96.79759979    0.13000000    0.28000000
   20.58416748  118.68099976    0.13000000    0.28000000
   20.58722305  114.74900055    0.13000000    0.28000000
   20.58777809  107.14499664    0.13000000    0.28000000
   20.59083366  113.28099823    0.13000000    0.28000000
   20.59416771  100.79699707    0.13000000    0.28000000
   20.59722328  114.78199768    0.13000000    0.28000000
   20.60055542  103.26899719    0.13000000    0.28000000
   20.60694504  103.26899719    0.13000000    0.28000000
   20.61083412  104.89299774    0.13000000    0.28000000
   20.61416626  112.53199768    0.13000000    0.28000000
   20.61722183  104.03500366    0.13000000    0.28000000
   20.62055588  126.76599884    0.13000000    0.28000000
   20.62111092  116.95600128    0.13000000    0.28000000
   20.62416649  100.10500336    0.13000000    0.28000000
   20.62750053  113.55300140    0.13000000    0.28000000
   20.63055611  118.38800049    0.13000000    0.28000000
   20.63388824  101.44100189    0.13000000    0.28000000
   20.63694382  111.37899780    0.13000000    0.28000000
   20.64027786  104.79100037    0.13000000    0.28000000
   20.64333344  111.88200378    0.13000000    0.28000000
   20.64972115  111.88200378    0.13000000    0.28000000
   20.65388870  114.42299652    0.13000000    0.28000000
   20.65444374  116.61799622    0.13000000    0.28000000
   20.65722275  115.88400269    0.13000000    0.28000000
   20.66055489  110.69799805    0.13000000    0.28000000
   20.66361046  111.59799957    0.13000000    0.28000000
   20.66694450  110.45300293    0.13000000    0.28000000
   20.67000008   99.85559845    0.13000000    0.28000000
   20.67333221  112.26100159    0.13000000    0.28000000
   20.67638779  115.71299744    0.13000000    0.28000000
   20.67972183  108.12799835    0.13000000    0.28000000
   20.68305397  117.32499695    0.13000000    0.28000000
   20.68610954  115.02500153    0.13000000    0.28000000
   20.68777657  115.51999664    0.13000000    0.28000000
   20.69249916  115.51999664    0.13000000    0.28000000
   20.69666672  119.88899994    0.13000000    0.28000000
   20.69972038  107.61599731    0.13000000    0.28000000
   20.70305634  108.87899780    0.13000000    0.28000000
   20.70611191  116.81099701    0.13000000    0.28000000
   20.70944595   97.69950104    0.13000000    0.28000000
   20.71277809  120.29599762    0.13000000    0.28000000
   20.71583366  119.37200165    0.13000000    0.28000000
   20.71916771  117.88999939    0.13000000    0.28000000
   20.72138977  111.24299622    0.13000000    0.28000000
   20.72277832  127.30200195    0.13000000    0.28000000
   20.72611237  117.04799652    0.13000000    0.28000000
   20.72916794  119.26399994    0.13000000    0.28000000
   20.73527718  119.26399994    0.13000000    0.28000000
   20.73944473  115.46499634    0.13000000    0.28000000
   20.74277878  123.50000000    0.13000000    0.28000000
   20.74583435  116.41999817    0.13000000    0.28000000
   20.74916649  115.38400269    0.13000000    0.28000000
   20.75222206  106.29299927    0.13000000    0.28000000
   20.75472260  121.50299835    0.13000000    0.28000000
   20.75583267  122.87500000    0.13000000    0.28000000
   20.75916672  120.57399750    0.13000000    0.28000000
   20.76222229  119.32099915    0.13000000    0.28000000
   20.76555634  128.29400635    0.13000000    0.28000000
   20.76861000  118.32599640    0.13000000    0.28000000
   20.77194405  129.34700012    0.13000000    0.28000000
   20.77805519  129.34700012    0.13000000    0.28000000
   20.78222275  122.66000366    0.13000000    0.28000000
   20.78555489  115.70300293    0.13000000    0.28000000
   20.78805542  111.76599884    0.13000000    0.28000000
   20.78916550  115.00399780    0.13000000    0.28000000
   20.79249954  116.71399689    0.13000000    0.28000000
   20.79555511  117.57499695    0.13000000    0.28000000
   20.79888916  119.90200043    0.13000000    0.28000000
   20.80194283  113.19899750    0.13000000    0.28000000
   20.80527687  108.79900360    0.13000000    0.28000000
   20.80833244  102.77400208    0.13000000    0.28000000
   20.81166649  111.24099731    0.13000000    0.28000000
   20.81499863  121.09400177    0.13000000    0.28000000
   20.82111168  121.09400177    0.13000000    0.28000000
   20.82527924  116.74800110    0.13000000    0.28000000
   20.82833481  111.46700287    0.13000000    0.28000000
   20.83166695  120.71199799    0.13000000    0.28000000
   20.83472252  123.76499939    0.13000000    0.28000000
   20.83805656  109.78099823    0.13000000    0.28000000
   20.84111214  118.93099976    0.13000000    0.28000000
   20.84444427  107.59999847    0.13000000    0.28000000
   20.84777832  117.10099792    0.13000000    0.28000000
   20.85083389  133.82499695    0.13000000    0.28000000
   20.85416794  112.90599823    0.13000000    0.28000000
   20.85611153  120.54699707    0.13000000    0.28000000
   20.85750008  111.18599701    0.13000000    0.28000000
   20.86388969  111.18599701    0.13000000    0.28000000
   20.86805534  109.89600372    0.13000000    0.28000000
   20.87111092  108.79699707    0.13000000    0.28000000
   20.87444496  106.92099762    0.13000000    0.28000000
   20.87750053  103.89499664    0.13000000    0.28000000
   20.88083267  108.50299835    0.13000000    0.28000000
   20.88416672  122.20500183    0.13000000    0.28000000
   20.88722229  109.89600372    0.13000000    0.28000000
   20.88944435  113.99600220    0.13000000    0.28000000
   20.89111137  120.61199951    0.13000000    0.28000000
   20.89416695  124.82800293    0.13000000    0.28000000
   20.89749908  116.42900085    0.13000000    0.28000000
   20.90055466  105.67600250    0.13000000    0.28000000
   20.90666580  105.67600250    0.13000000    0.28000000
   20.91083336  106.18000031    0.13000000    0.28000000
   20.91416550  102.08399963    0.13000000    0.28000000
   20.91722107  107.45600128    0.13000000    0.28000000
   20.92055511  122.69499969    0.13000000    0.28000000
   20.92305565  109.97100067    0.13000000    0.28000000
   20.92388916  110.04299927    0.13000000    0.28000000
   20.92722130  108.32499695    0.13000000    0.28000000
   20.93027687  107.61299896    0.13000000    0.28000000
   20.93361092  111.21700287    0.13000000    0.28000000
   20.93666649   94.36109924    0.13000000    0.28000000
   20.93999863  108.09400177    0.13000000    0.28000000
   20.94333267  109.87000275    0.13000000    0.28000000
   20.94944382  109.87000275    0.13000000    0.28000000
   20.95361137  101.22699738    0.13000000    0.28000000
   20.95639038   99.32319641    0.13000000    0.28000000
   20.95722389  107.57599640    0.13000000    0.28000000
   20.96055603  101.83699799    0.13000000    0.28000000
   20.96361160  105.96199799    0.13000000    0.28000000
   20.96694565  102.31099701    0.13000000    0.28000000
   20.97000122  106.60800171    0.13000000    0.28000000
   20.97333336   97.87280273    0.13000000    0.28000000
   20.97666740   99.69740295    0.13000000    0.28000000
   20.97972298  106.08999634    0.13000000    0.28000000
   20.98305511  108.47599792    0.13000000    0.28000000
   20.98611069  115.62699890    0.13000000    0.28000000
   20.99250031  115.62699890    0.13000000    0.28000000
   20.99638939  104.19300079    0.13000000    0.28000000
   20.99972153   98.12229919    0.13000000    0.28000000
   21.00305557  106.93299866    0.13000000    0.28000000
   21.00611115   97.78710175    0.13000000    0.28000000
   21.00944519  102.18800354    0.13000000    0.28000000
   21.01250076   94.31379700    0.13000000    0.28000000
   21.01583290   93.99590302    0.13000000    0.28000000
   21.01888847   96.16179657    0.13000000    0.28000000
   21.02222252   94.87789917    0.13000000    0.28000000
   21.02333260   88.34380341    0.13000000    0.28000000
   21.02583313   96.95140076    0.13000000    0.28000000
   21.02888870   96.14579773    0.13000000    0.28000000
   21.03527641   96.14579773    0.13000000    0.28000000
   21.03944397  104.19699860    0.13000000    0.28000000
   21.04249954  106.56500244    0.13000000    0.28000000
   21.04583359  102.90100098    0.13000000    0.28000000
   21.04916573  101.93599701    0.13000000    0.28000000
   21.05222130  110.13899994    0.13000000    0.28000000
   21.05555534  108.58499908    0.13000000    0.28000000
   21.05666542  115.92199707    0.13000000    0.28000000
   21.05916595  104.16100311    0.13000000    0.28000000
   21.06222153  105.37400055    0.13000000    0.28000000
   21.06555557  101.86900330    0.13000000    0.28000000
   21.06861115  104.35900116    0.13000000    0.28000000
   21.07194519  103.39399719    0.13000000    0.28000000
   21.07805634  103.39399719    0.13000000    0.28000000
   21.08222389  101.50199890    0.13000000    0.28000000
   21.08555603   98.10430145    0.13000000    0.28000000
   21.08861160  120.96499634    0.13000000    0.28000000
   21.09027863  114.41300201    0.13000000    0.28000000
   21.09222221  103.80799866    0.13000000    0.28000000
   21.09555626  107.72799683    0.13000000    0.28000000
   21.09861183  105.11900330    0.13000000    0.28000000
   21.10194397  108.85600281    0.13000000    0.28000000
   21.10555649  111.69699860    0.13000000    0.28000000
   21.10861206  102.65599823    0.13000000    0.28000000
   21.11194420  100.37899780    0.13000000    0.28000000
   21.11499977   93.66760254    0.13000000    0.28000000
   21.12083435   93.66760254    0.13000000    0.28000000
   21.13944435  120.26699829    0.13000000    0.28000000
   21.14249992  105.18699646    0.13000000    0.28000000
   21.14583397   97.89900208    0.13000000    0.28000000
   21.14888954  102.06099701    0.13000000    0.28000000
   21.15222168  107.07499695    0.13000000    0.28000000
   21.15527725  111.24199677    0.13000000    0.28000000
   21.15861130  119.06300354    0.13000000    0.28000000
   21.16416550  119.06300354    0.13000000    0.28000000
   21.16805458  114.07299805    0.13000000    0.28000000
   21.17138863  108.98200226    0.13000000    0.28000000
   21.17249870  105.37699890    0.13000000    0.28000000
   21.17499924  109.20500183    0.13000000    0.28000000
   21.17833328  108.49900055    0.13000000    0.28000000
   21.18138885  106.67800140    0.13000000    0.28000000
   21.18472099  108.57800293    0.13000000    0.28000000
   21.18777657  114.92500305    0.13000000    0.28000000
   21.19111061  113.24600220    0.13000000    0.28000000
   21.19444275  115.60099792    0.13000000    0.28000000
   21.19749832  116.64399719    0.13000000    0.28000000
   21.20083427  106.19200134    0.13000000    0.28000000
   21.20694542  106.19200134    0.13000000    0.28000000
   21.21111107  109.93299866    0.13000000    0.28000000
   21.21416664  109.33499908    0.13000000    0.28000000
   21.21750069   98.49559784    0.13000000    0.28000000
   21.22055626  117.76999664    0.13000000    0.28000000
   21.22389030  105.04100037    0.13000000    0.28000000
   21.22694588  103.19599915    0.13000000    0.28000000
   21.23027802  112.57499695    0.13000000    0.28000000
   21.23361206  113.69899750    0.13000000    0.28000000
   21.23666763  101.91400146    0.13000000    0.28000000
   21.23916626  112.94400024    0.13000000    0.28000000
   21.24027824  108.22200012    0.13000000    0.28000000
   21.24361229  103.03500366    0.13000000    0.28000000
   21.24972153  103.03500366    0.13000000    0.28000000
   21.25388908  102.00299835    0.13000000    0.28000000
   21.25694466  110.38500214    0.13000000    0.28000000
   21.26027870  109.13200378    0.13000000    0.28000000
   21.26361084  117.10399628    0.13000000    0.28000000
   21.26666641  113.59300232    0.13000000    0.28000000
   21.27000046  112.45999908    0.13000000    0.28000000
   21.27249908  119.91500092    0.13000000    0.28000000
   21.27333260  112.00900269    0.13000000    0.28000000
   21.27666664  107.28399658    0.13000000    0.28000000
   21.27972221  102.32800293    0.13000000    0.28000000
   21.28305435  105.79199982    0.13000000    0.28000000
   21.28610992  100.27799988    0.13000000    0.28000000
   21.29249954  100.27799988    0.13000000    0.28000000
   21.29666710  105.13999939    0.13000000    0.28000000
   21.29999924  111.00000000    0.13000000    0.28000000
   21.30305481  111.54499817    0.13000000    0.28000000
   21.30583191  110.54299927    0.13000000    0.28000000
   21.30666542  103.33000183    0.13000000    0.28000000
   21.30999947   92.46279907    0.13000000    0.28000000
   21.31333351  103.85299683    0.13000000    0.28000000
   21.31638718  107.98500061    0.13000000    0.28000000
   21.31972313  105.04199982    0.13000000    0.28000000
   21.32277870  111.18299866    0.13000000    0.28000000
   21.32611275  113.54799652    0.13000000    0.28000000
   21.32916832  110.80699921    0.13000000    0.28000000
   21.33555603  110.80699921    0.13000000    0.28000000
   21.33944511   99.27349854    0.13000000    0.28000000
   21.34277916  117.81500244    0.13000000    0.28000000
   21.34583473  110.04599762    0.13000000    0.28000000
   21.34916687  108.55200195    0.13000000    0.28000000
   21.35250092  116.40899658    0.13000000    0.28000000
   21.35555649  114.73300171    0.13000000    0.28000000
   21.35888863  112.91400146    0.13000000    0.28000000
   21.36194420  118.59899902    0.13000000    0.28000000
   21.36527824  122.34899902    0.13000000    0.28000000
   21.36833382  116.79499817    0.13000000    0.28000000
   21.37166595  128.88699341    0.13000000    0.28000000
   21.37249947  116.17700195    0.13000000    0.28000000
   21.37833405  116.17700195    0.13000000    0.28000000
   21.38249969  120.95500183    0.13000000    0.28000000
   21.38555527  122.54699707    0.13000000    0.28000000
   21.38888931  122.38500214    0.13000000    0.28000000
   21.39194489  119.56400299    0.13000000    0.28000000
   21.39527702  121.20500183    0.13000000    0.28000000
   21.39833260  115.22399902    0.13000000    0.28000000
   21.40166664  110.87799835    0.13000000    0.28000000
   21.40472221  110.81500244    0.13000000    0.28000000
   21.40583229  114.49099731    0.13000000    0.28000000
   21.40833282  116.14600372    0.13000000    0.28000000
   21.41166687  117.24299622    0.13000000    0.28000000
   21.41472244  108.85399628    0.13000000    0.28000000
   21.42111015  108.85399628    0.13000000    0.28000000
   21.42527771  109.96900177    0.13000000    0.28000000
   21.42833328  120.71199799    0.13000000    0.28000000
   21.43166542  104.55699921    0.13000000    0.28000000
   21.43472099  110.94000244    0.13000000    0.28000000
   21.43805504  105.56400299    0.13000000    0.28000000
   21.43916512  104.65899658    0.13000000    0.28000000
   21.44166565  125.73200226    0.13000000    0.28000000
   21.44499969  116.42299652    0.13000000    0.28000000
   21.44805527  121.08899689    0.13000000    0.28000000
   21.45138931  104.77100372    0.13000000    0.28000000
   21.45472336  116.44100189    0.13000000    0.28000000
   21.45777893  116.97699738    0.13000000    0.28000000
   21.46389008  116.97699738    0.13000000    0.28000000
   21.46805573  112.33499908    0.13000000    0.28000000
   21.47138977  116.52999878    0.13000000    0.28000000
   21.47249985  108.61699677    0.13000000    0.28000000
   21.47472191  114.91400146    0.13000000    0.28000000
   21.47805595  112.00099945    0.13000000    0.28000000
   21.48111153  115.01499939    0.13000000    0.28000000
   21.48444557  126.50599670    0.13000000    0.28000000
   21.48777771  108.89099884    0.13000000    0.28000000
   21.49083328  115.85299683    0.13000000    0.28000000
   21.49416733  107.81500244    0.13000000    0.28000000
   21.49722290  121.24400330    0.13000000    0.28000000
   21.50055504  109.87999725    0.13000000    0.28000000
   21.50694466  109.87999725    0.13000000    0.28000000
   21.51083374  126.28700256    0.13000000    0.28000000
   21.51416588  115.89199829    0.13000000    0.28000000
   21.51722145  113.94899750    0.13000000    0.28000000
   21.52055550  125.41200256    0.13000000    0.28000000
   21.52388954  113.14600372    0.13000000    0.28000000
   21.52694511  106.76799774    0.13000000    0.28000000
   21.53027725  109.79699707    0.13000000    0.28000000
   21.53333282  105.62200165    0.13000000    0.28000000
   21.53666687  103.19200134    0.13000000    0.28000000
   21.53916550  104.56500244    0.13000000    0.28000000
   21.53999901  113.64900208    0.13000000    0.28000000
   21.54333305  110.81099701    0.13000000    0.28000000
   21.54972076  110.81099701    0.13000000    0.28000000
   21.55388832  116.21399689    0.13000000    0.28000000
   21.55694389  116.33699799    0.13000000    0.28000000
   21.56027794  108.77999878    0.13000000    0.28000000
   21.56333351  115.07700348    0.13000000    0.28000000
   21.56666756  124.96499634    0.13000000    0.28000000
   21.56972313  130.10699463    0.13000000    0.28000000
   21.57250023  122.13500214    0.13000000    0.28000000
   21.57333374  110.65200043    0.13000000    0.28000000
   21.57666779  119.94499969    0.13000000    0.28000000
   21.57972336  124.65399933    0.13000000    0.28000000
   21.58305550  110.16400146    0.13000000    0.28000000
   21.58638954  118.22599792    0.13000000    0.28000000
   21.59250069  118.22599792    0.13000000    0.28000000
   21.59666824  111.91200256    0.13000000    0.28000000
   21.59972191  114.33999634    0.13000000    0.28000000
   21.60305595  121.12500000    0.13000000    0.28000000
   21.60583305  110.19000244    0.13000000    0.28000000
   21.60666656  115.68699646    0.13000000    0.28000000
   21.61000061  118.01799774    0.13000000    0.28000000
   21.61305618  119.71600342    0.13000000    0.28000000
   21.61638832  105.19100189    0.13000000    0.28000000
   21.61972237  114.16600037    0.13000000    0.28000000
   21.62277794  105.66699982    0.13000000    0.28000000
   21.62611198  119.97399902    0.13000000    0.28000000
   21.62916756  110.09500122    0.13000000    0.28000000
   21.63527679  110.09500122    0.13000000    0.28000000
   21.63944435  112.97699738    0.13000000    0.28000000
   21.64277840  121.64600372    0.13000000    0.28000000
   21.64583397  108.28700256    0.13000000    0.28000000
   21.64916611  117.14900208    0.13000000    0.28000000
   21.65222168  111.77899933    0.13000000    0.28000000
   21.65555573  122.37599945    0.13000000    0.28000000
   21.65888786  117.03299713    0.13000000    0.28000000
   21.66194344  113.72399902    0.13000000    0.28000000
   21.66527748  114.45899963    0.13000000    0.28000000
   21.66833305  127.42600250    0.13000000    0.28000000
   21.67166519  123.03199768    0.13000000    0.28000000
   21.67249870  121.39399719    0.13000000    0.28000000
   21.67833328  121.39399719    0.13000000    0.28000000
   21.68222237  114.36100006    0.13000000    0.28000000
   21.68555450  117.70700073    0.13000000    0.28000000
   21.68861008  112.51599884    0.13000000    0.28000000
   21.69194412  118.78700256    0.13000000    0.28000000
   21.69527626  105.45999908    0.13000000    0.28000000
   21.69833183  122.73999786    0.13000000    0.28000000
   21.70166779  117.10700226    0.13000000    0.28000000
   21.70472336  113.75499725    0.13000000    0.28000000
   21.70583344  110.90399933    0.13000000    0.28000000
   21.70833397  114.54599762    0.13000000    0.28000000
   21.71166801  123.93699646    0.13000000    0.28000000
   21.71500015  113.32299805    0.13000000    0.28000000
   21.72111130  113.32299805    0.13000000    0.28000000
   21.72527885  106.11199951    0.13000000    0.28000000
   21.72833443  115.10399628    0.13000000    0.28000000
   21.73166656  119.39299774    0.13000000    0.28000000
   21.73472214  113.52500153    0.13000000    0.28000000
   21.73805618  120.56500244    0.13000000    0.28000000
   21.73916626  116.40000153    0.13000000    0.28000000
   21.74138832  131.94099426    0.13000000    0.28000000
   21.74472237  119.82700348    0.13000000    0.28000000
   21.74805641  113.91000366    0.13000000    0.28000000
   21.75111198  120.70500183    0.13000000    0.28000000
   21.75444412  119.74900055    0.13000000    0.28000000
   21.75749969  117.33999634    0.13000000    0.28000000
   21.76388931  117.33999634    0.13000000    0.28000000
   21.76805496  109.63400269    0.13000000    0.28000000
   21.77111053  110.85399628    0.13000000    0.28000000
   21.77249908  112.95700073    0.13000000    0.28000000
   21.77472115  111.50299835    0.13000000    0.28000000
   21.77805519  109.98000336    0.13000000    0.28000000
   21.78138924  116.43499756    0.13000000    0.28000000
   21.78444481  129.79400635    0.13000000    0.28000000
   21.78777695  116.05500031    0.13000000    0.28000000
   21.79083252  129.78799438    0.13000000    0.28000000
   21.79416656  122.87300110    0.13000000    0.28000000
   21.79722214  119.16999817    0.13000000    0.28000000
   21.80055428  114.29100037    0.13000000    0.28000000
   21.80666542  114.29100037    0.13000000    0.28000000
   21.81083298  121.55899811    0.13000000    0.28000000
   21.81416512  134.52200317    0.13000000    0.28000000
   21.81722260  126.64900208    0.13000000    0.28000000
   21.82055664  122.66600037    0.13000000    0.28000000
   21.82361221  127.27799988    0.13000000    0.28000000
   21.82694626  118.97699738    0.13000000    0.28000000
   21.83000183  140.67199707    0.13000000    0.28000000
   21.83333397  123.41799927    0.13000000    0.28000000
   21.83666801  143.36999512    0.13000000    0.28000000
   21.83916664  120.19899750    0.13000000    0.28000000
   21.84000015  127.40399933    0.13000000    0.28000000
   21.84333420  120.60800171    0.13000000    0.28000000
   21.84944534  120.60800171    0.13000000    0.28000000
   21.85361099  128.41600037    0.13000000    0.28000000
   21.85694504  127.77700043    0.13000000    0.28000000
   21.86000061  121.82800293    0.13000000    0.28000000
   21.86333466  119.15499878    0.13000000    0.28000000
   21.86666679  117.41600037    0.13000000    0.28000000
   21.86972237  136.55900574    0.13000000    0.28000000
   21.87249947  125.31199646    0.13000000    0.28000000
   21.87333298  127.66699982    0.13000000    0.28000000
   21.87666702  125.52999878    0.13000000    0.28000000
   21.88000107  131.59300232    0.13000000    0.28000000
   21.88305473  116.66200256    0.13000000    0.28000000
   21.88638878  121.15899658    0.13000000    0.28000000
   21.89249992  121.15899658    0.13000000    0.28000000
   21.89666748  148.03300476    0.13000000    0.28000000
   21.89972115  131.39500427    0.13000000    0.28000000
   21.90305519  133.99200439    0.13000000    0.28000000
   21.90583229  125.59400177    0.13000000    0.28000000
   21.90638924  124.11399841    0.13000000    0.28000000
   21.90972137  128.47300720    0.13000000    0.28000000
   21.91305542  129.68499756    0.13000000    0.28000000
   21.91611099  126.41300201    0.13000000    0.28000000
   21.91944313  133.01100159    0.13000000    0.28000000
   21.92249870  121.55000305    0.13000000    0.28000000
   21.92583275  130.98100281    0.13000000    0.28000000
   21.92888832  130.35699463    0.13000000    0.28000000
   21.93527603  130.35699463    0.13000000    0.28000000
   21.93944359  128.37300110    0.13000000    0.28000000
   21.94249916  105.87599945    0.13000000    0.28000000
   21.94583321  129.81100464    0.13000000    0.28000000
   21.94888878  116.28600311    0.13000000    0.28000000
   21.95222282  122.10800171    0.13000000    0.28000000
   21.95555687  118.78800201    0.13000000    0.28000000
   21.95861244  121.21399689    0.13000000    0.28000000
   21.96194458  111.67400360    0.13000000    0.28000000
   21.96500015  117.29100037    0.13000000    0.28000000
   21.96833420  126.31300354    0.13000000    0.28000000
   21.97138977  129.67300415    0.13000000    0.28000000
   21.97249985  123.38300323    0.13000000    0.28000000
   21.97805595  123.38300323    0.13000000    0.28000000
   21.98222351  118.56800079    0.13000000    0.28000000
   21.98555565  132.50999451    0.13000000    0.28000000
   21.98861122  120.39299774    0.13000000    0.28000000
   21.99194527  125.30400085    0.13000000    0.28000000
   21.99500084  127.03900146    0.13000000    0.28000000
   21.99833298  128.25500488    0.13000000    0.28000000
   22.00194359  129.08599854    0.13000000    0.28000000
   22.00527763  129.97399902    0.13000000    0.28000000
   22.00583267  136.47599792    0.13000000    0.28000000
   22.00888824  119.04499817    0.13000000    0.28000000
   22.01194382  144.34500122    0.13000000    0.28000000
   22.01527786  125.36599731    0.13000000    0.28000000
   22.02166557  125.36599731    0.13000000    0.28000000
   22.02611160  121.85199738    0.13000000    0.28000000
   22.02944374  134.74600220    0.13000000    0.28000000
   22.03277779  123.76599884    0.13000000    0.28000000
   22.03694344  120.29199982    0.13000000    0.28000000
   22.04027748  131.48399353    0.13000000    0.28000000
   22.04222107  105.81900024    0.13000000    0.28000000
   22.04555511  116.00000000    0.13000000    0.28000000
   22.04944420  121.69300079    0.13000000    0.28000000
   22.05305481  102.90200043    0.13000000    0.28000000
   22.05666542  108.80300140    0.13000000    0.28000000
   22.06027794  116.05300140    0.13000000    0.28000000
   22.06527710  116.05300140    0.13000000    0.28000000
   22.06972313  142.31900024    0.13000000    0.28000000
   22.07250023  136.19799805    0.13000000    0.28000000
   22.07333374  122.61799622    0.13000000    0.28000000
   22.07638931  136.64799500    0.13000000    0.28000000
   22.07972336  116.45400238    0.13000000    0.28000000
   22.08305550  124.62000275    0.13000000    0.28000000
   22.08638954  126.00599670    0.13000000    0.28000000
   22.08944511  122.59700012    0.13000000    0.28000000
   22.09277916  131.56700134    0.13000000    0.28000000
   22.09611130  126.77700043    0.13000000    0.28000000
   22.09916687  137.50100708    0.13000000    0.28000000
   22.10250092  159.15499878    0.13000000    0.28000000
   22.10750008  159.15499878    0.13000000    0.28000000
   22.11166763  212.14900208    0.13000000    0.28000000
   22.11527824  264.65600586    0.13000000    0.28000000
   22.11861038  336.09100342    0.13000000    0.28000000
   22.12083435  356.82299805    0.13000000    0.28000000
   22.12194443  363.20901489    0.13000000    0.28000000
   22.12333298  211.76400757    0.13000000    0.28000000
   22.12333298  159.15499878    0.13000000    0.28000000
   22.12361145  212.14900208    0.13000000    0.28000000
   22.12361145  264.65600586    0.13000000    0.28000000
   22.12388992  336.09100342    0.13000000    0.28000000
   22.12388992  126.00599670    0.13000000    0.28000000
   22.12416649  122.59700012    0.13000000    0.28000000
   22.12416649  131.56700134    0.13000000    0.28000000
   22.12416649  126.77700043    0.13000000    0.28000000
   22.12444496  137.50100708    0.13000000    0.28000000
   22.12500000  122.29900360    0.13000000    0.28000000
   22.12833405   -1.00000000    0.13000000    0.28000000
