    HOUR (UT)   FLARE FACTOR    SKY TESTER    SUN TESTER
   11.50527763   -1.00000000   -1.00000000   -1.00000000
   11.54888916  193.57899475    0.00000000    0.00000000
   11.55222225  187.39900208    0.00000000    0.00000000
   11.55527782  189.51400757    0.00000000    0.00000000
   11.55861092  182.17199707    0.00000000    0.00000000
   11.56305599  170.47000122    0.00000000    0.00000000
   11.57027817  170.47000122    0.69000000    1.55999994
   11.57444477  138.57200623    0.67000002    1.55999994
   11.57750034  175.41000366    0.67000002    1.55999994
   11.58083344  180.92500305    0.67000002    1.55999994
   11.58222198  178.08999634    0.67000002    1.55999994
   11.58444405  175.02499390    0.69000000    1.55999994
   11.58749962  184.11399841    0.67000002    1.55999994
   11.59083271  167.13699341    0.67000002    1.55999994
   11.59416676  181.50799561    4.90999985    2.39000010
   11.59722233  163.04400635    4.90999985    2.39000010
   11.60055637  169.85600281    1.30999994    2.34999990
   11.60361195  154.63400269    1.30999994    2.34999990
   11.60694504  175.66299438    1.30999994    2.34999990
   11.61194515  175.66299438    1.30999994    2.36999989
   11.61611176  155.46099854    1.30999994    2.36999989
   11.61944485  169.54100037    1.28999996    2.34999990
   11.62250042  181.21099854    1.28999996    2.36999989
   11.62583351  173.63900757    1.28999996    2.36999989
   11.62916660  158.00599670    1.26999998    2.36999989
   11.63222218  162.38999939    1.26999998    2.36999989
   11.63555527  148.75500488    1.26999998    2.36999989
   11.63888836  163.10899353    1.26999998    2.36999989
   11.64194393  164.88800049    1.26999998    2.36999989
   11.64527798  169.56399536    1.28999996    2.39000010
   11.64833355  171.25599670    1.28999996    2.36999989
   11.64888859  171.74400330    1.28999996    2.36999989
   11.65499973  171.74400330    1.28999996    2.39000010
   11.65888882  169.75500488    1.28999996    2.39000010
   11.66222191  166.18699646    1.28999996    2.39000010
   11.66555500  164.20199585    1.26999998    2.39000010
   11.66861153  163.71400452    1.26999998    2.36999989
   11.67194462  158.73100281    1.26999998    2.39000010
   11.67527771  166.53799438    1.26999998    2.39000010
   11.67833328  167.88200378    1.25000000    2.39000010
   11.68166733  171.67599487    1.25000000    2.39000010
   11.68222237  166.26600647    1.25000000    2.39000010
   11.68527794  158.94599915    1.25000000    2.39000010
   11.68861103  166.19400024    1.26999998    2.39000010
   11.69194412  183.33799744    1.26999998    2.40000010
   11.69777775  183.33799744    1.26999998    2.39000010
   11.70194435  166.62600708    1.25000000    2.39000010
   11.70499992  187.99000549    1.25000000    2.39000010
   11.70833302  160.67300415    1.25000000    2.40000010
   11.71166611  175.92999268    1.25000000    2.39000010
   11.71472168  159.03599548    1.25000000    2.40000010
   11.71555519  160.70300293    1.25000000    2.40000010
   11.71833324  176.11999512    1.25000000    2.40000010
   11.72166634  161.85000610    1.25000000    2.40000010
   11.72472191  158.76100159    1.26999998    2.40000010
   11.72805500  158.11099243    1.26999998    2.39000010
   11.73138809  169.52000427    1.26999998    2.39000010
   11.73472214  159.30200195    1.26999998    2.39000010
   11.74055576  159.30200195    1.26999998    2.40000010
   11.74472237  167.83299255    1.28999996    2.40000010
   11.74777794  157.08900452    1.28999996    2.40000010
   11.74888897  165.60699463    1.28999996    2.40000010
   11.75138855  147.48199463    1.28999996    2.40000010
   11.75472260  156.16700745    1.30999994    2.40000010
   11.75777817  162.57600403    1.30999994    2.40000010
   11.76111126  150.87300110    1.28999996    2.40000010
   11.76444435  154.43800354    1.26999998    2.40000010
   11.76749992  155.69200134    1.25000000    2.40000010
   11.77083302  152.67599487    1.23000002    2.42000008
   11.77388859  146.63699341    1.23000002    2.42000008
   11.77722168  157.66499329    1.23000002    2.42000008
   11.78333378  157.66499329    1.23000002    2.42000008
   11.78750038  143.86399841    1.23000002    2.42000008
   11.79083347  162.73300171    1.23000002    2.42000008
   11.79416752  160.35600281    1.23000002    2.42000008
   11.79722309  149.51800537    1.23000002    2.44000006
   11.80055618  159.15899658    1.23000002    2.42000008
   11.80361176  156.69200134    1.23000002    2.42000008
   11.80694485  172.94299316    1.23000002    2.42000008
   11.81027794  156.73399353    1.23000002    2.42000008
   11.81333351  169.62300110    1.26999998    2.42000008
   11.81555557  159.57400513    1.26999998    2.42000008
   11.81694412  170.61599731    1.26999998    2.42000008
   11.82027817  164.08900452    1.26999998    2.44000006
   11.82638836  164.08900452    1.26999998    2.44000006
   11.83027744  178.07200623    1.26999998    2.42000008
   11.83361053  166.58599854    1.26999998    2.42000008
   11.83694458  169.38299561    1.26999998    2.44000006
   11.84000015  176.74400330    1.26999998    2.42000008
   11.84333324  163.30299377    1.26999998    2.42000008
   11.84638882  175.01699829    1.25000000    2.44000006
   11.84888840  169.40299988    1.25000000    2.44000006
   11.85000038  170.76600647    1.26999998    2.44000006
   11.85333347  178.05900574    1.25000000    2.42000008
   11.85638905  173.57200623    1.25000000    2.44000006
   11.85972214  174.05799866    1.25000000    2.44000006
   11.86305618  176.42599487    1.26999998    2.44000006
   11.86916637  176.42599487    1.25000000    2.44000006
   11.87333393  187.85699463    1.23000002    2.46000004
   11.87638855  177.34899902    1.23000002    2.44000006
   11.87972260  161.61700439    1.23000002    2.46000004
   11.88222218  175.64999390    1.23000002    2.46000004
   11.88333321  170.85200500    1.23000002    2.46000004
   11.88666630  192.13000488    1.23000002    2.46000004
   11.88972187  176.90299988    1.23000002    2.46000004
   11.89305496  196.19700623    1.19000006    2.44000006
   11.89638901  201.55099487    1.19000006    2.44000006
   11.89944458  180.15699768    1.19000006    2.46000004
   11.90277767  181.80599976    1.19000006    2.46000004
   11.90583324  187.62100220    1.19000006    2.46000004
   11.91194439  187.62100220    1.14999998    2.46000004
   11.91611099  185.76100159    1.16999996    2.46000004
   11.91916656  178.94200134    1.14999998    2.46000004
   11.92250061  180.46000671    1.13000000    2.46000004
   11.92583370  183.22399902    1.11000001    2.46000004
   11.92888927  195.72399902    1.07000005    2.48000002
   11.93222237  184.89300537    1.05999994    2.46000004
   11.93555546  199.10299683    1.05999994    2.46000004
   11.93861103  198.47500610    1.05999994    2.46000004
   11.94194412  182.39999390    1.05999994    2.46000004
   11.94499969  194.52900696    1.05999994    2.46000004
   11.94833374  180.83799744    1.05999994    2.46000004
   11.94916630  183.43099976    1.05999994    2.48000002
   11.95472240  183.43099976    1.03999996    2.48000002
   11.95888901  185.64399719    1.03999996    2.48000002
   11.96222210  182.90199280    1.01999998    2.48000002
   11.96527767  184.11300659    1.01999998    2.48000002
   11.96861076  187.53500366    1.01999998    2.48000002
   11.97194386  176.93099976    1.03999996    2.48000002
   11.97499943  190.30299377    1.01999998    2.48000002
   11.97833252  182.55200195    1.03999996    2.48000002
   11.98138809  165.13900757    1.01999998    2.48000002
   11.98249912  182.72799683    1.01999998    2.48000002
   11.98500061  180.03599548    1.01999998    2.48000002
   11.98833370  191.26800537    1.01999998    2.48000002
   11.99138927  167.57200623    1.03999996    2.48000002
   11.99750042  167.57200623    1.03999996    2.48000002
   12.00166702  185.28700256    1.01999998    2.50000000
   12.00500011  184.51600647    1.01999998    2.48000002
   12.00833321  183.94200134    1.01999998    2.50000000
   12.01138878  175.68200684    1.01999998    2.50000000
   12.01472187  185.56300354    1.01999998    2.48000002
   12.01583290  186.80599976    1.01999998    2.50000000
   12.01833344  182.22200012    1.00000000    2.48000002
   12.02166653  183.62100220    1.00000000    2.50000000
   12.02472210  183.90600586    1.00000000    2.50000000
   12.02805519  177.26300049    1.00000000    2.48000002
   12.03138828  182.61900330    1.01999998    2.48000002
   12.03444481  188.26300049    1.01999998    2.50000000
   12.04055595  188.26300049    1.00000000    2.50000000
   12.04472256  184.00999451    1.01999998    2.50000000
   12.04777813  186.06500244    1.01999998    2.50000000
   12.04916668  182.55000305    1.00000000    2.50000000
   12.05138874  176.43200684    1.00000000    2.50000000
   12.05472279  174.87699890    1.01999998    2.50000000
   12.05777836  166.55799866    1.01999998    2.51999998
   12.06111145  172.06799316    1.01999998    2.50000000
   12.06444454  162.75300598    1.01999998    2.50000000
   12.06750011  174.73599243    1.01999998    2.51999998
   12.07083321  188.77400208    1.01999998    2.50000000
   12.07416630  178.53599548    1.01999998    2.50000000
   12.07722187  171.50300598    1.03999996    2.50000000
   12.08333302  171.50300598    1.03999996    2.50000000
   12.08749962  161.98599243    1.03999996    2.50000000
   12.09055519  177.81799316    1.05999994    2.50000000
   12.09388828  175.02799988    1.03999996    2.48000002
   12.09722233  178.02699280    1.03999996    2.50000000
   12.10027790  180.13200378    1.03999996    2.51999998
   12.10361195  172.85600281    1.03999996    2.51999998
   12.10694504  175.40100098    1.03999996    2.51999998
   12.11000061  180.74400330    1.01999998    2.51999998
   12.11333370  171.61199951    1.01999998    2.51999998
   12.11583328  169.74299622    1.01999998    2.51999998
   12.11694431  152.01199341    1.01999998    2.51999998
   12.12027836  182.35899353    1.01999998    2.51999998
   12.12611103  182.35899353    1.01999998    2.51999998
   12.13027763  171.55099487    1.01999998    2.51999998
   12.13361073  175.88499451    1.01999998    2.53999996
   12.13666630  168.99200439    1.03999996    2.51999998
   12.14000034  144.39399719    1.03999996    2.53999996
   12.14333344  172.26100159    1.03999996    2.51999998
   12.14638901  172.64799500    1.05999994    2.51999998
   12.14916611  164.57299805    1.03999996    2.51999998
   12.14999962  164.32699585    1.03999996    2.51999998
   12.15333271  175.26300049    1.03999996    2.51999998
   12.15638828  160.47200012    1.05999994    2.51999998
   12.15972137  174.33500671    1.03999996    2.51999998
   12.16305542  181.29100037    1.03999996    2.53999996
   12.16888905  181.29100037    1.05999994    2.53999996
   12.17305565  168.82899475    1.05999994    2.53999996
   12.17638874  176.42199707    1.05999994    2.51999998
   12.17972279  175.65100098    1.05999994    2.53999996
   12.18249989  166.92799377    1.05999994    2.53999996
   12.18305588  160.78300476    1.05999994    2.53999996
   12.18638897  163.86000061    1.03999996    2.53999996
   12.18944454  164.36700439    1.03999996    2.53999996
   12.19277763  173.58700562    1.03999996    2.53999996
   12.19611073  178.19700623    1.03999996    2.51999998
   12.19916630  169.44299316    1.03999996    2.53999996
   12.20249939  177.99800110    1.03999996    2.53999996
   12.20583344  159.69400024    1.03999996    2.51999998
   12.21194458  159.69400024    1.03999996    2.53999996
   12.21611118  162.41999817    1.03999996    2.53999996
   12.21916580  169.38999939    1.03999996    2.53999996
   12.22249985  163.61799622    1.03999996    2.53999996
   12.22583294  156.65800476    1.03999996    2.53999996
   12.22888851  166.88200378    1.03999996    2.53999996
   12.23222160  170.03599548    1.03999996    2.53999996
   12.23555565  176.25100708    1.03999996    2.53999996
   12.23861122  172.04100037    1.01999998    2.53999996
   12.24194431  162.26899719    1.01999998    2.53999996
   12.24527836  160.75799561    1.01999998    2.53999996
   12.24833393  160.08299255    1.01999998    2.53999996
   12.24916649  162.08500671    1.01999998    2.53999996
   12.25472260  162.08500671    1.01999998    2.53999996
   12.25888920  153.94099426    1.01999998    2.53999996
   12.26194477  159.53700256    1.03999996    2.53999996
   12.26527786  171.73699951    1.03999996    2.53999996
   12.26861095  154.59199524    1.03999996    2.53999996
   12.27166653  160.22700500    1.03999996    2.55999994
   12.27499962  170.93200684    1.03999996    2.53999996
   12.27833271  164.49400330    1.03999996    2.53999996
   12.28138828  160.00300598    1.03999996    2.53999996
   12.28249931  159.68699646    1.03999996    2.53999996
   12.28500080  162.40699768    1.01999998    2.53999996
   12.28833389  169.25300598    1.01999998    2.53999996
   12.29166698  156.55200195    1.01999998    2.55999994
   12.29750061  156.55200195    1.03999996    2.53999996
   12.30166721  162.49000549    1.01999998    2.55999994
   12.30500031  165.17300415    1.03999996    2.53999996
   12.30805588  167.50700378    1.01999998    2.55999994
   12.31138897  156.29600525    1.03999996    2.55999994
   12.31472206  156.94500732    1.03999996    2.55999994
   12.31583309  158.22599792    1.03999996    2.55999994
   12.31805515  148.67999268    1.03999996    2.55999994
   12.32138920  148.42799377    1.03999996    2.55999994
   12.32472229  161.03999329    1.03999996    2.55999994
   12.32777786  160.91400146    1.03999996    2.55999994
   12.33111095  159.02799988    1.03999996    2.55999994
   12.33416653  148.18499756    1.03999996    2.55999994
   12.34055519  148.18499756    1.03999996    2.55999994
   12.34444427  156.27999878    1.03999996    2.55999994
   12.34777737  157.99899292    1.03999996    2.55999994
   12.34916592  148.64999390    1.03999996    2.55999994
   12.35138893  159.14599609    1.03999996    2.55999994
   12.35472298  148.90800476    1.01999998    2.55999994
   12.35805607  165.94200134    1.01999998    2.57999992
   12.36111164  161.66499329    1.01999998    2.55999994
   12.36444473  163.81500244    1.01999998    2.55999994
   12.36750031  156.02400208    1.01999998    2.55999994
   12.37083340  159.63800049    1.01999998    2.57999992
   12.37416649  142.97999573    1.01999998    2.57999992
   12.37722206  146.49299622    1.01999998    2.57999992
   12.38333321  146.49299622    1.01999998    2.57999992
   12.38749981  147.48699951    1.01999998    2.57999992
   12.39055538  147.05599976    1.01999998    2.57999992
   12.39388847  151.53500366    1.03999996    2.55999994
   12.39722252  154.98500061    1.01999998    2.57999992
   12.40027714  156.16600037    1.01999998    2.57999992
   12.40361118  166.69900513    1.01999998    2.57999992
   12.40666676  164.24200439    1.01999998    2.57999992
   12.40999985  174.40199280    1.01999998    2.57999992
   12.41333294  160.32400513    1.00000000    2.57999992
   12.41583252  149.33000183    1.00000000    2.57999992
   12.41666698  169.36700439    0.98000002    2.57999992
   12.42000008  147.42900085    0.98000002    2.57999992
   12.42611122  147.42900085    0.98000002    2.57999992
   12.43027782  157.22300720    0.98000002    2.57999992
   12.43361092  156.15600586    0.95999998    2.57999992
   12.43666649  163.57400513    0.95999998    2.57999992
   12.44000053  166.90100098    0.95999998    2.57999992
   12.44305515  153.39700317    0.95999998    2.57999992
   12.44638920  155.52000427    0.95999998    2.57999992
   12.44916630  161.99000549    0.95999998    2.57999992
   12.44999981  160.74699402    0.95999998    2.57999992
   12.45333290  165.86399841    0.95999998    2.57999992
   12.45666695  171.22700500    0.95999998    2.57999992
   12.45972157  164.65400696    0.95999998    2.57999992
   12.46305561  164.20899963    0.95999998    2.57999992
   12.46888828  164.20899963    0.95999998    2.57999992
   12.47305489  167.60400391    0.95999998    2.57999992
   12.47638798  158.90499878    0.94000000    2.59999990
   12.47944355  169.18299866    0.95999998    2.57999992
   12.48249912  173.55700684    0.94000000    2.59999990
   12.48305511  165.02099609    0.94000000    2.59999990
   12.48638916  172.52799988    0.94000000    2.59999990
   12.48972225  175.29899597    0.94000000    2.59999990
   12.49277782  176.93800354    0.94000000    2.59999990
   12.49611092  160.91999817    0.94000000    2.59999990
   12.49916649  170.44900513    0.95999998    2.59999990
   12.50249958  173.18400574    0.95999998    2.59999990
   12.50583363  167.56300354    0.94000000    2.59999990
   12.51194477  167.56300354    0.95999998    2.59999990
   12.51583290  158.51600647    0.95999998    2.59999990
   12.51916599  170.01100159    0.95999998    2.59999990
   12.52250004  174.61700439    0.95999998    2.59999990
   12.52555561  167.49600220    0.95999998    2.61999989
   12.52888870  156.61099243    0.95999998    2.59999990
   12.53222179  169.47799683    0.95999998    2.59999990
   12.53527832  151.84199524    0.98000002    2.59999990
   12.53861141  166.07400513    0.98000002    2.59999990
   12.54166698  161.49099731    0.98000002    2.59999990
   12.54500008  157.83599854    0.98000002    2.59999990
   12.54833412  161.88699341    0.98000002    2.59999990
   12.54916668  149.20100403    0.98000002    2.59999990
   12.56972218  149.20100403    0.98000002    2.61999989
   12.57388878  163.87100220    0.95999998    2.61999989
   12.57722187  162.59599304    0.95999998    2.61999989
   12.58027744  164.35699463    0.95999998    2.61999989
   12.58249950  143.61599731    0.95999998    2.61999989
   12.58388901  168.48599243    0.95999998    2.61999989
   12.58722210  143.77499390    0.95999998    2.61999989
   12.59055519  142.14599609    0.95999998    2.59999990
   12.59361076  153.29200745    0.95999998    2.61999989
   12.59694386  160.96600342    0.95999998    2.59999990
   12.60027790  161.00599670    0.95999998    2.61999989
   12.60333347  155.71499634    0.95999998    2.64000010
   12.60666752  156.12199402    0.95999998    2.61999989
   12.61250019  156.12199402    0.95999998    2.61999989
   12.61666679  148.27999878    0.94000000    2.61999989
   12.61999989  153.49699402    0.94000000    2.61999989
   12.62305546  155.19799805    0.94000000    2.61999989
   12.62638855  169.42300415    0.92000002    2.61999989
   12.62972260  166.05499268    0.94000000    2.61999989
   12.63277817  166.42500305    0.92000002    2.61999989
   12.63611126  154.23699951    0.94000000    2.61999989
   12.63916683  159.49400330    0.92000002    2.61999989
   12.64249992  163.61999512    0.94000000    2.61999989
   12.64583302  169.44200134    0.92000002    2.61999989
   12.64888859  143.48199463    0.94000000    2.61999989
   12.64944458  158.58200073    0.94000000    2.61999989
   12.65527725  158.58200073    0.94000000    2.61999989
   12.65944386  154.29800415    0.95999998    2.61999989
   12.66277695  166.00700378    0.98000002    2.64000010
   12.66611099  162.76499939    0.98000002    2.64000010
   12.66916656  167.54299927    0.98000002    2.64000010
   12.67250061  174.70399475    1.00000000    2.61999989
   12.67555618  170.66799927    1.01999998    2.61999989
   12.67888927  174.83099365    1.01999998    2.61999989
   12.68222237  160.33099365    1.01999998    2.61999989
   12.68277836  166.73300171    1.01999998    2.61999989
   12.68583298  161.61999512    1.01999998    2.61999989
   12.68916702  164.34800720    1.01999998    2.61999989
   12.69222260  177.39100647    1.03999996    2.61999989
   12.69833374  177.39100647    1.03999996    2.61999989
   12.70249939  157.71699524    1.03999996    2.64000010
   12.70555496  152.67399597    1.03999996    2.61999989
   12.70888901  157.24299622    1.03999996    2.61999989
   12.71194458  154.72300720    1.03999996    2.64000010
   12.71527767  148.06700134    1.03999996    2.61999989
   12.71611118  161.00700378    1.03999996    2.61999989
   12.71888828  154.75300598    1.03999996    2.61999989
   12.72222137  150.85800171    1.03999996    2.61999989
   12.72527695  162.48599243    1.03999996    2.64000010
   12.72861099  144.80799866    1.03999996    2.61999989
   12.73166656  160.98500061    1.03999996    2.64000010
   12.73500061  159.90199280    1.01999998    2.64000010
   12.74111176  159.90199280    1.01999998    2.64000010
   12.74527836  169.02200317    1.00000000    2.64000010
   12.74833393  169.77299500    1.01999998    2.61999989
   12.74944496  160.25799561    1.01999998    2.64000010
   12.75222206  170.81199646    1.00000000    2.61999989
   12.75555515  160.97399902    1.00000000    2.64000010
   12.75861073  163.95599365    1.00000000    2.64000010
   12.76194477  167.69799805    1.00000000    2.64000010
   12.76500034  167.25000000    1.00000000    2.64000010
   12.76833344  161.44700623    0.98000002    2.64000010
   12.77166653  156.19900513    1.00000000    2.64000010
   12.77472210  163.80099487    0.98000002    2.61999989
   12.77805519  167.38600159    1.00000000    2.64000010
   12.78388977  167.38600159    1.00000000    2.64000010
   12.78805637  158.49400330    1.00000000    2.64000010
   12.79138947  161.42500305    1.00000000    2.64000010
   12.79444504  152.79899597    0.98000002    2.61999989
   12.79777813  145.82400513    0.98000002    2.64000010
   12.80111122  160.47099304    0.98000002    2.64000010
   12.80416679  162.38600159    0.98000002    2.64000010
   12.80749989  167.06399536    0.98000002    2.64000010
   12.81055546  161.56100464    0.98000002    2.64000010
   12.81388950  167.68299866    0.98000002    2.64000010
   12.81611156  162.45399475    0.98000002    2.64000010
   12.81750011  158.74200439    0.98000002    2.64000010
   12.82083321  167.50199890    0.98000002    2.66000009
   12.82666683  167.50199890    0.98000002    2.66000009
   12.83083344  155.40299988    0.98000002    2.66000009
   12.83416653  150.10000610    0.98000002    2.64000010
   12.83749962  157.33500671    0.95999998    2.64000010
   12.84055519  144.18899536    0.94000000    2.64000010
   12.84388828  159.19400024    0.94000000    2.64000010
   12.84694386  157.46899414    0.94000000    2.64000010
   12.84944439  153.40499878    0.92000002    2.66000009
   12.85083389  159.60499573    0.92000002    2.64000010
   12.85416698  157.28300476    0.92000002    2.64000010
   12.85722256  155.48500061    0.92000002    2.66000009
   12.86055565  146.95899963    0.89999998    2.64000010
   12.86361122  169.24000549    0.89999998    2.66000009
   12.86972237  169.24000549    0.89999998    2.64000010
   12.87388897  162.28799438    0.89999998    2.64000010
   12.87694454  150.44299316    0.89999998    2.66000009
   12.88027763  148.81399536    0.89999998    2.66000009
   12.88277817  156.72099304    0.89999998    2.66000009
   12.88388920  159.80700684    0.89999998    2.64000010
   12.88722229  122.15499878    0.89999998    2.64000010
   12.89027786  159.90199280    0.89999998    2.66000009
   12.89361095  152.52400208    0.89999998    2.66000009
   12.89666653  152.56199646    0.88000000    2.66000009
   12.89999962  152.64199829    0.88000000    2.66000009
   12.90333271  155.63400269    0.88000000    2.66000009
   12.90666676  164.27799988    0.88000000    2.66000009
   12.91249943  164.27799988    0.88000000    2.66000009
   12.91666698  156.19700623    0.88000000    2.66000009
   12.91972256  152.77699280    0.88000000    2.66000009
   12.92305565  150.28599548    0.86000001    2.64000010
   12.92638874  147.16400146    0.86000001    2.66000009
   12.92944431  149.19799805    0.86000001    2.66000009
   12.93277836  153.54499817    0.86000001    2.66000009
   12.93611145  148.59599304    0.86000001    2.66000009
   12.93916702  141.56500244    0.83999997    2.66000009
   12.94250011  155.85800171    0.81999999    2.66000009
   12.94555569  145.98199463    0.81999999    2.67000008
   12.94888878  147.73599243    0.81999999    2.66000009
   12.94944477  154.97999573    0.81999999    2.66000009
   12.95527744  154.97999573    0.81999999    2.66000009
   12.95944405  146.07000732    0.81999999    2.66000009
   12.96277714  148.22300720    0.80000001    2.66000009
   12.96583271  141.01400757    0.80000001    2.66000009
   12.96916580  147.96200562    0.80000001    2.66000009
   12.97249985  140.43600464    0.80000001    2.66000009
   12.97555542  149.85499573    0.80000001    2.67000008
   12.97888851  152.31900024    0.81999999    2.67000008
   12.98194408  147.13699341    0.80000001    2.66000009
   12.98277760  143.42799377    0.80000001    2.66000009
   12.98555565  149.48100281    0.80000001    2.66000009
   12.98888874  145.62199402    0.80000001    2.66000009
   12.99194431  152.77099609    0.80000001    2.67000008
   12.99805546  152.77099609    0.79000002    2.66000009
   13.00222206  146.65800476    0.79000002    2.66000009
   13.00555515  151.79899597    0.79000002    2.67000008
   13.00888920  156.69599915    0.79000002    2.67000008
   13.01194477  140.77699280    0.76999998    2.67000008
   13.01527786  148.96600342    0.76999998    2.67000008
   13.01611137  143.91900635    0.79000002    2.67000008
   13.01888847  147.43800354    0.76999998    2.67000008
   13.02222157  149.08599854    0.76999998    2.67000008
   13.02527714  151.11799622    0.76999998    2.67000008
   13.02861118  152.00100708    0.79000002    2.67000008
   13.03194427  152.75000000    0.76999998    2.67000008
   13.03500080  148.89100647    0.79000002    2.67000008
   13.04111195  148.89100647    0.79000002    2.67000008
   13.04500008  156.76800537    0.79000002    2.67000008
   13.04833412  145.36099243    0.76999998    2.67000008
   13.04972267  160.63200378    0.76999998    2.67000008
   13.05222225  159.79200745    0.76999998    2.67000008
   13.05527782  157.58799744    0.79000002    2.67000008
   13.05861092  157.66099548    0.76999998    2.67000008
   13.06194496  163.78100586    0.76999998    2.67000008
   13.06500053  163.18299866    0.76999998    2.67000008
   13.06833363  165.77400208    0.76999998    2.69000006
   13.07138920  156.11399841    0.76999998    2.66000009
   13.07472229  157.13400269    0.76999998    2.67000008
   13.07805538  158.79100037    0.76999998    2.67000008
   13.08388901  158.79100037    0.76999998    2.67000008
   13.08805561  156.48399353    0.76999998    2.69000006
   13.09111118  148.42100525    0.76999998    2.67000008
   13.09444427  155.20399475    0.76999998    2.67000008
   13.09777737  166.91700745    0.76999998    2.67000008
   13.10083389  147.95100403    0.76999998    2.69000006
   13.10416698  154.40400696    0.76999998    2.67000008
   13.10750008  154.94299316    0.76999998    2.67000008
   13.11055565  154.90600586    0.75000000    2.67000008
   13.11388969  140.98899841    0.76999998    2.67000008
   13.11611176  147.69599915    0.76999998    2.69000006
   13.11750031  152.62500000    0.76999998    2.69000006
   13.12083340  154.45100403    0.76999998    2.67000008
   13.12666702  154.45100403    0.76999998    2.67000008
   13.13083363  152.66200256    0.76999998    2.67000008
   13.13416672  150.71000671    0.75000000    2.67000008
   13.13722229  160.43499756    0.75000000    2.69000006
   13.14055538  154.95500183    0.75000000    2.69000006
   13.14388847  157.70700073    0.75000000    2.67000008
   13.14694405  164.25300598    0.76999998    2.67000008
   13.14944458  157.76100159    0.75000000    2.69000006
   13.15055561  167.19700623    0.75000000    2.69000006
   13.15388870  155.29899597    0.75000000    2.69000006
   13.15694427  158.72000122    0.75000000    2.67000008
   13.16027737  158.20500183    0.75000000    2.69000006
   13.16361046  163.55099487    0.75000000    2.69000006
   13.16944504  163.55099487    0.73000002    2.69000006
   13.17361164  164.97000122    0.73000002    2.69000006
   13.17694473  155.37899780    0.73000002    2.69000006
   13.18000031  156.28799438    0.75000000    2.69000006
   13.18277836  148.63900757    0.75000000    2.69000006
   13.18361092  162.62800598    0.75000000    2.69000006
   13.18694496  166.12100220    0.75000000    2.69000006
   13.19000053  158.28900146    0.73000002    2.69000006
   13.19333363  151.61999512    0.73000002    2.69000006
   13.19666672  169.04600525    0.73000002    2.69000006
   13.19972229  145.90600586    0.73000002    2.69000006
   13.20305538  164.85699463    0.73000002    2.69000006
   13.20611095  161.85800171    0.73000002    2.69000006
   13.21249962  161.85800171    0.70999998    2.69000006
   13.21666622  158.07499695    0.70999998    2.69000006
   13.21972179  146.65199280    0.70999998    2.69000006
   13.22305489  148.03399658    0.70999998    2.69000006
   13.22611046  157.56399536    0.69000000    2.71000004
   13.22944355  144.17100525    0.69000000    2.69000006
   13.23277760  138.95700073    0.69000000    2.69000006
   13.23583317  148.30200195    0.69000000    2.69000006
   13.23916721  165.67999268    0.69000000    2.71000004
   13.24250031  153.84899902    0.69000000    2.69000006
   13.24555588  145.27000427    0.69000000    2.69000006
   13.24888897  160.56300354    0.69000000    2.69000006
   13.24944496  147.60099792    0.69000000    2.69000006
   13.25527763  147.60099792    0.70999998    2.69000006
   13.25944424  156.70599365    0.69000000    2.69000006
   13.26249981  144.80099487    0.70999998    2.69000006
   13.26583290  163.12199402    0.69000000    2.71000004
   13.26916599  163.36900330    0.69000000    2.69000006
   13.27222157  163.63900757    0.69000000    2.69000006
   13.27555561  167.02000427    0.67000002    2.71000004
   13.27888870  169.45300293    0.67000002    2.71000004
   13.28194427  159.74699402    0.67000002    2.69000006
   13.28277779  168.91700745    0.67000002    2.69000006
   13.28555584  159.21499634    0.69000000    2.69000006
   13.28888893  147.71800232    0.69000000    2.71000004
   13.29194450  165.88299561    0.67000002    2.69000006
   13.29805565  165.88299561    0.64999998    2.69000006
   13.30222225  156.10400391    0.64999998    2.71000004
   13.30555534  212.08799744    0.64999998    2.71000004
   13.30861092  177.10299683    0.67000002    2.71000004
   13.31194496  213.36700439    0.64999998    2.71000004
   13.31500053  200.48300171    0.64999998    2.71000004
   13.31611156  193.28799438    0.67000002    2.69000006
   13.31861115  181.92999268    0.64999998    2.69000006
   13.32194424  174.87399292    0.64999998    2.71000004
   13.32499981  192.25599670    0.64999998    2.71000004
   13.32833290  205.21499634    0.67000002    2.71000004
   13.33166695  210.87800598    0.64999998    2.71000004
   13.33472157  189.16099548    0.64999998    2.71000004
   13.34083271  189.16099548    0.64999998    2.71000004
   13.34499931  190.25500488    0.64999998    2.69000006
   13.34833336  162.69700623    0.64999998    2.71000004
   13.34972191  196.69700623    0.64999998    2.71000004
   13.35194492  189.15499878    0.67000002    2.71000004
   13.35527802  188.10499573    0.67000002    2.71000004
   13.35833359  194.38900757    0.67000002    2.71000004
   13.36166668  185.40400696    0.67000002    2.71000004
   13.36500072  170.41099548    0.67000002    2.71000004
   13.36805534  217.63999939    0.67000002    2.71000004
   13.37138939  190.15600586    0.67000002    2.71000004
   13.37472248  185.51400757    0.67000002    2.71000004
   13.37777805  167.41400146    0.64999998    2.69000006
   13.38388920  167.41400146    0.64999998    2.69000006
   13.38777733  173.12600708    0.67000002    2.71000004
   13.39111137  176.00100708    0.64999998    2.73000002
   13.39444447  169.16000366    0.64999998    2.71000004
   13.39750004  170.29800415    0.64999998    2.73000002
   13.40083313  158.78799438    0.64999998    2.71000004
   13.40416622  177.69000244    0.64999998    2.71000004
   13.40722179  172.87899780    0.64999998    2.71000004
   13.41055489  169.75500488    0.64999998    2.71000004
   13.41388893  180.31700134    0.67000002    2.71000004
   13.41638851  167.31399536    0.67000002    2.71000004
   13.41750050  165.00300598    0.67000002    2.71000004
   13.42083359  181.53599548    0.67000002    2.71000004
   13.42666721  181.53599548    0.69000000    2.71000004
   13.43083382  179.33000183    0.67000002    2.71000004
   13.43388939  157.25199890    0.67000002    2.71000004
   13.43722248  179.86799622    0.67000002    2.71000004
   13.44055557  161.60499573    0.69000000    2.71000004
   13.44388866  169.60800171    0.67000002    2.71000004
   13.44694424  166.18600464    0.67000002    2.73000002
   13.44972229  156.94400024    0.67000002    2.71000004
   13.45055580  160.50500488    0.67000002    2.71000004
   13.45388889  163.49899292    0.69000000    2.71000004
   13.45722198  171.29299927    0.69000000    2.71000004
   13.46027756  145.63999939    0.64999998    2.73000002
   13.46361065  160.91299438    0.64999998    2.69000006
   13.46944427  160.91299438    0.63000000    2.71000004
   13.47361088  160.83799744    0.63000000    2.71000004
   13.47694397  159.22099304    0.63000000    2.71000004
   13.47999954  159.16400146    0.63000000    2.73000002
   13.48305511  156.00199890    0.64999998    2.71000004
   13.48361111  150.29100037    0.64999998    2.71000004
   13.48694515  148.43299866    0.64999998    2.71000004
   13.49027824  153.47099304    0.64999998    2.69000006
   13.49333382  155.99600220    0.64999998    2.71000004
   13.49666691  159.74800110    0.64999998    2.71000004
   13.49972248  144.90299988    0.64999998    2.73000002
   13.50305557  150.34700012    0.67000002    2.71000004
   13.50638866  159.32699585    0.67000002    2.73000002
   13.51222229  159.32699585    0.69000000    2.71000004
   13.51638889  141.98199463    0.67000002    2.71000004
   13.51972198  143.12699890    0.69000000    2.71000004
   13.52277756  130.01600647    0.67000002    2.73000002
   13.52611065  132.54200745    0.69000000    2.73000002
   13.52944374  129.83999634    0.69000000    2.73000002
   13.53249931  119.86100006    0.69000000    2.71000004
   13.53583336  130.71099854    0.69000000    2.71000004
   13.53916740  128.77999878    0.69000000    2.71000004
   13.54222298  130.09800720    0.69000000    2.73000002
   13.54555607  141.45700073    0.69000000    2.69000006
   13.54861164  132.08999634    0.67000002    2.73000002
   13.54972267  137.47799683    0.67000002    2.73000002
   13.55527782  137.47799683    0.67000002    2.73000002
   13.55916691  138.49400330    0.67000002    2.71000004
   13.56250000  141.87100220    0.67000002    2.71000004
   13.56583309  148.11799622    0.67000002    2.71000004
   13.58333302  135.64700317    0.69000000    2.73000002
   13.58583260  142.88099670    0.67000002    2.73000002
   13.58888817  144.85600281    0.67000002    2.71000004
   13.59222221  140.41600037    0.67000002    2.73000002
   13.59805489  140.41600037    0.67000002    2.73000002
   13.60222244  133.46200562    0.67000002    2.73000002
   13.60555553  124.11199951    0.64999998    2.73000002
   13.60861111  138.47399902    0.64999998    2.73000002
   13.61194515  136.19200134    0.64999998    2.71000004
   13.61527824  144.86900330    0.64999998    2.73000002
   13.61666679  141.24699402    0.64999998    2.73000002
   13.61861134  137.91600037    0.64999998    2.73000002
   13.62194443  147.79699707    0.64999998    2.73000002
   13.62527752  143.28999329    0.64999998    2.73000002
   13.62833309  137.14900208    0.63000000    2.71000004
   13.63166714  146.96000671    0.63000000    2.75000000
   13.63472176  136.02999878    0.63000000    2.75000000
   13.64111137  136.02999878    0.63000000    2.73000002
   13.64527798  149.10299683    0.63000000    2.73000002
   13.64833355  148.00300598    0.63000000    2.73000002
   13.64999962  146.89100647    0.63000000    2.73000002
   13.65194416  148.70899963    0.63000000    2.73000002
   13.65527725  133.77000427    0.63000000    2.73000002
   13.65861034  144.38999939    0.63000000    2.73000002
   13.66166592  138.07099915    0.63000000    2.73000002
   13.66499996  138.96000671    0.63000000    2.73000002
   13.66805553  146.47999573    0.63000000    2.73000002
   13.67138958  137.46299744    0.63000000    2.73000002
   13.67444515  140.37500000    0.63000000    2.73000002
   13.67777824  136.38200378    0.63000000    2.73000002
   13.68388939  136.38200378    0.63000000    2.73000002
   13.68805599  143.16900635    0.63000000    2.75000000
   13.69111156  148.06399536    0.63000000    2.75000000
   13.69444466  145.76100159    0.63000000    2.75000000
   13.69750023  135.20500183    0.63000000    2.75000000
   13.70083332  135.02099609    0.63000000    2.75000000
   13.70416641  143.19700623    0.63000000    2.73000002
   13.70722198  144.68099976    0.63000000    2.73000002
   13.71055508  134.48899841    0.63000000    2.73000002
   13.71361065  150.76100159    0.63000000    2.73000002
   13.71666622  148.86900330    0.63000000    2.75000000
   13.71722221  136.24699402    0.63000000    2.75000000
   13.72055531  139.24299622    0.63000000    2.75000000
   13.72666645  139.24299622    0.63000000    2.73000002
   13.73083305  146.81300354    0.63000000    2.73000002
   13.73416710  146.09899902    0.63000000    2.73000002
   13.73722267  141.70399475    0.63000000    2.73000002
   13.74055576  135.83000183    0.63000000    2.73000002
   13.74361134  141.89999390    0.63000000    2.73000002
   13.74694443  137.88200378    0.63000000    2.75000000
   13.75000000  138.15400696    0.63000000    2.75000000
   13.75083351  143.15499878    0.63000000    2.75000000
   13.75388908  132.57400513    0.61000001    2.75000000
   13.75722218  147.30200195    0.61000001    2.73000002
   13.76027775  138.63699341    0.61000001    2.73000002
   13.76361084  140.21699524    0.63000000    2.75000000
   13.76944447  140.21699524    0.63000000    2.73000002
   13.77361107  140.19799805    0.61000001    2.73000002
   13.77694416  140.39900208    0.61000001    2.73000002
   13.77999973  133.95500183    0.61000001    2.75000000
   13.78333378  136.48800659    0.61000001    2.75000000
   13.78361130  136.40600586    0.61000001    2.73000002
   13.78694534  131.83999634    0.61000001    2.75000000
   13.79027843  131.71800232    0.63000000    2.73000002
   13.79333401  120.82499695    0.63000000    2.75000000
   13.79666710  133.26100159    0.63000000    2.75000000
   13.79972267  139.60000610    0.61000001    2.73000002
   13.80305576  136.99200439    0.61000001    2.75000000
   13.80611134  139.32899475    0.61000001    2.75000000
   13.81250000  139.32899475    0.61000001    2.73000002
   13.81666660  147.16700745    0.61000001    2.75000000
   13.81694412  141.14500427    0.61000001    2.73000002
   13.82027817  132.22399902    0.61000001    2.75000000
   13.82361126  120.50000000    0.61000001    2.75000000
   13.82666683  139.59199524    0.61000001    2.75000000
   13.82999992  133.19900513    0.61000001    2.75000000
   13.83305550  129.18899536    0.61000001    2.75000000
   13.83638859  128.11000061    0.61000001    2.75000000
   13.83972168  141.08999634    0.61000001    2.75000000
   13.84277725  129.72700500    0.61000001    2.75000000
   13.84611034  135.02900696    0.61000001    2.75000000
   13.84916592  135.48199463    0.61000001    2.75000000
   13.85000038  135.13999939    0.61000001    2.75000000
   13.85527802  135.13999939    0.61000001    2.75000000
   13.85944462  149.25599670    0.61000001    2.75000000
   13.86250019  136.05700684    0.61000001    2.76999998
   13.86583328  130.65199280    0.61000001    2.75000000
   13.86916637  130.92300415    0.61000001    2.75000000
   13.87222195  137.11399841    0.61000001    2.75000000
   13.87555599  141.00900269    0.61000001    2.75000000
   13.87861156  129.33700562    0.63000000    2.73000002
   13.88194466  139.12300110    0.63000000    2.73000002
   13.88333321  149.01600647    0.61000001    2.75000000
   13.88583279  132.72500610    0.61000001    2.75000000
   13.88888836  136.35600281    0.61000001    2.73000002
   13.89222240  135.58900452    0.63000000    2.73000002
   13.89805508  135.58900452    0.61000001    2.75000000
   13.90222168  133.89700317    0.61000001    2.75000000
   13.90555477  150.92999268    0.61000001    2.75000000
   13.90861034  141.22700500    0.61000001    2.76999998
   13.91194439  144.24800110    0.63000000    2.75000000
   13.91499996  145.29499817    0.61000001    2.75000000
   13.91666698  138.61999512    0.61000001    2.75000000
   13.91861153  141.30000305    0.61000001    2.75000000
   13.92194462  146.89300537    0.63000000    2.75000000
   13.92527771  148.99699402    0.61000001    2.75000000
   13.92833328  138.16600037    0.61000001    2.75000000
   13.93166733  146.98199463    0.61000001    2.73000002
   13.93500042  136.84599304    0.61000001    2.75000000
   13.94083309  136.84599304    0.61000001    2.75000000
   13.94499969  150.19299316    0.61000001    2.75000000
   13.94833374  149.02600098    0.63000000    2.76999998
   13.94999981  123.35700226    0.61000001    2.75000000
   13.95194435  147.51600647    0.61000001    2.75000000
   13.95499992  148.44700623    0.63000000    2.76999998
   13.95833302  139.20300293    0.61000001    2.76999998
   13.96138859  144.32000732    0.61000001    2.78999996
   13.96472168  150.04899597    0.61000001    2.75000000
   13.96805477  136.54800415    0.61000001    2.75000000
   13.97111034  144.21499634    0.61000001    2.76999998
   13.97444439  136.23399353    0.61000001    2.76999998
   13.97749996  143.49200439    0.61000001    2.75000000
   13.98388958  143.49200439    0.61000001    2.76999998
   13.98805618  142.26699829    0.61000001    2.76999998
   13.99111176  134.18899536    0.61000001    2.75000000
   13.99444485  154.52200317    0.61000001    2.76999998
   13.99750042  144.21699524    0.61000001    2.75000000
   14.00083351  142.89999390    0.61000001    2.75000000
   14.00416660  134.68499756    0.61000001    2.76999998
   14.00722218  138.07299805    0.61000001    2.75000000
   14.01055527  133.42599487    0.61000001    2.75000000
   14.01388931  137.97200012    0.61000001    2.76999998
   14.01666641  140.19700623    0.61000001    2.76999998
   14.01749992  142.82299805    0.61000001    2.75000000
   14.02055550  147.95199585    0.67000002    2.75000000
   14.02666664  147.95199585    0.75000000    2.76999998
   14.03083324  142.76199341    0.67000002    2.76999998
   14.03388977  140.04800415    0.64999998    2.75000000
   14.03722286  140.43800354    0.64999998    2.75000000
   14.04055595  131.43699646    0.64999998    2.75000000
   14.04361153  133.53999329    0.63000000    2.76999998
   14.04694462  133.43800354    0.63000000    2.76999998
   14.05000019  141.66299438    0.63000000    2.75000000
   14.05055618  136.04699707    0.63000000    2.76999998
   14.05361176  147.87600708    0.63000000    2.75000000
   14.05694485  134.75900269    0.63000000    2.75000000
   14.06000042  145.77099609    0.63000000    2.75000000
   14.06333351  130.36199951    0.61000001    2.76999998
   14.06944466  130.36199951    0.63000000    2.75000000
   14.07361126  142.97799683    0.63000000    2.78999996
   14.07694435  134.86999512    0.63000000    2.76999998
   14.07999992  131.65800476    0.61000001    2.76999998
   14.08333302  144.25599670    0.63000000    2.76999998
   14.08388901  139.56900024    0.63000000    2.75000000
   14.08694458  132.87399292    0.63000000    2.76999998
   14.09027767  141.33900452    0.63000000    2.76999998
   14.09333324  134.60400391    0.63000000    2.75000000
   14.09666634  140.49699402    0.63000000    2.75000000
   14.10000038  128.95599365    0.64999998    2.75000000
   14.10305595  140.18499756    0.64999998    2.75000000
   14.10638905  141.67700195    0.64999998    2.76999998
   14.11222267  141.67700195    0.63000000    2.75000000
   14.11638927  132.47099304    0.63000000    2.76999998
   14.11694431  151.13699341    0.63000000    2.76999998
   14.12027836  136.37800598    0.63000000    2.75000000
   14.12361145  151.72999573    0.63000000    2.76999998
   14.12666702  150.98300171    0.63000000    2.75000000
   14.13000011  153.92799377    0.63000000    2.76999998
   14.13305569  149.02799988    0.63000000    2.75000000
   14.13638878  139.22799683    0.63000000    2.75000000
   14.13972187  140.28599548    0.63000000    2.76999998
   14.14277744  137.20300293    0.63000000    2.75000000
   14.14611053  150.43899536    0.63000000    2.76999998
   14.14916611  144.09300232    0.63000000    2.76999998
   14.15027714  133.36999512    0.63000000    2.76999998
   14.15527725  133.36999512    0.63000000    2.76999998
   14.15944386  166.12600708    0.63000000    2.75000000
   14.16249943  144.03700256    0.63000000    2.76999998
   14.16583252  166.17199707    0.63000000    2.76999998
   14.16888905  152.77999878    0.63000000    2.76999998
   14.17222214  155.20700073    0.63000000    2.76999998
   14.17555618  156.22900391    0.63000000    2.78999996
   14.17888927  176.84199524    0.63000000    2.76999998
   14.18194485  142.04100037    0.63000000    2.76999998
   14.18361092  176.91499329    0.64999998    2.76999998
   14.18555546  142.97599792    0.64999998    2.76999998
   14.18888855  178.99400330    0.64999998    2.75000000
   14.19194412  175.52999878    0.64999998    2.75000000
   14.19805527  175.52999878    0.64999998    2.76999998
   14.20222187  169.74000549    0.64999998    2.78999996
   14.20527744  176.45100403    0.64999998    2.78999996
   14.20861053  169.77600098    0.64999998    2.78999996
   14.21194458  178.51600647    0.64999998    2.76999998
   14.21500015  154.08799744    0.64999998    2.76999998
   14.21694374  176.77699280    0.64999998    2.76999998
   14.21861076  162.08799744    0.63000000    2.76999998
   14.22166634  161.69200134    0.63000000    2.76999998
   14.22499943  148.39500427    0.63000000    2.76999998
   14.22833252  163.70500183    0.61000001    2.76999998
   14.23138809  149.55200195    0.63000000    2.78999996
   14.23472214  145.14199829    0.61000001    2.76999998
   14.24083328  145.14199829    0.58999997    2.78999996
   14.24499989  161.61500549    0.58999997    2.76999998
   14.24833393  140.77200317    0.58999997    2.78999996
   14.25027752  146.63400269    0.56999999    2.76999998
   14.25194454  135.13299561    0.56999999    2.78999996
   14.25527763  145.16099548    0.58999997    2.78999996
   14.25833321  139.19299316    0.56999999    2.78999996
   14.26166630  160.03300476    0.56999999    2.78999996
   14.26472187  138.43200684    0.56999999    2.76999998
   14.26805496  146.42900085    0.55000001    2.76999998
   14.27138901  158.64199829    0.55000001    2.78999996
   14.27444458  149.28799438    0.56999999    2.76999998
   14.27777767  138.61399841    0.56999999    2.78999996
   14.28361130  138.61399841    0.56999999    2.76999998
   14.28777790  153.30999756    0.55000001    2.78999996
   14.29111195  151.81100464    0.56999999    2.76999998
   14.29444504  154.97900391    0.56999999    2.78999996
   14.29750061  154.77099609    0.56999999    2.76999998
   14.30083370  163.06300354    0.56999999    2.78999996
   14.30388927  161.91299438    0.55000001    2.76999998
   14.30722237  152.31700134    0.55000001    2.78999996
   14.31055546  139.41700745    0.55000001    2.76999998
   14.31361103  152.43400574    0.55000001    2.78999996
   14.31694412  136.63499451    0.55000001    2.76999998
   14.31888866  149.16999817    0.55000001    2.78999996
   14.32055569  146.86000061    0.55000001    2.78999996
   14.32666683  146.86000061    0.55000001    2.76999998
   14.33083344  135.62699890    0.56999999    2.76999998
   14.33388901  146.47700500    0.56999999    2.76999998
   14.33722210  158.13800049    0.56999999    2.76999998
   14.34027767  147.38699341    0.56999999    2.76999998
   14.34361076  154.25000000    0.58999997    2.78999996
   14.34694386  136.68899536    0.58999997    2.78999996
   14.35000038  138.78100586    0.56999999    2.78999996
   14.35222244  155.85600281    0.56999999    2.78999996
   14.35361195  154.86900330    0.56999999    2.76999998
   14.35694504  143.95899963    0.56999999    2.78999996
   14.36000061  159.66700745    0.56999999    2.78999996
   14.36333370  155.42300415    0.56999999    2.78999996
   14.36944485  155.42300415    0.56999999    2.78999996
   14.37361145  139.11500549    0.56999999    2.78999996
   14.37666702  156.66000366    0.56999999    2.76999998
   14.38000011  140.82699585    0.55000001    2.78999996
   14.38333321  145.61199951    0.55000001    2.76999998
   14.38555527  134.49899292    0.56999999    2.76999998
   14.38694477  134.98800659    0.56999999    2.76999998
   14.39027786  150.60600281    0.56999999    2.78999996
   14.39333344  156.83000183    0.56999999    2.78999996
   14.39666653  147.42900085    0.55000001    2.76999998
   14.39972210  142.73199463    0.56999999    2.78999996
   14.40305519  140.14199829    0.55000001    2.78999996
   14.40638828  165.29100037    0.56999999    2.78999996
   14.41222191  165.29100037    0.55000001    2.78999996
   14.41638851  139.39799500    0.55000001    2.76999998
   14.41888905  149.38999939    0.55000001    2.78999996
   14.42000008  128.71000671    0.55000001    2.78999996
   14.42305565  148.41600037    0.55000001    2.78999996
   14.42638874  145.67199707    0.55000001    2.78999996
   14.42972279  164.29200745    0.55000001    2.78999996
   14.43277836  140.29499817    0.56999999    2.78999996
   14.43611145  144.36199951    0.55000001    2.78999996
   14.43944454  150.97599792    0.55000001    2.78999996
   14.44250011  150.53399658    0.55000001    2.78999996
   14.44583321  147.26199341    0.55000001    2.78999996
   14.44916630  151.23399353    0.55000001    2.78999996
   14.45499992  151.23399353    0.55000001    2.76999998
   14.45916653  151.17799377    0.55000001    2.78999996
   14.46249962  160.48800659    0.55000001    2.78999996
   14.46555519  141.03999329    0.55000001    2.78999996
   14.46888828  136.77499390    0.55000001    2.78999996
   14.47222137  136.37300110    0.55000001    2.78999996
   14.47527695  142.08500671    0.55000001    2.76999998
   14.47861099  144.55599976    0.55000001    2.76999998
   14.48194408  137.11000061    0.55000001    2.76999998
   14.48500061  145.28300476    0.55000001    2.80999994
   14.48611164  140.69599915    0.55000001    2.80999994
   14.48861122  131.35200500    0.55000001    2.78999996
   14.49194431  165.48800659    0.55000001    2.78999996
   14.49805546  165.48800659    0.55000001    2.78999996
   14.50222206  147.63099670    0.55000001    2.80999994
   14.50527763  148.83399963    0.55000001    2.78999996
   14.50861073  134.68400574    0.55000001    2.78999996
   14.51194477  152.11099243    0.55000001    2.78999996
   14.51500034  147.09500122    0.52999997    2.78999996
   14.51833344  129.64100647    0.55000001    2.78999996
   14.51944447  131.17900085    0.55000001    2.78999996
   14.52194405  135.41900635    0.55000001    2.78999996
   14.52527714  163.38600159    0.55000001    2.78999996
   14.52861118  159.68400574    0.55000001    2.80999994
   14.53166676  137.12600708    0.55000001    2.78999996
   14.53500080  155.22399902    0.56999999    2.78999996
   14.54083347  155.22399902    0.56999999    2.78999996
   14.54500008  146.83399963    0.56999999    2.78999996
   14.54805565  132.94500732    0.58999997    2.78999996
   14.55138874  139.27200317    0.58999997    2.80999994
   14.55277824  142.50500488    0.58999997    2.78999996
   14.55500031  141.41600037    0.58999997    2.80999994
   14.55833340  148.16099548    0.58999997    2.78999996
   14.56138897  138.01199341    0.58999997    2.78999996
   14.56472206  149.72000122    0.58999997    2.78999996
   14.56805515  154.50900269    0.56999999    2.78999996
   14.57111073  141.47799683    0.56999999    2.78999996
   14.57444477  137.14900208    0.55000001    2.78999996
   14.57750034  134.91799927    0.56999999    2.78999996
   14.58361053  134.91799927    0.56999999    2.76999998
   14.60194492  133.40299988    0.61000001    2.80999994
   14.60527802  147.11999512    0.61000001    2.78999996
   14.60861111  151.77999878    0.61000001    2.78999996
   14.61166668  139.64599609    0.58999997    2.80999994
   14.61500072  145.75500488    0.58999997    2.78999996
   14.61805534  140.54499817    0.58999997    2.78999996
   14.62138939  153.52400208    0.61000001    2.78999996
   14.62666702  153.52400208    0.58999997    2.78999996
   14.63083363  145.35600281    0.58999997    2.78999996
   14.63416672  142.46200562    0.58999997    2.78999996
   14.63500023  139.65400696    0.58999997    2.78999996
   14.63777733  134.97399902    0.58999997    2.78999996
   14.64111137  141.29699707    0.61000001    2.78999996
   14.64416695  129.58200073    0.61000001    2.78999996
   14.64750004  134.85400391    0.61000001    2.78999996
   14.65055561  133.84399414    0.61000001    2.80999994
   14.65388870  148.73199463    0.64999998    2.78999996
   14.65722179  128.40800476    0.64999998    2.78999996
   14.66027737  143.02400208    0.64999998    2.78999996
   14.66361046  150.83200073    0.67000002    2.78999996
   14.66944504  150.83200073    0.67000002    2.78999996
   14.67361164  153.21200562    0.67000002    2.78999996
   14.67694473  148.24000549    0.69000000    2.78999996
   14.68027782  141.56900024    0.69000000    2.78999996
   14.68333340  157.87300110    0.69000000    2.78999996
   14.68666649  145.10000610    0.69000000    2.78999996
   14.69000053  144.60099792    0.69000000    2.78999996
   14.69305515  142.15899658    0.70999998    2.78999996
   14.69638920  126.78700256    0.70999998    2.78999996
   14.69972229  139.94200134    0.75000000    2.78999996
   14.70166683  154.01100159    0.76999998    2.78999996
   14.70333290  146.38000488    0.76999998    2.78999996
   14.70666695  148.88099670    0.76999998    2.78999996
   14.71249962  148.88099670    0.75000000    2.80999994
   14.71666622  137.13099670    0.75000000    2.78999996
   14.71972179  128.84300232    0.73000002    2.80999994
   14.72305489  132.43699646    0.73000002    2.78999996
   14.72611046  136.45100403    0.73000002    2.78999996
   14.72944355  138.04200745    0.73000002    2.78999996
   14.73277760  138.61599731    0.73000002    2.80999994
   14.73500061  144.60699463    0.73000002    2.80999994
   14.73638916  163.73800659    0.73000002    2.78999996
   14.73972225  138.53100586    0.70999998    2.80999994
   14.74277782  166.13900757    0.73000002    2.80999994
   14.74611092  132.74499512    0.70999998    2.78999996
   14.74944496  137.35000610    0.70999998    2.78999996
   14.75527763  137.35000610    0.70999998    2.78999996
   14.75944424  137.60400391    0.79000002    2.78999996
   14.76249981  153.64999390    0.79000002    2.78999996
   14.76583290  135.21699524    0.80000001    2.76999998
   14.76833344  136.73300171    0.79000002    2.78999996
   14.76944447  144.79899597    0.79000002    2.78999996
   14.77277756  154.10600281    0.73000002    2.78999996
   14.77583313  145.58200073    0.73000002    2.78999996
   14.77916622  146.76699829    0.69000000    2.78999996
   14.78249931  131.36700439    0.67000002    2.82999992
   14.78555584  141.57200623    0.64999998    2.78999996
   14.78888893  137.77400208    0.67000002    2.80999994
   14.79222298  137.55599976    0.67000002    2.80999994
   14.79805565  137.55599976    0.67000002    2.78999996
   14.80249977  148.46099854    0.67000002    2.80999994
   14.80555534  143.35800171    0.67000002    2.78999996
   14.80888939  130.68600464    0.64999998    2.78999996
   14.81222248  134.98100281    0.64999998    2.80999994
   14.81527805  131.90199280    0.64999998    2.78999996
   14.81861115  153.02799988    0.64999998    2.78999996
   14.82166672  137.23599243    0.64999998    2.80999994
   14.82499981  141.18400574    0.64999998    2.78999996
   14.82833290  132.73899841    0.64999998    2.78999996
   14.83138847  133.77299500    0.64999998    2.82999992
   14.83472157  134.13000488    0.64999998    2.80999994
   14.83527756  136.95799255    0.64999998    2.80999994
   14.84083271  136.95799255    0.64999998    2.78999996
   14.84499931  155.34599304    0.64999998    2.80999994
   14.84833336  140.21299744    0.64999998    2.80999994
   14.85166740  142.24400330    0.64999998    2.80999994
   14.85472298  153.35800171    0.64999998    2.80999994
   14.85805607  134.24400330    0.64999998    2.78999996
   14.86111164  148.53999329    0.63000000    2.80999994
   14.86444473  145.25100708    0.63000000    2.80999994
   14.86777782  130.72399902    0.64999998    2.80999994
   14.86861134  161.14399719    0.64999998    2.80999994
   14.87138939  141.97599792    0.64999998    2.80999994
   14.87444496  135.02299500    0.64999998    2.78999996
   14.87777805  120.50099945    0.64999998    2.78999996
   14.88388920  120.50099945    0.64999998    2.82999992
   14.88777733  138.42599487    0.63000000    2.80999994
   14.89111137  136.50500488    0.64999998    2.80999994
   14.89444447  160.97900391    0.63000000    2.78999996
   14.89750004  149.28399658    0.63000000    2.80999994
   14.90111065  147.53999329    0.63000000    2.80999994
   14.90194416  143.62399292    0.63000000    2.80999994
   14.90472221  140.29499817    0.61000001    2.78999996
   14.90777779  145.73399353    0.61000001    2.80999994
   14.91111088  130.45399475    0.61000001    2.80999994
   14.91416645  122.86499786    0.61000001    2.80999994
   14.91750050  138.29800415    0.61000001    2.78999996
   14.92083359  127.08899689    0.63000000    2.80999994
   14.92666721  127.08899689    0.61000001    2.80999994
   14.93083382  140.79100037    0.58999997    2.80999994
   14.93388939  125.44100189    0.61000001    2.80999994
   14.93527794  143.93200684    0.61000001    2.80999994
   14.93777752  126.14800262    0.61000001    2.78999996
   14.94083309  139.71499634    0.61000001    2.80999994
   14.94416714  148.38299561    0.61000001    2.82999992
   14.94750023  140.67599487    0.61000001    2.80999994
   14.95055580  137.53100586    0.63000000    2.82999992
   14.95388889  144.98599243    0.64999998    2.80999994
   14.95722198  155.88299561    0.64999998    2.82999992
   14.96027756  151.18499756    0.64999998    2.80999994
   14.96361065  138.55400085    0.67000002    2.80999994
   14.96944427  138.55400085    0.67000002    2.80999994
   14.97361088  137.03799438    0.67000002    2.82999992
   14.97694397  140.45899963    0.67000002    2.80999994
   14.97999954  146.13800049    0.67000002    2.78999996
   14.98333359  137.63699341    0.67000002    2.82999992
   14.98666668  142.04899597    0.67000002    2.80999994
   14.98972225  148.10600281    0.70999998    2.80999994
   14.99305534  151.93499756    0.69000000    2.80999994
   14.99611092  132.12300110    0.70999998    2.80999994
   14.99944496  149.40600586    0.70999998    2.78999996
   15.00194454  140.29600525    0.70999998    2.80999994
   15.00305557  141.30799866    0.70999998    2.80999994
   15.00611115  145.87199402    0.70999998    2.80999994
   15.01222229  145.87199402    0.70999998    2.80999994
   15.01638889  130.11900330    0.70999998    2.80999994
   15.01972198  149.94000244    0.69000000    2.82999992
   15.02277756  136.60099792    0.69000000    2.78999996
   15.02611065  139.34700012    0.69000000    2.80999994
   15.02944374  139.97500610    0.69000000    2.80999994
   15.03249931  115.95099640    0.69000000    2.80999994
   15.03527832  151.30799866    0.69000000    2.80999994
   15.03638935  139.60899353    0.69000000    2.80999994
   15.03944492  138.95199585    0.69000000    2.78999996
   15.04277802  141.99800110    0.69000000    2.80999994
   15.04611111  135.37800598    0.69000000    2.80999994
   15.04916668  135.61700439    0.69000000    2.80999994
   15.05527782  135.61700439    0.69000000    2.80999994
   15.05944443  146.33700562    0.70999998    2.80999994
   15.06250000  139.80299377    0.69000000    2.78999996
   15.06583309  146.74699402    0.69000000    2.80999994
   15.06861115  144.00500488    0.69000000    2.78999996
   15.06944466  143.25000000    0.69000000    2.80999994
   15.07250023  141.10200500    0.69000000    2.80999994
   15.07583332  135.28900146    0.69000000    2.80999994
   15.07888889  149.39799500    0.69000000    2.80999994
   15.08222198  136.92999268    0.69000000    2.80999994
   15.08555508  130.12399292    0.67000002    2.80999994
   15.08861065  134.76400757    0.67000002    2.80999994
   15.09194374  135.80400085    0.67000002    2.80999994
   15.09805489  135.80400085    0.67000002    2.80999994
   15.10222244  135.63499451    0.64999998    2.78999996
   15.10527802  133.91900635    0.64999998    2.80999994
   15.10861111  143.94200134    0.63000000    2.80999994
   15.11194515  121.16200256    0.63000000    2.80999994
   15.11500072  131.37600708    0.63000000    2.80999994
   15.11833382  127.83599854    0.63000000    2.80999994
   15.12166691  117.99700165    0.64999998    2.80999994
   15.12472248  126.97599792    0.63000000    2.80999994
   15.12805557  128.75300598    0.63000000    2.82999992
   15.13111115  126.01000214    0.63000000    2.82999992
   15.13444424  143.78999329    0.63000000    2.80999994
   15.13527775  131.74099731    0.63000000    2.80999994
   15.14083290  131.74099731    0.63000000    2.80999994
   15.14499950  131.27000427    0.63000000    2.80999994
   15.14833355  127.01799774    0.63000000    2.80999994
   15.15138817  142.49800110    0.63000000    2.80999994
   15.15472221  139.77999878    0.61000001    2.80999994
   15.15777779  136.35400391    0.63000000    2.80999994
   15.16111088  134.71699524    0.63000000    2.80999994
   15.16444397  139.78999329    0.63000000    2.80999994
   15.16750050  135.61700439    0.63000000    2.80999994
   15.16861153  130.59599304    0.63000000    2.80999994
   15.17138958  145.37899780    0.63000000    2.80999994
   15.17444515  137.59800720    0.63000000    2.80999994
   15.17777824  128.83000183    0.61000001    2.80999994
   15.18361092  128.83000183    0.61000001    2.80999994
   15.18777752  145.83500671    0.58999997    2.80999994
   15.19111156  140.14100647    0.58999997    2.80999994
   15.19444466  136.97700500    0.61000001    2.80999994
   15.19750023  132.02099609    0.58999997    2.80999994
   15.20083332  135.82099915    0.58999997    2.80999994
   15.20194435  125.91300201    0.58999997    2.80999994
   15.20444393  126.89399719    0.58999997    2.80999994
   15.20749950  138.70199585    0.58999997    2.80999994
   15.21083355  135.56500244    0.61000001    2.80999994
   15.21416664  144.39999390    0.61000001    2.80999994
   15.21722221  137.54400635    0.61000001    2.80999994
   15.22055531  136.19999695    0.61000001    2.80999994
   15.22666645  136.19999695    0.61000001    2.80999994
   15.23055553  146.75399780    0.61000001    2.78999996
   15.23388958  152.78900146    0.63000000    2.82999992
   15.23527813  143.86300659    0.61000001    2.80999994
   15.23750019  137.68899536    0.61000001    2.80999994
   15.24055576  141.63299561    0.63000000    2.80999994
   15.24388885  138.42999268    0.61000001    2.80999994
   15.24722290  138.97900391    0.63000000    2.80999994
   15.25027752  148.15199280    0.63000000    2.80999994
   15.25361156  125.34899902    0.63000000    2.80999994
   15.25666714  133.24000549    0.63000000    2.80999994
   15.26000023  138.74099731    0.63000000    2.80999994
   15.26333332  145.81399536    0.63000000    2.80999994
   15.26944447  145.81399536    0.63000000    2.80999994
   15.27361107  152.48800659    0.63000000    2.80999994
   15.27666664  154.80400085    0.63000000    2.80999994
   15.27999973  149.63900757    0.63000000    2.80999994
   15.28333378  126.61599731    0.63000000    2.80999994
   15.28638935  134.05599976    0.63000000    2.82999992
   15.28972244  132.22599792    0.61000001    2.80999994
   15.29305553  138.37399292    0.61000001    2.80999994
   15.29611111  148.24699402    0.61000001    2.80999994
   15.29944515  133.23899841    0.61000001    2.80999994
   15.30194473  141.87199402    0.61000001    2.80999994
   15.30305576  140.02799988    0.61000001    2.80999994
   15.41694450   -1.00000000   -1.00000000   -1.00000000
   15.60249996   -1.00000000   -1.00000000   -1.00000000
   15.94027805   -1.00000000   -1.00000000   -1.00000000
   16.10138893   68.17079926    0.38000000    2.82999992
   16.10472298  123.40399933    0.38000000    2.82999992
   16.10777855  126.92500305    0.36000001    2.82999992
   16.11111069  128.09700012    0.36000001    2.82999992
   16.11444473  136.63900757    0.36000001    2.82999992
   16.11750031  136.65199280    0.36000001    2.82999992
   16.12166595  136.65199280    0.38000000    2.82999992
   16.12583351  131.02900696    0.36000001    2.82999992
   16.12916756  129.05000305    0.36000001    2.82999992
   16.13222313  136.35299683    0.36000001    2.82999992
   16.13472176  132.20899963    0.36000001    2.82999992
   16.13611031  132.52099609    0.36000001    2.82999992
   16.13944435  129.77000427    0.40000001    2.84999990
   16.14249992  122.71800232    0.38000000    2.82999992
   16.14583397  119.35900116    0.40000001    2.82999992
   16.14888954  111.30000305    0.40000001    2.82999992
   16.15222168  125.88200378    0.38000000    2.84999990
   16.15555573  125.05000305    0.36000001    2.82999992
   16.15861130  135.07299805    0.38000000    2.82999992
   16.16444397  135.07299805    0.38000000    2.82999992
   16.16860962  117.11799622    0.38000000    2.82999992
   16.17194366  126.35199738    0.38000000    2.82999992
   16.17527771  127.42700195    0.38000000    2.82999992
   16.17833328  118.98600006    0.38000000    2.84999990
   16.18166542  120.48699951    0.38000000    2.82999992
   16.18472099  121.28700256    0.40000001    2.82999992
   16.18805504  121.20700073    0.40000001    2.82999992
   16.19138718  121.13899994    0.38000000    2.82999992
   16.19444275  119.41600037    0.38000000    2.82999992
   16.19777679  119.35199738    0.38000000    2.82999992
   16.20111275  124.76200104    0.38000000    2.82999992
   16.20166779  114.05300140    0.38000000    2.82999992
   16.20750046  114.05300140    0.38000000    2.82999992
   16.21166801  123.31500244    0.40000001    2.82999992
   16.21472359  121.83200073    0.40000001    2.82999992
   16.21805573  120.84999847    0.40000001    2.82999992
   16.22138977  114.72499847    0.40000001    2.80999994
   16.22444534  124.61000061    0.41999999    2.82999992
   16.22777748  119.51100159    0.41999999    2.82999992
   16.23083305  113.82199860    0.41999999    2.82999992
   16.23416710  120.32900238    0.41999999    2.82999992
   16.23500061  118.56500244    0.41999999    2.82999992
   16.23777771  119.33699799    0.40000001    2.82999992
   16.24111176  113.94999695    0.40000001    2.82999992
   16.24416733  118.79799652    0.40000001    2.82999992
   16.25027847  118.79799652    0.40000001    2.84999990
   16.25444412  116.21700287    0.38000000    2.82999992
   16.25749969  120.53800201    0.38000000    2.82999992
   16.26083374  115.61499786    0.38000000    2.84999990
   16.26416588  114.72399902    0.38000000    2.82999992
   16.26722145  117.62000275    0.38000000    2.82999992
   16.26833344  118.08300018    0.40000001    2.82999992
   16.27083397  114.94499969    0.40000001    2.82999992
   16.27416611  114.67800140    0.40000001    2.82999992
   16.27722168  114.12699890    0.40000001    2.82999992
   16.28055573  115.15200043    0.40000001    2.82999992
   16.28388786  120.90100098    0.40000001    2.80999994
   16.28694344  116.51899719    0.40000001    2.82999992
   16.29305458  116.51899719    0.40000001    2.82999992
   16.29722214  112.33300018    0.38000000    2.82999992
   16.30055428  113.47000122    0.38000000    2.84999990
   16.30166626  114.71399689    0.38000000    2.84999990
   16.30416679  119.43299866    0.38000000    2.82999992
   16.30749893  116.12500000    0.38000000    2.82999992
   16.31055450  112.14099884    0.38000000    2.82999992
   16.31388855  112.74600220    0.40000001    2.82999992
   16.31722260  113.76100159    0.41999999    2.82999992
   16.32027817  114.62300110    0.41999999    2.82999992
   16.32361221  111.29699707    0.44000000    2.82999992
   16.32694626  116.80699921    0.44000000    2.82999992
   16.33000183  111.32599640    0.41999999    2.82999992
   16.33583450  111.32599640    0.41999999    2.82999992
   16.34000015  110.92299652    0.44000000    2.82999992
   16.34333420  110.06300354    0.41999999    2.82999992
   16.34666824  112.36199951    0.41999999    2.82999992
   16.34972191  117.57800293    0.41999999    2.82999992
   16.35305595  120.44599915    0.41999999    2.82999992
   16.35611153  111.60500336    0.41999999    2.82999992
   16.35944557  111.10199738    0.41999999    2.82999992
   16.36277771  117.73899841    0.41999999    2.82999992
   16.36583328  118.05899811    0.41999999    2.84999990
   16.36833382  112.22299957    0.41999999    2.82999992
   16.36944389  115.94899750    0.41999999    2.82999992
   16.37277794  115.73999786    0.41999999    2.84999990
   16.37888908  115.73999786    0.41999999    2.82999992
   16.38305473  113.43499756    0.41999999    2.82999992
   16.38611031  116.00099945    0.41999999    2.82999992
   16.38944435  116.96600342    0.44000000    2.82999992
   16.39249992  116.69699860    0.44000000    2.82999992
   16.39583397  118.30200195    0.44000000    2.82999992
   16.39916611  109.70099640    0.44000000    2.82999992
   16.40166664  119.46800232    0.44000000    2.84999990
   16.40277672  117.77899933    0.44000000    2.82999992
   16.40611076  117.83200073    0.44000000    2.82999992
   16.40916634  121.10099792    0.44000000    2.82999992
   16.41250038  115.90899658    0.44000000    2.82999992
   16.41583252  119.47799683    0.44000000    2.82999992
   16.42166519  119.47799683    0.44000000    2.82999992
   16.42583275  115.67299652    0.44000000    2.82999992
   16.42888832  119.09600067    0.44000000    2.82999992
   16.43222237  111.41799927    0.44000000    2.82999992
   16.43499947  119.68499756    0.44000000    2.82999992
   16.43583298  115.57199860    0.44000000    2.82999992
   16.43916512  116.50499725    0.44000000    2.84999990
   16.44222069  116.36799622    0.44000000    2.82999992
   16.44555473  114.34500122    0.44000000    2.82999992
   16.44888878  115.15200043    0.44000000    2.82999992
   16.45194435  118.63800049    0.44000000    2.82999992
   16.45527840  109.01100159    0.44000000    2.84999990
   16.45861244  108.08200073    0.44000000    2.82999992
   16.46444511  108.08200073    0.44000000    2.84999990
   16.46861076  122.09300232    0.44000000    2.84999990
   16.47194481  113.77500153    0.44000000    2.82999992
   16.47500038  109.38600159    0.44000000    2.82999992
   16.47833443  119.20099640    0.44000000    2.82999992
   16.48166656  120.91100311    0.44000000    2.82999992
   16.48472214  119.71099854    0.44000000    2.82999992
   16.48805618  122.49700165    0.44000000    2.82999992
   16.49138832  113.80500031    0.44000000    2.82999992
   16.49444389  111.91200256    0.44000000    2.82999992
   16.49777794  116.03900146    0.44000000    2.82999992
   16.50083351  120.51200104    0.46000001    2.84999990
   16.50166702  111.60399628    0.44000000    2.82999992
   16.50722313  111.60399628    0.46000001    2.82999992
   16.51138878  119.51699829    0.46000001    2.82999992
   16.51472282  124.30400085    0.46000001    2.82999992
   16.51805496  123.10299683    0.44000000    2.82999992
   16.52111053  120.40899658    0.44000000    2.84999990
   16.52444458  119.60900116    0.46000001    2.82999992
   16.52750015  117.92400360    0.46000001    2.82999992
   16.53083229  122.62200165    0.46000001    2.82999992
   16.53416634  120.49700165    0.46000001    2.82999992
   16.53499985  122.37400055    0.46000001    2.82999992
   16.53750038  123.32199860    0.46000001    2.82999992
   16.54083252  120.46399689    0.46000001    2.82999992
   16.54416656  117.12899780    0.46000001    2.82999992
   16.55027771  117.12899780    0.46000001    2.84999990
   16.55444336  118.60500336    0.46000001    2.82999992
   16.55749893  121.96299744    0.46000001    2.82999992
   16.56083298  118.81199646    0.46000001    2.82999992
   16.56388855  118.68800354    0.47999999    2.82999992
   16.56722260  124.08000183    0.46000001    2.84999990
   16.56833458  129.22099304    0.46000001    2.84999990
   16.57083511  130.17199707    0.46000001    2.82999992
   16.57416725  125.74700165    0.47999999    2.84999990
   16.57750130  128.63600159    0.46000001    2.82999992
   16.58055687  126.16100311    0.46000001    2.82999992
   16.58388901  127.71199799    0.46000001    2.82999992
   16.58694458  126.08599854    0.46000001    2.82999992
   16.59305573  126.08599854    0.46000001    2.82999992
   16.59722328  121.55799866    0.47999999    2.82999992
   16.60027885  117.33300018    0.47999999    2.82999992
   16.60166740  122.61499786    0.47999999    2.82999992
   16.60388947  122.49800110    0.47999999    2.82999992
   16.60722351  120.53099823    0.47999999    2.82999992
   16.61055565  128.80599976    0.47999999    2.82999992
   16.61361122  119.91500092    0.47999999    2.82999992
   16.61694527  123.34999847    0.50000000    2.82999992
   16.62000084  124.07599640    0.50000000    2.82999992
   16.62333298  126.17099762    0.50000000    2.82999992
   16.62666702  123.60199738    0.50000000    2.82999992
   16.62972260  118.46700287    0.50000000    2.82999992
   16.63583374  118.46700287    0.50000000    2.82999992
   16.63999939  119.59300232    0.50000000    2.82999992
   16.64333344  130.46200562    0.51999998    2.82999992
   16.64638901  128.24099731    0.51999998    2.82999992
   16.64972115  126.15499878    0.51999998    2.82999992
   16.65305519  124.06800079    0.51999998    2.84999990
   16.65611076  128.03199768    0.51999998    2.84999990
   16.65944481  125.58599854    0.51999998    2.84999990
   16.66250038  126.85099792    0.52999997    2.82999992
   16.66583252  137.30299377    0.55000001    2.82999992
   16.66833305  122.38300323    0.55000001    2.82999992
   16.66944313  131.51199341    0.56999999    2.82999992
   16.67277718  128.36199951    0.58999997    2.82999992
   16.67860985  128.36199951    0.63000000    2.82999992
   16.68277740  125.99199677    0.67000002    2.82999992
   16.68610954  123.61299896    0.70999998    2.84999990
   16.68944359  124.98200226    0.70999998    2.82999992
   16.69249916  125.60399628    0.73000002    2.82999992
   16.69583321  121.83999634    0.73000002    2.82999992
   16.69888878  121.68900299    0.73000002    2.82999992
   16.70166779  118.89700317    0.73000002    2.82999992
   16.70250130  116.32099915    0.73000002    2.82999992
   16.70583344  126.45500183    0.70999998    2.82999992
   16.70916748  121.33300018    0.69000000    2.82999992
   16.71222305  128.30599976    0.69000000    2.82999992
   16.71555710  120.56099701    0.67000002    2.84999990
   16.72166634  120.56099701    0.64999998    2.82999992
   16.72583389  124.74600220    0.67000002    2.80999994
   16.72888947  122.96399689    0.61000001    2.82999992
   16.73222351  127.95300293    0.56999999    2.82999992
   16.73500061  125.66100311    0.56999999    2.82999992
   16.73583412  117.96900177    0.56999999    2.82999992
   16.73916626  127.12799835    0.55000001    2.82999992
   16.74250031  123.70300293    0.55000001    2.82999992
   16.74555588  128.31100464    0.55000001    2.82999992
   16.74888992  131.58900452    0.55000001    2.82999992
   16.75194359  124.09300232    0.55000001    2.82999992
   16.75527763  122.96600342    0.55000001    2.80999994
   16.75861168  114.80999756    0.55000001    2.82999992
   16.76444435  114.80999756    0.55000001    2.82999992
   16.76861000  127.31999969    0.55000001    2.82999992
   16.77194405  123.75900269    0.55000001    2.82999992
   16.77499962  120.97399902    0.52999997    2.80999994
   16.77833366  125.51300049    0.52999997    2.82999992
   16.78138924  123.59200287    0.52999997    2.80999994
   16.78472137  119.51699829    0.52999997    2.82999992
   16.78805542  120.57299805    0.55000001    2.82999992
   16.79111099  121.09400177    0.55000001    2.82999992
   16.79444313  119.29900360    0.55000001    2.82999992
   16.79777718  121.93000031    0.55000001    2.82999992
   16.80083275  118.93299866    0.55000001    2.82999992
   16.80166626  125.76200104    0.55000001    2.82999992
   16.80722237  125.76200104    0.55000001    2.82999992
   16.81138802  116.60500336    0.55000001    2.82999992
   16.81472206  121.91899872    0.55000001    2.82999992
   16.81777954  118.93399811    0.55000001    2.82999992
   16.82111168  125.34600067    0.55000001    2.82999992
   16.82444572  129.06500244    0.52999997    2.82999992
   16.82750130  121.06700134    0.55000001    2.82999992
   16.83083344  121.43000031    0.55000001    2.82999992
   16.83388901  117.31700134    0.55000001    2.82999992
   16.83500099  118.66899872    0.55000001    2.82999992
   16.83750153  114.08699799    0.55000001    2.80999994
   16.84083366  123.45800018    0.55000001    2.82999992
   16.84416771  115.55000305    0.55000001    2.82999992
   16.85000038  115.55000305    0.56999999    2.80999994
   16.85416794  122.34899902    0.56999999    2.82999992
   16.85750008  124.72699738    0.56999999    2.82999992
   16.86083412  120.82199860    0.56999999    2.82999992
   16.86388969  120.92600250    0.56999999    2.82999992
   16.86722183  126.16799927    0.56999999    2.82999992
   16.86833382  123.16999817    0.55000001    2.84999990
   16.87083435  119.97799683    0.55000001    2.84999990
   16.87388992  121.58499908    0.55000001    2.82999992
   16.87722206  123.86699677    0.55000001    2.82999992
   16.88055611  122.28199768    0.55000001    2.80999994
   16.88361168  118.90399933    0.55000001    2.82999992
   16.88694382  119.54399872    0.55000001    2.84999990
   16.89305496  119.54399872    0.55000001    2.82999992
   16.89722252  125.41500092    0.55000001    2.82999992
   16.90027809  114.45500183    0.55000001    2.84999990
   16.90166664  115.38200378    0.55000001    2.82999992
   16.90388870  129.84599304    0.55000001    2.82999992
   16.90722275  123.65699768    0.52999997    2.84999990
   16.91055489  122.48699951    0.52999997    2.82999992
   16.91361046  120.08899689    0.52999997    2.82999992
   16.91694450  121.54599762    0.52999997    2.84999990
   16.92027664  118.84500122    0.52999997    2.82999992
   16.92333221  119.26599884    0.52999997    2.82999992
   16.92666626  120.92400360    0.52999997    2.84999990
   16.92972183  120.71900177    0.55000001    2.82999992
   16.93583298  120.71900177    0.55000001    2.82999992
   16.93999863  118.26100159    0.55000001    2.80999994
   16.94305420  125.83899689    0.55000001    2.82999992
   16.94638824  122.36299896    0.56999999    2.82999992
   16.94972038  123.29699707    0.55000001    2.82999992
   16.95277786  130.96699524    0.56999999    2.82999992
   16.95611191  122.29900360    0.56999999    2.82999992
   16.95944595  123.13500214    0.55000001    2.82999992
   16.96250153  119.76699829    0.55000001    2.82999992
   16.96583366  134.91700745    0.55000001    2.82999992
   16.96833420  121.56900024    0.55000001    2.82999992
   16.96916771  124.53500366    0.55000001    2.82999992
   16.97249985  121.79799652    0.55000001    2.80999994
   16.97861099  121.79799652    0.56999999    2.82999992
   16.98277855  125.58999634    0.56999999    2.82999992
   16.98611069  124.81999969    0.56999999    2.82999992
   16.98916626  116.93599701    0.56999999    2.80999994
   16.99250031  122.31500244    0.56999999    2.82999992
   16.99583435  116.73500061    0.56999999    2.82999992
   16.99888992  115.23699951    0.56999999    2.80999994
   17.00166702  120.88099670    0.58999997    2.82999992
   17.00250053  120.14499664    0.56999999    2.82999992
   17.00583267  123.74900055    0.56999999    2.80999994
   17.00916672  120.63099670    0.58999997    2.82999992
   17.01222229  122.42400360    0.61000001    2.82999992
   17.01555634  118.44599915    0.63000000    2.82999992
   17.02138901  118.44599915    0.75000000    2.82999992
   17.02555466  117.28600311    0.61000001    2.82999992
   17.02888870  119.54000092    0.67000002    2.82999992
   17.03222275  122.19799805    1.03999996    2.84999990
   17.03499985  122.00900269    4.90999985    2.84999990
   17.03583336  119.73500061    4.90999985    2.86999989
   17.03888893  142.12100220    4.90999985    1.50000000
   17.04222107  114.08300018    4.90999985    2.48000002
   17.04527664  123.03800201    4.90999985    2.91000009
   17.04861069   85.58580017    4.90999985    2.09999990
   17.05194283  124.90499878    4.90999985    2.89000010
   17.05499840  120.26999664    1.11000001    2.86999989
   17.05833244  128.03799438    4.90999985    2.93000007
   17.06444359  128.03799438    4.90999985    2.19000006
   17.06861115  119.75900269    4.90999985    2.89000010
   17.07166672  119.65799713    4.90999985    2.93000007
   17.07500076   -1.00000000    4.90999985    2.91000009
   17.07805634   -1.00000000    4.90999985    0.31999999
   17.08139038   -1.00000000    4.90999985    0.17000000
   17.08472252  145.22000122    4.90999985    0.70999998
   17.08777809  139.64399719    4.90999985    1.13000000
   17.09111214  141.94999695    4.90999985    2.78999996
   17.09444427  126.47000122    4.90999985    2.69000006
   17.09749985  123.69799805    4.90999985    2.86999989
   17.10083389  267.85400391    4.90999985    2.98000002
   17.12222290   -1.00000000    1.48000002    2.80999994
   17.12638855  129.76899719    0.92000002    2.82999992
   17.12972260  125.09799957    0.79000002    2.82999992
   17.13277817  123.32499695    0.67000002    2.82999992
   17.13500023  119.56400299    0.64999998    2.82999992
   17.13666725  128.63000488    0.63000000    2.82999992
   17.13972282  128.26800537    0.63000000    2.80999994
   17.14305496  124.45600128    0.63000000    2.82999992
   17.14638901  124.13300323    0.63000000    2.78999996
   17.14944458  122.21099854    0.64999998    2.80999994
   17.15277672  115.23200226    0.64999998    2.82999992
   17.15611076  129.42199707    0.64999998    2.82999992
   17.15916634  122.55500031    0.64999998    2.82999992
   17.16499901  122.55500031    0.63000000    2.80999994
   17.16916656  122.57499695    0.63000000    2.82999992
   17.17249870  119.67700195    0.63000000    2.82999992
   17.17555428  120.88300323    0.63000000    2.82999992
   17.17888832  110.30100250    0.61000001    2.82999992
   17.18194389  118.72899628    0.61000001    2.80999994
   17.18527603  123.36199951    0.61000001    2.82999992
   17.18861008  123.57199860    0.63000000    2.82999992
   17.19166565  126.18399811    0.63000000    2.82999992
   17.19499969  123.75199890    0.61000001    2.80999994
   17.19833183  127.00099945    0.63000000    2.82999992
   17.20138931  129.56700134    0.63000000    2.80999994
   17.20194435  132.02600098    0.63000000    2.80999994
   17.20777893  132.02600098    0.63000000    2.82999992
   17.21194458  127.87599945    0.63000000    2.82999992
   17.21527863  121.60299683    0.63000000    2.82999992
   17.21833420  125.38800049    0.61000001    2.80999994
   17.22166634  130.07000732    0.58999997    2.80999994
   17.22500038  127.57399750    0.58999997    2.80999994
   17.22805595  128.99499512    0.58999997    2.82999992
   17.23139000  128.59800720    0.58999997    2.82999992
   17.23472214  125.51300049    0.58999997    2.82999992
   17.23527718  126.67299652    0.58999997    2.82999992
   17.23833275  127.09300232    0.58999997    2.82999992
   17.24138832  125.43499756    0.56999999    2.82999992
   17.24472237  123.34400177    0.58999997    2.82999992
   17.25083351  123.34400177    0.58999997    2.82999992
   17.25472260  120.23699951    0.58999997    2.80999994
   17.25805473  122.75299835    0.58999997    2.80999994
   17.26138878  120.55100250    0.56999999    2.82999992
   17.26444435  120.93599701    0.58999997    2.82999992
   17.26777840  128.92799377    0.56999999    2.82999992
   17.26861000  120.29199982    0.58999997    2.82999992
   17.27138901  122.42099762    0.56999999    2.82999992
   17.27444458  120.42600250    0.56999999    2.82999992
   17.27777672  121.62599945    0.56999999    2.82999992
   17.28111076  119.09200287    0.56999999    2.80999994
   17.28416634  126.55200195    0.56999999    2.82999992
   17.28750038  122.82499695    0.56999999    2.82999992
   17.29361153  122.82499695    0.58999997    2.82999992
   17.29777718  128.40699768    0.58999997    2.82999992
   17.30083275  128.33599854    0.58999997    2.82999992
   17.30194283  125.83300018    0.58999997    2.82999992
   17.30472183  122.37599945    0.61000001    2.80999994
   17.30777740  125.02400208    0.58999997    2.82999992
   17.31110954  129.44000244    0.58999997    2.82999992
   17.31444359  122.76899719    0.61000001    2.82999992
   17.31750107  125.32599640    0.58999997    2.82999992
   17.32083511  127.75199890    0.58999997    2.82999992
   17.32416725  121.71299744    0.58999997    2.82999992
   17.32722282  124.46299744    0.58999997    2.82999992
   17.33055687  126.17099762    0.58999997    2.82999992
   17.33638954  126.17099762    0.58999997    2.82999992
   17.34055710  123.61299896    0.61000001    2.82999992
   17.34388924  127.12799835    0.58999997    2.82999992
   17.34694481  132.95599365    0.58999997    2.80999994
   17.35027885  129.44000244    0.58999997    2.80999994
   17.35333443  128.72999573    0.58999997    2.80999994
   17.35666656  129.93499756    0.58999997    2.82999992
   17.36000061  129.67999268    0.58999997    2.82999992
   17.36305618  131.29899597    0.58999997    2.82999992
   17.36638832  126.08999634    0.58999997    2.82999992
   17.36861038  126.60900116    0.58999997    2.82999992
   17.37000084  126.00800323    0.58999997    2.82999992
   17.37305641  121.40399933    0.61000001    2.80999994
   17.37916756  121.40399933    0.58999997    2.82999992
   17.38333321  124.90200043    0.58999997    2.82999992
   17.38666725  125.33000183    0.58999997    2.82999992
   17.38972282  126.40599823    0.58999997    2.82999992
   17.39305496  133.45899963    0.58999997    2.82999992
   17.39638901  127.09500122    0.58999997    2.82999992
   17.39944458  128.32800293    0.58999997    2.82999992
   17.40194321  128.54499817    0.58999997    2.82999992
   17.40333366  126.48200226    0.58999997    2.82999992
   17.40638924  124.77100372    0.56999999    2.82999992
   17.40972137  125.12799835    0.56999999    2.82999992
   17.41305542  125.44100189    0.58999997    2.82999992
   17.41611099  128.80999756    0.56999999    2.80999994
   17.42222214  128.80999756    0.56999999    2.82999992
   17.42611122  126.72799683    0.58999997    2.82999992
   17.42944336  131.56799316    0.61000001    2.82999992
   17.43277740  129.57200623    0.61000001    2.80999994
   17.43527603  133.75700378    0.61000001    2.80999994
   17.43638802  129.14100647    0.61000001    2.80999994
   17.43972206  130.71299744    0.61000001    2.82999992
   17.44277763  127.84600067    0.61000001    2.80999994
   17.44610977  121.69499969    0.61000001    2.82999992
   17.44916534  128.46800232    0.58999997    2.80999994
   17.45250130  128.94799805    0.61000001    2.80999994
   17.45583344  126.85399628    0.61000001    2.82999992
   17.45888901  124.22599792    0.61000001    2.82999992
   17.46500015  124.22599792    0.61000001    2.82999992
   17.46916771  126.94200134    0.61000001    2.80999994
   17.47222328  118.72000122    0.61000001    2.82999992
   17.47555542  125.05500031    0.63000000    2.80999994
   17.47888947  124.05599976    0.61000001    2.82999992
   17.48194504  130.88600159    0.61000001    2.82999992
   17.48527718  127.79499817    0.63000000    2.82999992
   17.48833275  125.27999878    0.63000000    2.82999992
   17.49166679  130.74000549    0.61000001    2.82999992
   17.49500084  132.20799255    0.61000001    2.82999992
   17.49805641  128.52600098    0.63000000    2.80999994
   17.50138855  131.34300232    0.63000000    2.80999994
   17.50194359  131.96299744    0.63000000    2.80999994
   17.50777817  131.96299744    0.63000000    2.82999992
   17.51194382  122.68299866    0.63000000    2.82999992
   17.51527786  125.18399811    0.63000000    2.80999994
   17.51833344  127.59999847    0.63000000    2.82999992
   17.52166557  128.39700317    0.61000001    2.82999992
   17.52472115  126.68800354    0.61000001    2.82999992
   17.52805519  120.92099762    0.61000001    2.82999992
   17.53138924  122.30799866    0.58999997    2.82999992
   17.53444481  130.53799438    0.58999997    2.82999992
   17.53527641  124.07800293    0.58999997    2.82999992
   17.53805542  133.77200317    0.58999997    2.82999992
   17.54138756  128.65299988    0.58999997    2.82999992
   17.54444313  124.94499969    0.58999997    2.82999992
   17.55055428  124.94499969    0.61000001    2.82999992
   17.55472183  122.04699707    0.61000001    2.80999994
   17.55805397  126.79199982    0.61000001    2.82999992
   17.56110954  126.62500000    0.63000000    2.80999994
   17.56444359  124.40599823    0.63000000    2.80999994
   17.56777954  127.17700195    0.64999998    2.80999994
   17.56861115  120.55500031    0.64999998    2.82999992
   17.57139015  123.73699951    0.64999998    2.82999992
   17.57472229  123.33799744    0.64999998    2.80999994
   17.57777786  125.46199799    0.64999998    2.82999992
   17.58111191  130.14700317    0.64999998    2.82999992
   17.58416748  131.41000366    0.64999998    2.82999992
   17.58750153  129.65600586    0.63000000    2.82999992
   17.59361267  129.65600586    0.61000001    2.80999994
   17.59749985  128.42500305    0.61000001    2.82999992
   17.60083389  125.04599762    0.58999997    2.82999992
   17.60194397  130.19999695    0.61000001    2.82999992
   17.60444450  127.38899994    0.58999997    2.82999992
   17.60777855  127.95500183    0.61000001    2.82999992
   17.61083412  133.21699524    0.61000001    2.80999994
   17.61416626  129.55999756    0.58999997    2.82999992
   17.61750031  134.27699280    0.58999997    2.82999992
   17.62055588  121.17500305    0.58999997    2.80999994
   17.62388992  133.59300232    0.61000001    2.82999992
   17.62694550  134.64399719    0.61000001    2.82999992
   17.63027763  132.31399536    0.61000001    2.80999994
   17.63638878  132.31399536    0.58999997    2.82999992
   17.64055634  133.45599365    0.58999997    2.82999992
   17.64361191  135.25000000    0.58999997    2.80999994
   17.64694405  133.50199890    0.58999997    2.80999994
   17.65027809  140.98599243    0.58999997    2.82999992
   17.65333366  133.26400757    0.58999997    2.82999992
   17.65666580  129.47900391    0.58999997    2.82999992
   17.65972137  131.34899902    0.58999997    2.82999992
   17.66305542  133.69200134    0.58999997    2.82999992
   17.66638756  126.97100067    0.58999997    2.82999992
   17.66860962  133.78399658    0.58999997    2.82999992
   17.67000008  135.36799622    0.58999997    2.80999994
   17.67333221  129.30200195    0.58999997    2.80999994
   17.67916679  129.30200195    0.58999997    2.82999992
   17.68333244  137.60000610    0.58999997    2.82999992
   17.68666649  135.17900085    0.56999999    2.82999992
   17.68972206  136.78100586    0.58999997    2.82999992
   17.69305420  134.26100159    0.56999999    2.82999992
   17.69610977  133.05700684    0.56999999    2.82999992
   17.69944382  132.50700378    0.58999997    2.82999992
   17.70194435  131.67799377    0.58999997    2.82999992
   17.70305634  130.24800110    0.56999999    2.82999992
   17.70639038  130.20799255    0.58999997    2.80999994
   17.70944595  121.60399628    0.58999997    2.82999992
   17.71277809  129.72300720    0.61000001    2.80999994
   17.71583366  130.84700012    0.61000001    2.82999992
   17.72194481  130.84700012    0.63000000    2.82999992
   17.72611237  136.89399719    0.58999997    2.80999994
   17.72944450  139.54200745    0.58999997    2.82999992
   17.73250008  138.16000366    0.61000001    2.82999992
   17.73527718  130.31100464    0.61000001    2.82999992
   17.73638916  133.64199829    0.58999997    2.82999992
   17.73972321  134.20599365    0.58999997    2.82999992
   17.74277878  128.71200562    0.61000001    2.82999992
   17.74611092  134.32299805    0.61000001    2.82999992
   17.74916649  135.16999817    0.61000001    2.82999992
   17.75250053  129.18899536    0.63000000    2.80999994
   17.75583267  130.81100464    0.63000000    2.82999992
   17.75888824  130.55499268    0.63000000    2.82999992
   17.76499939  130.55499268    0.64999998    2.82999992
   17.76888847  129.98599243    0.67000002    2.80999994
   17.77222252  126.59200287    0.67000002    2.82999992
   17.77555466  126.21499634    0.67000002    2.80999994
   17.77861023  125.20500183    0.67000002    2.82999992
   17.78194427  132.76899719    0.67000002    2.82999992
   17.78527641  122.26699829    0.69000000    2.82999992
   17.78833199  124.98899841    0.69000000    2.80999994
   17.79166603  124.70200348    0.69000000    2.82999992
   17.79472160  127.37999725    0.67000002    2.82999992
   17.79805565  125.19699860    0.69000000    2.82999992
   17.80138779  127.16500092    0.69000000    2.82999992
   17.80194283  130.92799377    0.69000000    2.82999992
   17.80777740  130.92799377    0.70999998    2.82999992
   17.81194305  125.52200317    0.70999998    2.82999992
   17.81499863  129.36099243    0.70999998    2.82999992
   17.81833458  129.58399963    0.70999998    2.82999992
   17.82166672  127.73500061    0.70999998    2.80999994
   17.82472229  129.57200623    0.69000000    2.80999994
   17.82805634  127.63999939    0.69000000    2.82999992
   17.83139038  128.53100586    0.69000000    2.82999992
   17.83444595  128.18800354    0.69000000    2.80999994
   17.83527756  135.63600159    0.69000000    2.80999994
   17.83805656  130.19500732    0.69000000    2.80999994
   17.84138870  142.97900391    0.69000000    2.80999994
   17.84444427  135.98699951    0.67000002    2.80999994
   17.85055542  135.98699951    0.64999998    2.80999994
   17.85472298  140.83200073    0.64999998    2.80999994
   17.85805511  126.63400269    0.67000002    2.80999994
   17.86111069  126.43299866    0.67000002    2.80999994
   17.86444473  145.11500549    0.69000000    2.82999992
   17.86750031  133.92900085    0.67000002    2.82999992
   17.86861038  130.28300476    0.67000002    2.82999992
   17.87111092  133.08500671    0.67000002    2.82999992
   17.87444496  130.98699951    0.67000002    2.80999994
   17.87750053  131.19099426    0.67000002    2.80999994
   17.88083267  122.87699890    0.69000000    2.80999994
   17.88416672  134.15499878    0.69000000    2.80999994
   17.88722229  136.77699280    0.67000002    2.82999992
   17.89333344  136.77699280    0.67000002    2.80999994
   17.89749908  127.82299805    0.67000002    2.80999994
   17.90083313  130.34199524    0.64999998    2.80999994
   17.90194321  129.87899780    0.64999998    2.80999994
   17.90444374  127.07099915    0.64999998    2.80999994
   17.90777779  133.08000183    0.63000000    2.82999992
   17.91083336  133.13099670    0.63000000    2.80999994
   17.91416550  128.46499634    0.63000000    2.80999994
   17.91749954  131.47500610    0.61000001    2.80999994
   17.92055511  132.08099365    0.61000001    2.82999992
   17.92388916  130.48599243    0.61000001    2.82999992
   17.92694473  130.41499329    0.61000001    2.80999994
   17.93027687  131.19299316    0.63000000    2.80999994
   17.93638802  131.19299316    0.63000000    2.80999994
   17.94055557  128.23199463    0.64999998    2.80999994
   17.94361115  126.81700134    0.67000002    2.80999994
   17.94694328  129.49800110    0.67000002    2.80999994
   17.95027924  132.98199463    0.67000002    2.80999994
   17.95361137  132.14100647    0.67000002    2.82999992
   17.95666695  132.92700195    0.64999998    2.82999992
   17.96000099  135.15699768    0.67000002    2.80999994
   17.96305656  133.49099731    0.67000002    2.82999992
   17.96638870  136.37399292    0.67000002    2.80999994
   17.96861076  127.82599640    0.67000002    2.80999994
   17.97000122  127.94899750    0.67000002    2.80999994
   17.97333336  129.28599548    0.69000000    2.80999994
   17.97916794  129.28599548    0.69000000    2.80999994
   17.98333359  128.34500122    0.67000002    2.80999994
   17.98638916  131.91000366    0.67000002    2.78999996
   17.98972321  126.82700348    0.67000002    2.80999994
   17.99305534  128.08000183    0.70999998    2.80999994
   17.99611092  131.04499817    0.69000000    2.80999994
   17.99944496  129.89100647    0.69000000    2.80999994
   18.00194359  133.16000366    0.69000000    2.80999994
   18.00305557  137.11099243    0.69000000    2.80999994
   18.00638962  133.39900208    0.67000002    2.80999994
   18.00944519  134.57600403    0.67000002    2.80999994
   18.01277733  136.15699768    0.67000002    2.80999994
   18.01611137  134.61599731    0.67000002    2.80999994
   18.02194405  134.61599731    0.69000000    2.80999994
   18.02611160  139.27299500    0.69000000    2.80999994
   18.02944374  138.26800537    0.69000000    2.80999994
   18.03249931  129.47099304    0.69000000    2.80999994
   18.03527641  135.19299316    0.69000000    2.80999994
   18.03610992  135.70500183    0.69000000    2.80999994
   18.03944397  131.37199402    0.69000000    2.82999992
   18.04249954  133.31799316    0.67000002    2.80999994
   18.04583359  131.24200439    0.70999998    2.82999992
   18.04916573  132.78399658    0.73000002    2.80999994
   18.05222130  132.62300110    0.75000000    2.80999994
   18.05555534  129.47700500    0.79000002    2.80999994
   18.05861092  128.34300232    0.81999999    2.80999994
   18.06472206  128.34300232    0.76999998    2.80999994
   18.06888962  135.13800049    0.69000000    2.78999996
   18.07222366  134.95500183    0.69000000    2.80999994
   18.07527924  133.54200745    0.69000000    2.80999994
   18.07861137  136.28500366    0.69000000    2.80999994
   18.08194542  138.69700623    0.70999998    2.80999994
   18.08500099  130.01400757    0.73000002    2.80999994
   18.08833313  132.12300110    0.73000002    2.80999994
   18.09166718  132.87199402    0.70999998    2.80999994
   18.09472275  141.27099609    0.70999998    2.80999994
   18.09805679  134.22999573    0.70999998    2.80999994
   18.10111237  130.25100708    0.70999998    2.82999992
   18.10194397  140.19000244    0.70999998    2.82999992
   18.10777855  140.19000244    0.70999998    2.80999994
   18.11166763  141.41799927    0.70999998    2.80999994
   18.11499977  133.29899597    0.73000002    2.78999996
   18.11833382  132.25500488    0.73000002    2.80999994
   18.13583374  133.94099426    0.73000002    2.78999996
   18.13805580  130.25399780    0.73000002    2.80999994
   18.14138794  134.45100403    0.73000002    2.80999994
   18.14472198  122.75000000    0.73000002    2.80999994
   18.15055466  122.75000000    0.73000002    2.80999994
   18.15472221  137.04899597    0.73000002    2.78999996
   18.15805435  127.48400116    0.73000002    2.80999994
   18.16138840  140.94400024    0.73000002    2.80999994
   18.16444397  136.14300537    0.73000002    2.80999994
   18.16777802  135.47799683    0.73000002    2.80999994
   18.16888809  136.08399963    0.73000002    2.80999994
   18.17138863  134.03399658    0.73000002    2.80999994
   18.17472076  132.81300354    0.73000002    2.78999996
   18.17805481  132.50599670    0.73000002    2.78999996
   18.18111038  127.26799774    0.73000002    2.80999994
   18.18444443  137.11000061    0.73000002    2.80999994
   18.18777657  134.61900330    0.73000002    2.80999994
   18.19361115  134.61900330    0.70999998    2.80999994
   18.19777679  131.08500671    0.67000002    2.78999996
   18.20083427  126.99800110    0.69000000    2.78999996
   18.20222282  121.08300018    0.69000000    2.78999996
   18.20444489  131.02600098    0.67000002    2.80999994
   18.20777893  120.15599823    0.70999998    2.80999994
   18.21083450  129.10899353    0.70999998    2.80999994
   18.21416664  126.90699768    0.69000000    2.80999994
   18.21750069  127.41500092    0.64999998    2.80999994
   18.22055626  130.07499695    0.61000001    2.80999994
   18.22389030  128.24200439    0.58999997    2.80999994
   18.22722244  127.08899689    0.61000001    2.80999994
   18.23027802  130.80000305    0.61000001    2.80999994
   18.23638916  130.80000305    0.56999999    2.80999994
   18.24055672  130.54600525    0.56999999    2.80999994
   18.24361229  136.77400208    0.56999999    2.78999996
   18.24694443  125.21499634    0.56999999    2.80999994
   18.25027847  132.90499878    0.56999999    2.80999994
   18.25333405  138.47000122    0.55000001    2.80999994
   18.25666618  128.98100281    0.55000001    2.80999994
   18.26000023  127.85900116    0.56999999    2.80999994
   18.26333427  138.75999451    0.56999999    2.80999994
   18.26638794  134.61099243    0.55000001    2.80999994
   18.26916695  130.00700378    0.55000001    2.80999994
   18.27000046  130.11999512    0.55000001    2.80999994
   18.27333260  123.73300171    0.55000001    2.80999994
   18.27916718  123.73300171    0.56999999    2.80999994
   18.28333282  121.74199677    0.61000001    2.80999994
   18.28666687  127.42400360    0.61000001    2.80999994
   18.28972244  118.16799927    0.63000000    2.80999994
   18.29305458  127.74600220    0.64999998    2.80999994
   18.29638863  131.78300476    0.64999998    2.78999996
   18.29944420  128.79899597    0.64999998    2.80999994
   18.30249977  118.63700104    0.64999998    2.78999996
   18.30305481  130.81399536    0.63000000    2.80999994
   18.30638885  125.90799713    0.63000000    2.78999996
   18.30944443  120.61799622    0.63000000    2.80999994
   18.31277657  124.52100372    0.63000000    2.78999996
   18.31611061  127.00499725    0.64999998    2.78999996
   18.32194519  127.00499725    0.64999998    2.78999996
   18.32611275  126.83599854    0.67000002    2.78999996
   18.32944489  127.28800201    0.67000002    2.78999996
   18.33250046  131.52900696    0.64999998    2.80999994
   18.33583450  128.91799927    0.67000002    2.78999996
   18.33611107  125.72599792    0.64999998    2.80999994
   18.33944511  131.12699890    0.64999998    2.80999994
   18.34277916  129.92300415    0.64999998    2.78999996
   18.34583473  122.34300232    0.64999998    2.80999994
   18.34916687  127.58499908    0.64999998    2.80999994
   18.35250092  124.30300140    0.63000000    2.80999994
   18.35555649  123.48699951    0.64999998    2.80999994
   18.35888863  121.95200348    0.64999998    2.80999994
   18.36499977  121.95200348    0.67000002    2.78999996
   18.36916733  127.48100281    0.67000002    2.80999994
   18.36944389  125.84799957    0.67000002    2.80999994
   18.37277794  127.73100281    0.67000002    2.78999996
   18.37583351  137.67900085    0.67000002    2.78999996
   18.37916756  128.11700439    0.67000002    2.78999996
   18.38249969  121.41100311    0.67000002    2.80999994
   18.38555527  122.52400208    0.67000002    2.78999996
   18.38888931  121.62899780    0.69000000    2.80999994
   18.39222145  124.85199738    0.69000000    2.78999996
   18.39527702  126.13700104    0.69000000    2.80999994
   18.39861107  125.12500000    0.69000000    2.78999996
   18.40166664  119.99099731    0.67000002    2.78999996
   18.40250015  119.17700195    0.67000002    2.78999996
   18.40777779  119.17700195    0.69000000    2.78999996
   18.41194344  124.51399994    0.69000000    2.80999994
   18.41499901  121.07399750    0.69000000    2.80999994
   18.41833305  119.13600159    0.67000002    2.80999994
   18.42166519  125.52600098    0.67000002    2.78999996
   18.42472076  119.04199982    0.67000002    2.80999994
   18.42805481  122.01200104    0.67000002    2.80999994
   18.43111038  129.73800659    0.67000002    2.78999996
   18.43444443  129.53300476    0.67000002    2.78999996
   18.43583298  127.90499878    0.67000002    2.78999996
   18.43805504  126.34600067    0.67000002    2.80999994
   18.44138718  129.41799927    0.67000002    2.78999996
   18.44472122  122.20999908    0.69000000    2.78999996
   18.45055580  122.20999908    0.69000000    2.78999996
   18.45472336  127.03800201    0.67000002    2.78999996
   18.45805550  125.04599762    0.67000002    2.78999996
   18.46111107  121.11299896    0.67000002    2.78999996
   18.46444511  130.39500427    0.67000002    2.80999994
   18.46777916  121.59500122    0.67000002    2.78999996
   18.46916771  128.14900208    0.69000000    2.78999996
   18.47111130  123.66200256    0.69000000    2.78999996
   18.47444534  125.08399963    0.69000000    2.80999994
   18.47777748  127.32700348    0.70999998    2.78999996
   18.48083305  129.26100159    0.70999998    2.78999996
   18.48416710  121.90699768    0.70999998    2.78999996
   18.48750114  117.71299744    0.73000002    2.78999996
   18.49333382  117.71299744    0.73000002    2.78999996
   18.49749947  117.21700287    0.73000002    2.78999996
   18.50083351  119.81700134    0.73000002    2.76999998
   18.50250053  121.47699738    0.73000002    2.78999996
   18.50444412  122.10700226    0.73000002    2.78999996
   18.50777817  127.87799835    0.73000002    2.78999996
   18.51111031  125.22399902    0.75000000    2.78999996
   18.51416588  127.85199738    0.75000000    2.78999996
   18.51749992  129.80900574    0.75000000    2.78999996
   18.52083397  124.29699707    0.75000000    2.78999996
   18.52388954  123.62100220    0.75000000    2.78999996
   18.52722168  122.95300293    0.76999998    2.78999996
   18.53027725  121.72899628    0.76999998    2.78999996
   18.53638840  121.72899628    0.76999998    2.78999996
   18.54055595  120.74700165    0.76999998    2.76999998
   18.54361153  124.47200012    0.76999998    2.78999996
   18.54694366  123.88600159    0.75000000    2.78999996
   18.54999924  136.91099548    0.76999998    2.78999996
   18.55333328  130.49800110    0.76999998    2.78999996
   18.55638885  129.36300659    0.76999998    2.78999996
   18.55972099  129.42700195    0.76999998    2.78999996
   18.56305504  135.77099609    0.79000002    2.78999996
   18.56611061  126.18900299    0.79000002    2.78999996
   18.56916809  127.53500366    0.86000001    2.76999998
   18.56972313  134.19400024    0.86000001    2.76999998
   18.57305717  124.81400299    0.88000000    2.78999996
   18.57916832  124.81400299    0.81999999    2.78999996
   18.58333397  119.05599976    0.83999997    2.76999998
   18.58638954  129.71400452    0.80000001    2.78999996
   18.58972359  124.44999695    0.79000002    2.78999996
   18.59305573  123.75599670    0.80000001    2.78999996
   18.59638977  125.08499908    0.80000001    2.76999998
   18.59944534  118.96399689    0.80000001    2.78999996
   18.60250092  124.74500275    0.80000001    2.78999996
   18.60305595  119.94100189    0.80000001    2.76999998
   18.60639000  116.29699707    0.80000001    2.78999996
   18.60944557  118.83799744    0.80000001    2.76999998
   18.61305618  117.96099854    0.79000002    2.78999996
   18.61611176  125.05500031    0.79000002    2.76999998
   18.62194443  125.05500031    0.81999999    2.78999996
   18.62611198  130.49099731    0.83999997    2.78999996
   18.62916756  119.69300079    0.83999997    2.78999996
   18.63249969  126.13400269    0.83999997    2.78999996
   18.63583374  123.19999695    0.83999997    2.78999996
   18.63611031  125.20400238    0.83999997    2.78999996
   18.63944435  122.11900330    0.86000001    2.76999998
   18.64277840  120.13500214    0.81999999    2.78999996
   18.64583397  121.69200134    0.89999998    2.78999996
   18.64916611  125.89099884    0.88000000    2.76999998
   18.65222168  121.75800323    0.86000001    2.76999998
   18.65555573  125.58499908    0.81999999    2.78999996
   18.65888786  127.32099915    0.81999999    2.78999996
   18.66472244  127.32099915    0.83999997    2.76999998
   18.66888809  122.05300140    0.79000002    2.76999998
   18.66944313  121.53500366    0.79000002    2.76999998
   18.67277718  124.57399750    0.76999998    2.76999998
   18.67611122  122.15399933    0.76999998    2.76999998
   18.67916679  119.01300049    0.75000000    2.78999996
   18.68249893  119.17900085    0.79000002    2.76999998
   18.68555450  121.14900208    0.76999998    2.78999996
   18.68888855  125.62999725    0.75000000    2.78999996
   18.69222069  117.33699799    0.75000000    2.78999996
   18.69527626  119.29699707    0.75000000    2.78999996
   18.69861031  123.00800323    0.73000002    2.78999996
   18.70194435  115.37000275    0.73000002    2.78999996
   18.70277786  111.43099976    0.73000002    2.78999996
   18.70777893  111.43099976    0.73000002    2.78999996
   18.71166801  118.88600159    0.73000002    2.78999996
   18.71500015  117.59200287    0.73000002    2.78999996
   18.71833420  121.15599823    0.73000002    2.78999996
   18.72138977  117.55899811    0.73000002    2.76999998
   18.72472191  116.15499878    0.73000002    2.76999998
   18.72777748  111.13200378    0.75000000    2.78999996
   18.73111153  120.15699768    0.76999998    2.78999996
   18.73444557  115.91500092    0.75000000    2.78999996
   18.73611069  115.96399689    0.76999998    2.78999996
   18.73805618  106.33799744    0.76999998    2.78999996
   18.74111176  111.43599701    0.79000002    2.78999996
   18.74444389  112.00499725    0.79000002    2.76999998
   18.75055504  112.00499725    0.79000002    2.78999996
   18.75472260  116.52300262    0.79000002    2.78999996
   18.75777817  113.59100342    0.80000001    2.78999996
   18.76111031  116.16500092    0.79000002    2.76999998
   18.76416588  116.45800018    0.79000002    2.78999996
   18.76749992  119.16200256    0.79000002    2.76999998
   18.76944351  116.19499969    0.79000002    2.78999996
   18.77111053  116.66300201    0.79000002    2.78999996
   18.77416611  115.56199646    0.80000001    2.76999998
   18.77750015  113.43499756    0.80000001    2.76999998
   18.78083229  121.31900024    0.80000001    2.78999996
   18.78388786  118.45899963    0.80000001    2.78999996
   18.78722191  120.44799805    0.80000001    2.76999998
   18.79333305  120.44799805    0.79000002    2.76999998
   18.79749870  113.49400330    0.79000002    2.78999996
   18.80055428  116.91400146    0.80000001    2.76999998
   18.80277634  125.08799744    0.76999998    2.76999998
   18.80444336  114.94400024    0.76999998    2.76999998
   18.80777740  119.27600098    0.79000002    2.76999998
   18.81083298  117.18299866    0.76999998    2.76999998
   18.81416512  114.97000122    0.76999998    2.76999998
   18.81750107  117.02200317    0.76999998    2.76999998
   18.82055664  115.40499878    0.79000002    2.76999998
   18.82389069  115.87100220    0.81999999    2.76999998
   18.82694626  113.10800171    0.86000001    2.76999998
   18.83027840  111.97100067    0.89999998    2.78999996
   18.83611107  111.97100067    0.92000002    2.76999998
   18.84027863  112.11799622    0.94000000    2.76999998
   18.84361267  117.86799622    0.98000002    2.76999998
   18.84666824  114.62899780    0.95999998    2.76999998
   18.85000038  117.75399780    0.95999998    2.76999998
   18.85333443  114.88999939    0.92000002    2.76999998
   18.85639000  114.27400208    0.86000001    2.76999998
   18.85972214  113.50299835    0.83999997    2.76999998
   18.86305618  115.97599792    0.81999999    2.76999998
   18.86611176  119.58200073    0.81999999    2.76999998
   18.86944389  117.04599762    0.81999999    2.78999996
   18.87111092  115.87699890    0.80000001    2.78999996
   18.87305641  115.21800232    0.80000001    2.76999998
   18.87916756  115.21800232    0.79000002    2.76999998
   18.88305473  116.48899841    0.79000002    2.76999998
   18.88638878  115.77799988    0.79000002    2.76999998
   18.88972282  113.00099945    0.76999998    2.76999998
   18.89277840  112.26200104    0.76999998    2.76999998
   18.89611053  118.10299683    0.76999998    2.76999998
   18.89944458  117.23400116    0.76999998    2.76999998
   18.90250015  113.59799957    0.76999998    2.76999998
   18.90444374  115.36900330    0.76999998    2.78999996
   18.90611076  117.07399750    0.76999998    2.78999996
   18.90944481  117.57700348    0.75000000    2.78999996
   18.91250038  116.50800323    0.76999998    2.78999996
   18.91583252  115.43499756    0.79000002    2.76999998
   18.92194366  115.43499756    0.81999999    2.76999998
   18.92611122  120.70099640    0.79000002    2.76999998
   18.92916679  115.17500305    0.79000002    2.78999996
   18.93249893  110.62100220    0.79000002    2.76999998
   18.93583298  105.38200378    0.79000002    2.76999998
   18.93805504  113.04000092    0.80000001    2.78999996
   18.93944359  112.01899719    0.80000001    2.78999996
   18.94249916  112.89399719    0.86000001    2.76999998
   18.94583321  111.84500122    0.88000000    2.78999996
   18.94916534  112.91999817    0.92000002    2.78999996
   18.95222282  116.56500244    0.95999998    2.76999998
   18.95555687  114.31500244    0.92000002    2.76999998
   18.95888901  109.92400360    0.98000002    2.76999998
   18.96472359  109.92400360    1.05999994    2.76999998
   18.96888924  115.46800232    0.83999997    2.76999998
   18.97138977  115.91500092    0.83999997    2.76999998
   18.97249985  116.58499908    0.83999997    2.76999998
   18.97555542  115.55699921    0.86000001    2.76999998
   18.97888947  121.90000153    0.95999998    2.76999998
   18.98222351  111.12300110    1.01999998    2.76999998
   18.98527718  112.98500061    0.92000002    2.76999998
   18.98861122  117.88500214    0.83999997    2.76999998
   18.99194527  114.22399902    0.83999997    2.76999998
   18.99500084  115.58799744    0.80000001    2.76999998
   18.99833298  114.44699860    0.81999999    2.76999998
   19.00166702  107.89600372    0.80000001    2.76999998
   19.00749969  107.89600372    0.86000001    2.76999998
   19.01166725  112.92500305    0.92000002    2.76999998
   19.01499939  109.70099640    0.88000000    2.76999998
   19.01805496  125.55300140    0.92000002    2.76999998
   19.02138901   97.17040253    0.89999998    2.76999998
   19.02472115  111.17099762    0.89999998    2.76999998
   19.02777672  112.33100128    0.98000002    2.76999998
   19.03111076  116.83399963    1.03999996    2.76999998
   19.03444481  112.51399994    1.00000000    2.76999998
   19.03750038  112.36699677    1.01999998    2.76999998
   19.03833199  112.94599915    1.01999998    2.76999998
   19.04111099  116.35900116    1.01999998    2.75000000
   19.04444313  114.48699951    0.88000000    2.78999996
   19.05027771  114.48699951    1.00000000    2.76999998
   19.05444336  109.84600067    0.92000002    2.75000000
   19.05777740  116.52400208    0.92000002    2.76999998
   19.06110954  111.85099792    0.88000000    2.76999998
   19.06416512  115.78900146    0.89999998    2.76999998
   19.06750107  111.51000214    0.89999998    2.76999998
   19.07083511  109.36100006    0.92000002    2.76999998
   19.07194519  115.81500244    0.92000002    2.76999998
   19.07444572  120.22299957    0.95999998    2.76999998
   19.07777786  116.63099670    1.05999994    2.76999998
   19.08083344  106.23799896    1.00000000    2.78999996
   19.08416748  124.83300018    0.98000002    2.76999998
   19.08750153  106.46399689    0.98000002    2.76999998
   19.09333420  106.46399689    1.01999998    2.76999998
   19.09749985  126.03399658    1.01999998    2.76999998
   19.10055542  115.77799988    1.00000000    2.76999998
   19.10388947  116.91000366    0.95999998    2.76999998
   19.10527802  120.42900085    0.95999998    2.76999998
   19.10750008  121.75299835    0.94000000    2.76999998
   19.11083412  128.17300415    0.92000002    2.76999998
   19.11388969  116.21800232    0.89999998    2.76999998
   19.11722183  113.50900269    0.89999998    2.76999998
   19.12027740  109.95700073    0.89999998    2.75000000
   19.12361145  116.68099976    0.86000001    2.75000000
   19.12666702  111.72799683    0.81999999    2.76999998
   19.13000107  108.41100311    0.80000001    2.75000000
   19.13611031  108.41100311    0.79000002    2.76999998
   19.15444374  117.78500366    0.80000001    2.76999998
   19.15777779  116.99600220    0.80000001    2.76999998
   19.16083336  114.36599731    0.80000001    2.76999998
   19.16416550  117.88700104    0.81999999    2.76999998
   19.16722107  115.23899841    0.80000001    2.76999998
   19.17055511  118.73999786    0.83999997    2.76999998
   19.17388916  117.49099731    0.81999999    2.75000000
   19.17888832  117.49099731    0.80000001    2.76999998
   19.18305397  121.21099854    0.80000001    2.76999998
   19.18638802  122.58499908    0.80000001    2.75000000
   19.18750000  115.16000366    0.80000001    2.75000000
   19.18999863  115.91000366    0.80000001    2.75000000
   19.19305420  113.99700165    0.80000001    2.75000000
   19.19638824  119.18900299    0.81999999    2.76999998
   19.19972038  106.24700165    0.83999997    2.75000000
   19.20277786  113.80400085    0.89999998    2.76999998
   19.20611191  111.83599854    0.88000000    2.76999998
   19.20944595  116.41600037    0.88000000    2.75000000
   19.21250153  112.70500183    0.88000000    2.75000000
   19.21583366  116.03500366    0.88000000    2.75000000
   19.22166634  116.03500366    0.92000002    2.75000000
   19.22583389  114.14600372    0.89999998    2.76999998
   19.22916794  115.53600311    0.88000000    2.76999998
   19.23250008  110.78900146    0.86000001    2.75000000
   19.23555565  113.96099854    0.83999997    2.75000000
   19.23888969  109.21499634    0.83999997    2.75000000
   19.24194527  111.50199890    0.83999997    2.75000000
   19.24527740  123.96600342    0.83999997    2.75000000
   19.24861145  115.75399780    0.80000001    2.75000000
   19.25166702  113.86699677    0.83999997    2.75000000
   19.25416756  120.95200348    0.83999997    2.75000000
   19.25555611  116.32099915    0.83999997    2.75000000
   19.25861168  114.98600006    0.83999997    2.75000000
   19.26472282  114.98600006    0.86000001    2.75000000
   19.26888847  111.45300293    0.89999998    2.75000000
   19.27194405  117.46399689    0.89999998    2.75000000
   19.27527809  113.18099976    0.89999998    2.75000000
   19.27833366  115.10700226    0.95999998    2.76999998
   19.28166580  113.59799957    0.95999998    2.75000000
   19.28499985  116.15100098    1.01999998    2.75000000
   19.28750038  112.73899841    1.01999998    2.75000000
   19.28861046  110.17299652    1.01999998    2.75000000
   19.29166603  115.32700348    1.05999994    2.75000000
   19.29500008  114.91300201    1.19000006    2.75000000
   19.29833221  109.68000031    1.16999996    2.75000000
   19.30138779  114.50900269    1.16999996    2.75000000
   19.30749893  114.50900269    1.13000000    2.75000000
   19.31166649  119.64600372    1.13000000    2.75000000
   19.31472206  122.99700165    1.13000000    2.75000000
   19.31805611  120.07099915    1.16999996    2.75000000
   19.32083511  120.05899811    1.19000006    2.76999998
   19.32166672  120.66699982    1.19000006    2.76999998
   19.32472229  118.53399658    1.03999996    2.75000000
   19.32805634  114.80300140    1.01999998    2.75000000
   19.33139038  114.27700043    1.03999996    2.75000000
   19.33444595  108.02700043    1.03999996    2.75000000
   19.33777809  110.85399628    1.09000003    2.75000000
   19.34111214  110.25399780    1.11000001    2.75000000
   19.34416771  118.66699982    1.01999998    2.73000002
   19.35027885  118.66699982    0.98000002    2.75000000
   19.35444450  108.47200012    1.00000000    2.73000002
   19.35777855  113.59799957    1.01999998    2.75000000
   19.36083412  112.80500031    1.05999994    2.75000000
   19.36416626  114.86900330    1.07000005    2.75000000
   19.36722183  109.27799988    1.03999996    2.75000000
   19.37055588  113.78299713    1.03999996    2.75000000
   19.37388992  114.08499908    1.01999998    2.75000000
   19.37694550  114.59899902    1.01999998    2.75000000
   19.38027763  113.78500366    1.00000000    2.75000000
   19.38361168  119.45099640    1.00000000    2.75000000
   19.38666725  114.52799988    1.00000000    2.75000000
   19.38750076  109.20500183    1.01999998    2.73000002
   19.39305496  109.20500183    1.03999996    2.75000000
   19.39722252  122.78600311    1.03999996    2.75000000
   19.40055466  109.53500366    1.03999996    2.73000002
   19.40361023  113.32599640    1.05999994    2.73000002
   19.40694427  112.98300171    1.09000003    2.75000000
   19.41027832  113.52700043    1.11000001    2.73000002
   19.41333389  110.78600311    1.09000003    2.73000002
   19.41666603  114.43699646    1.11000001    2.73000002
   19.42000008  115.04399872    1.11000001    2.73000002
   19.42083359  118.08599854    1.11000001    2.73000002
   19.42361069  110.21600342    1.14999998    2.73000002
   19.42694473  112.70700073    1.21000004    2.73000002
   19.43000031  114.86199951    1.25000000    2.73000002
   19.43610954  114.86199951    1.25000000    2.73000002
   19.43999863  110.63700104    1.21000004    2.73000002
   19.44333267  117.95800018    1.16999996    2.75000000
   19.44666672  116.23899841    1.14999998    2.73000002
   19.44972038  112.30400085    1.13000000    2.73000002
   19.45305634  114.66500092    1.13000000    2.73000002
   19.45416832  116.68900299    1.13000000    2.73000002
   19.45666695  118.44499969    1.11000001    2.73000002
   19.46000099  119.01899719    1.09000003    2.73000002
   19.46305656  111.90799713    1.11000001    2.73000002
   19.46638870  115.70899963    1.13000000    2.75000000
   19.46972275  118.15299988    1.13000000    2.75000000
   19.47277832  111.92400360    1.13000000    2.73000002
   19.47888947  111.92400360    1.13000000    2.75000000
   19.48305511  115.21199799    1.14999998    2.73000002
   19.48611069  118.39499664    1.13000000    2.73000002
   19.48750114  109.63700104    1.13000000    2.73000002
   19.48972321  112.60299683    1.16999996    2.73000002
   19.49305534  111.43399811    1.13000000    2.73000002
   19.49611092  113.80799866    1.11000001    2.73000002
   19.49944496  115.65599823    1.11000001    2.73000002
   19.50250053  111.98899841    1.09000003    2.75000000
   19.50583267  117.07199860    1.07000005    2.73000002
   19.50916672  115.02999878    1.07000005    2.75000000
   19.51222229  121.43099976    1.07000005    2.73000002
   19.51555634  116.99299622    1.11000001    2.73000002
   19.52166557  116.99299622    1.09000003    2.73000002
   19.52583313  115.21800232    1.05999994    2.73000002
   19.52916718  114.29799652    1.05999994    2.73000002
   19.53249931  119.82199860    1.05999994    2.73000002
   19.53555489  110.36699677    1.05999994    2.73000002
   19.53888893  114.12200165    1.05999994    2.73000002
   19.54222107  119.04399872    1.05999994    2.73000002
   19.54527664  116.63700104    1.05999994    2.73000002
   19.54861069  119.67500305    1.09000003    2.73000002
   19.55194283  122.51100159    1.03999996    2.73000002
   19.55416679  114.36100006    1.03999996    2.73000002
   19.55555534  122.92600250    1.05999994    2.73000002
   19.55888748  115.68499756    1.05999994    2.73000002
   19.56444359  115.68499756    1.03999996    2.73000002
   19.56861115  112.28099823    1.03999996    2.73000002
   19.57194519  125.18699646    1.03999996    2.73000002
   19.57527924  114.04900360    1.03999996    2.73000002
   19.57833481  117.68599701    1.03999996    2.73000002
   19.58166695  115.14199829    1.00000000    2.73000002
   19.58472252  110.74500275    1.00000000    2.73000002
   19.58750153  118.89099884    0.98000002    2.73000002
   19.58861160  121.84500122    0.98000002    2.73000002
   19.59194565  111.91699982    0.98000002    2.73000002
   19.59500122  121.48799896    1.00000000    2.73000002
   19.59833336  120.63800049    0.98000002    2.73000002
   19.60166740  111.55500031    0.95999998    2.71000004
   19.60750008  111.55500031    0.98000002    2.73000002
   19.61138916  115.36000061    0.98000002    2.73000002
   19.61472321  114.96800232    1.00000000    2.71000004
   19.61805534  117.10199738    1.01999998    2.73000002
   19.62083435  122.64700317    1.01999998    2.71000004
   19.62166595  112.76599884    1.01999998    2.71000004
   19.62500000  110.96900177    1.01999998    2.71000004
   19.62805557  115.92900085    1.00000000    2.71000004
   19.63138962  116.48699951    0.98000002    2.71000004
   19.63472176  117.53600311    1.00000000    2.73000002
   19.63777733  115.00800323    0.98000002    2.71000004
   19.64111137  121.75700378    1.00000000    2.71000004
   19.64416695  123.82399750    1.03999996    2.73000002
   19.65027809  123.82399750    1.03999996    2.71000004
   19.65444374  112.04000092    1.01999998    2.71000004
   19.65749931  116.04000092    1.01999998    2.71000004
   19.66083336  114.33000183    1.01999998    2.71000004
   19.66416550  110.55899811    1.01999998    2.71000004
   19.66722107  115.73000336    1.01999998    2.71000004
   19.67055511  111.87200165    1.07000005    2.73000002
   19.67361069  111.05000305    1.05999994    2.71000004
   19.67694473  120.43599701    1.03999996    2.71000004
   19.68027687  113.75199890    1.07000005    2.71000004
   19.68333244  117.27799988    1.09000003    2.71000004
   19.68666649  114.31199646    1.09000003    2.71000004
   19.68750000  109.85500336    1.13000000    2.71000004
   19.69305420  109.85500336    1.16999996    2.71000004
   19.69722176  110.50900269    1.26999998    2.71000004
   19.70055580  116.84799957    1.26999998    2.69000006
   19.70361137  111.38800049    1.26999998    2.71000004
   19.70694542  122.19899750    1.25000000    2.71000004
   19.71027946  113.11900330    1.28999996    2.71000004
   19.71333504  115.38999939    1.41999996    2.71000004
   19.71666718  117.41699982    1.38000000    2.69000006
   19.72000122  114.59799957    1.38000000    2.71000004
   19.72083473  115.52799988    1.38000000    2.69000006
   19.72361183  113.34400177    1.36000001    2.71000004
   19.72694588  114.44100189    1.34000003    2.71000004
   19.73000145  118.47100067    1.25000000    2.71000004
   19.73583412  118.47100067    1.25000000    2.71000004
   19.73999977  112.18800354    1.25000000    2.71000004
   19.74333382  111.72399902    1.33000004    2.71000004
   19.74666786  114.23300171    1.16999996    2.71000004
   19.74972153  109.61799622    1.25000000    2.71000004
   19.75305557  105.28199768    1.23000002    2.71000004
   19.75416756  114.03600311    1.23000002    2.71000004
   19.75666618  112.59600067    1.33000004    2.71000004
   19.76000023  117.85800171    1.33000004    2.71000004
   19.76305580  117.26200104    1.41999996    2.69000006
   19.76638794  113.59100342    1.46000004    2.71000004
   19.76972198  111.19699860    1.46000004    2.69000006
   19.77277756  103.54100037    1.34000003    2.69000006
   19.77888870  103.54100037    1.34000003    2.69000006
   19.78277779  110.99400330    1.33000004    2.71000004
   19.78610992  115.11000061    1.36000001    2.69000006
   19.78750038  113.39600372    1.39999998    2.71000004
   19.78972244  111.00000000    1.33000004    2.71000004
   19.79305458  111.81999969    1.21000004    2.69000006
   19.79638863  117.26999664    1.16999996    2.69000006
   19.79944420  115.47599792    1.21000004    2.69000006
   19.80277634  115.18099976    1.21000004    2.71000004
   19.80583191  112.23799896    1.21000004    2.69000006
   19.80916595  111.90899658    1.23000002    2.71000004
   19.81250000  115.76300049    1.23000002    2.69000006
   19.81555557  113.96499634    1.21000004    2.69000006
   19.82166672  113.96499634    1.21000004    2.69000006
   19.82583427  110.89299774    1.13000000    2.71000004
   19.82888985  111.18299866    1.09000003    2.69000006
   19.83222389  108.36299896    1.11000001    2.71000004
   19.83555603  114.65399933    1.11000001    2.71000004
   19.83861160  111.13400269    1.14999998    2.69000006
   19.84194565  110.70099640    1.19000006    2.69000006
   19.84500122  111.47899628    1.14999998    2.69000006
   19.84833336  115.55400085    1.14999998    2.69000006
   19.85166740  107.90599823    1.14999998    2.69000006
   19.85444450  112.38999939    1.11000001    2.69000006
   19.85527802  108.44999695    1.11000001    2.69000006
   19.85861206  110.67299652    1.01999998    2.71000004
   19.86444473  110.67299652    1.01999998    2.71000004
   19.86861038  109.50599670    1.00000000    2.71000004
   19.87194443  114.79699707    0.94000000    2.69000006
   19.87500000  111.08999634    0.95999998    2.69000006
   19.87833405  119.47399902    0.95999998    2.69000006
   19.88138962  116.93900299    0.95999998    2.69000006
   19.88472176  116.77600098    0.95999998    2.69000006
   19.88777733  113.42700195    1.01999998    2.69000006
   19.88833237  112.79199982    1.01999998    2.69000006
   19.89166641  112.55699921    1.01999998    2.71000004
   19.89472198  112.66799927    1.03999996    2.69000006
   19.89805603  118.47000122    1.01999998    2.69000006
   19.90138817  116.33999634    1.01999998    2.69000006
   19.90722275  116.33999634    1.03999996    2.69000006
   19.91138840  117.03900146    1.01999998    2.69000006
   19.91472244  117.74700165    1.01999998    2.69000006
   19.91777802  115.72399902    1.01999998    2.69000006
   19.92111015  122.32299805    1.03999996    2.69000006
   19.92138863  114.97299957    1.03999996    2.69000006
   19.92472076  115.54000092    1.03999996    2.69000006
   19.92777634  111.47899628    1.03999996    2.69000006
   19.93111038  114.32800293    1.03999996    2.69000006
   19.93444443  118.56099701    1.03999996    2.69000006
   19.93750000  116.44300079    1.09000003    2.69000006
   19.94083214  115.78399658    1.09000003    2.69000006
   19.94416618  122.42600250    1.09000003    2.69000006
   19.95027924  122.42600250    1.16999996    2.69000006
   19.95444489  118.89499664    1.16999996    2.67000008
   19.95472336  116.28199768    1.16999996    2.67000008
   19.95805550  115.44400024    1.19000006    2.69000006
   19.96111107  106.23100281    1.19000006    2.67000008
   19.96444511  122.54100037    1.19000006    2.69000006
   19.96777916  115.30100250    1.19000006    2.69000006
   19.97083473  118.49199677    1.19000006    2.69000006
   19.97416687  123.76399994    1.21000004    2.67000008
   19.97750092  117.36900330    1.21000004    2.67000008
   19.98055649  114.32299805    1.21000004    2.67000008
   19.98388863  119.31400299    1.21000004    2.67000008
   19.98722267  113.56300354    1.23000002    2.67000008
   19.98777771  117.19100189    1.23000002    2.67000008
   19.99305534  117.19100189    1.13000000    2.67000008
   19.99722290  117.61499786    1.13000000    2.67000008
   20.00027847  119.04499817    1.11000001    2.67000008
   20.00361061  111.39299774    1.19000006    2.67000008
   20.00694466  119.19300079    1.19000006    2.67000008
   20.01000023  125.54799652    1.19000006    2.67000008
   20.01333427  124.19999695    1.16999996    2.67000008
   20.01638794  120.45300293    1.13000000    2.67000008
   20.01972198  119.31500244    1.11000001    2.67000008
   20.02111053  113.28600311    1.09000003    2.67000008
   20.02333260  117.97200012    1.07000005    2.67000008
   20.02666664  118.34100342    1.05999994    2.66000009
   20.03000069  123.78199768    1.03999996    2.67000008
   20.03583336  123.78199768    1.01999998    2.67000008
   20.03999901  121.54299927    1.03999996    2.67000008
   20.04333305  118.68199921    1.05999994    2.67000008
   20.04638863  123.81300354    1.09000003    2.67000008
   20.04972076  125.49700165    1.11000001    2.67000008
   20.05305481  119.24900055    1.11000001    2.67000008
   20.05444336  120.47799683    1.11000001    2.67000008
   20.05638885  118.11199951    1.13000000    2.67000008
   20.05972099  117.79799652    1.13000000    2.67000008
   20.06305504  122.14199829    1.13000000    2.66000009
   20.06611061  114.45400238    1.13000000    2.67000008
   20.06944466  119.79599762    1.11000001    2.67000008
   20.07250023  120.34700012    1.11000001    2.66000009
   20.07861137  120.34700012    1.07000005    2.67000008
   20.08277893  114.57700348    1.05999994    2.67000008
   20.08611107  118.95400238    1.07000005    2.67000008
   20.08777809  123.42099762    1.09000003    2.67000008
   20.08972359  111.15699768    1.09000003    2.66000009
   20.09305573  124.11599731    1.09000003    2.66000009
   20.09638977  116.52300262    1.11000001    2.66000009
   20.09944534  119.49400330    1.11000001    2.66000009
   20.10277748  120.80400085    1.13000000    2.66000009
   20.10583305  116.44300079    1.14999998    2.66000009
   20.10916710  115.48600006    1.16999996    2.67000008
   20.11250114  124.67600250    1.19000006    2.66000009
   20.11555672  122.29399872    1.21000004    2.66000009
   20.12166595  122.29399872    1.23000002    2.66000009
   20.12555504  115.86100006    1.28999996    2.66000009
   20.12888908  113.41799927    1.28999996    2.66000009
   20.13222313  116.54699707    1.26999998    2.66000009
   20.13527679  118.34200287    1.28999996    2.66000009
   20.13861084  118.78299713    1.25000000    2.66000009
   20.14194489  119.64600372    1.25000000    2.67000008
   20.14500046  124.98899841    1.26999998    2.66000009
   20.14833260  120.38999939    1.26999998    2.66000009
   20.15138817  121.25499725    1.28999996    2.66000009
   20.15444374  118.68499756    1.28999996    2.66000009
   20.17138863  118.66000366    1.25000000    2.66000009
   20.17555428  118.66000366    1.21000004    2.66000009
   20.17972183  113.53299713    1.19000006    2.66000009
   20.18305397  114.52500153    1.16999996    2.66000009
   20.18638802  114.09899902    1.16999996    2.66000009
   20.18805504  116.13099670    1.16999996    2.67000008
   20.18999863  115.86199951    1.13000000    2.66000009
   20.19333267  115.27300262    1.13000000    2.66000009
   20.19638824  125.46700287    1.13000000    2.66000009
   20.19972038  120.55200195    1.13000000    2.66000009
   20.20305634  121.80200195    1.11000001    2.66000009
   20.20611191  121.87999725    1.21000004    2.66000009
   20.20944595  125.57800293    1.21000004    2.66000009
   20.21277809  123.30799866    1.23000002    2.66000009
   20.21833420  123.30799866    1.25000000    2.64000010
   20.22249985  123.07399750    1.41999996    2.66000009
   20.22555542  123.30699921    1.55999994    2.64000010
   20.22888947  121.65399933    1.55999994    2.64000010
   20.23222351  127.95099640    1.55999994    2.64000010
   20.23527718  112.19100189    1.51999998    2.64000010
   20.23861122  121.09200287    1.48000002    2.64000010
   20.24194527  118.68299866    1.38000000    2.64000010
   20.24500084  121.15299988    1.38000000    2.64000010
   20.24833298  124.04299927    1.36000001    2.64000010
   20.25138855  120.49099731    1.30999994    2.64000010
   20.25444412  124.76699829    1.30999994    2.64000010
   20.25499916  119.81099701    1.30999994    2.64000010
   20.26111031  119.81099701    1.26999998    2.64000010
   20.26527786  125.39800262    1.23000002    2.64000010
   20.26861000  120.25900269    1.23000002    2.64000010
   20.27166557  122.14900208    1.21000004    2.66000009
   20.27499962  116.50399780    1.16999996    2.64000010
   20.27833366  118.82299805    1.16999996    2.64000010
   20.28138924  122.94000244    1.16999996    2.64000010
   20.28472137  125.35199738    1.16999996    2.64000010
   20.28777695  117.28900146    1.16999996    2.64000010
   20.28833199  118.59200287    1.19000006    2.64000010
   20.29166603  121.77799988    1.19000006    2.64000010
   20.29472160  121.98799896    1.23000002    2.64000010
   20.29805565  122.48200226    1.28999996    2.64000010
   20.30416679  122.48200226    1.33000004    2.64000010
   20.30805397  107.29100037    1.30999994    2.64000010
   20.31138802  122.92500305    1.30999994    2.64000010
   20.31472206  123.05699921    1.26999998    2.64000010
   20.31777954  131.99899292    1.36000001    2.64000010
   20.32111168  122.31400299    1.38000000    2.64000010
   20.32166672  133.98800659    1.38000000    2.64000010
   20.32472229  118.37200165    1.38000000    2.64000010
   20.32805634  124.49299622    1.38000000    2.64000010
   20.33139038  119.38500214    1.64999998    2.61999989
   20.33444595  123.49299622    1.41999996    2.64000010
   20.33777809  123.96199799    1.39999998    2.64000010
   20.34111214  124.95300293    1.39999998    2.61999989
   20.34694481  124.95300293    1.44000006    2.61999989
   20.35111237  123.10500336    1.48000002    2.61999989
   20.35416794  122.78199768    1.50000000    2.61999989
   20.35499954  133.24600220    1.50000000    2.61999989
   20.35805511  121.98999786    1.50000000    2.61999989
   20.36138916  128.16299438    1.60000002    2.61999989
   20.36444473  124.59200287    1.58000004    2.61999989
   20.36777878  121.39299774    1.58000004    2.61999989
   20.37111092  126.15000153    1.58000004    2.61999989
   20.37416649  126.39700317    1.61000001    2.61999989
   20.37750053  123.72499847    1.64999998    2.61999989
   20.38055611  126.43699646    1.66999996    2.61999989
   20.38388824  129.47300720    1.76999998    2.61999989
   20.38972282  129.47300720    1.75000000    2.61999989
   20.39388847  130.61999512    1.69000006    2.61999989
   20.39694405  128.15899658    1.64999998    2.61999989
   20.40027809  126.56300354    1.63000000    2.61999989
   20.40361023  118.40000153    1.61000001    2.61999989
   20.40666580  126.81900024    1.55999994    2.59999990
   20.40999985  128.94099426    1.58000004    2.59999990
   20.41333389  137.07200623    1.58000004    2.59999990
   20.41638756  129.95199585    1.55999994    2.59999990
   20.41972160  129.85499573    1.61000001    2.59999990
   20.42166519  127.26200104    1.55999994    2.59999990
   20.42333221  120.20200348    1.55999994    2.59999990
   20.42638779  120.56999969    1.50000000    2.59999990
   20.43277740  120.56999969    1.46000004    2.59999990
   20.43694305  121.96499634    1.50000000    2.59999990
   20.43999863  130.63800049    1.51999998    2.59999990
   20.44333267  124.87799835    1.60000002    2.59999990
   20.44666672  121.55999756    1.60000002    2.59999990
   20.44972038  124.43099976    1.55999994    2.59999990
   20.45305634  136.05000305    1.55999994    2.59999990
   20.45499992  134.97200012    1.55999994    2.59999990
   20.45666695  130.61700439    1.55999994    2.59999990
   20.45972252  127.44699860    1.55999994    2.59999990
   20.46305656  129.75500488    1.53999996    2.59999990
   20.46611214  121.26499939    1.55999994    2.59999990
   20.46944427  126.88500214    1.55999994    2.59999990
   20.47527885  126.88500214    1.55999994    2.59999990
   20.47944450  129.34199524    1.53999996    2.59999990
   20.48277855  119.48999786    1.48000002    2.59999990
   20.48611069  126.04499817    1.48000002    2.59999990
   20.48833275  129.08999634    1.46000004    2.59999990
   20.48972321  126.71900177    1.46000004    2.59999990
   20.49277878  127.63400269    1.46000004    2.59999990
   20.49611092  132.14700317    1.44000006    2.59999990
   20.49916649  131.16900635    1.44000006    2.59999990
   20.50250053  127.71399689    1.44000006    2.59999990
   20.50583267  131.30799866    1.48000002    2.59999990
   20.50888824  133.11000061    1.46000004    2.57999992
   20.51222229  124.12699890    1.48000002    2.59999990
   20.51833344  124.12699890    1.46000004    2.57999992
   20.52249908  128.77200317    1.48000002    2.59999990
   20.52555466  131.35000610    1.50000000    2.57999992
   20.52888870  128.53300476    1.53999996    2.57999992
   20.53194427  122.61100006    1.55999994    2.57999992
   20.53527641  127.29699707    1.53999996    2.57999992
   20.53861046  127.01100159    1.58000004    2.59999990
   20.54166603  124.53199768    1.58000004    2.59999990
   20.54500008  120.39700317    1.60000002    2.59999990
   20.54833221  140.06799316    1.60000002    2.59999990
   20.55138779  124.73200226    1.60000002    2.59999990
   20.55472183  127.78700256    1.53999996    2.57999992
   20.55527687  142.18099976    1.53999996    2.57999992
   20.56110954  142.18099976    1.51999998    2.57999992
   20.56527710  135.91799927    1.46000004    2.57999992
   20.56833458  129.51300049    1.46000004    2.57999992
   20.57166672  140.30599976    1.44000006    2.57999992
   20.57500076  124.58699799    1.48000002    2.59999990
   20.57805634  135.36799622    1.39999998    2.57999992
   20.58139038  132.72999573    1.39999998    2.57999992
   20.58472252  130.15400696    1.39999998    2.57999992
   20.58777809  122.00299835    1.39999998    2.57999992
   20.58861160  133.14399719    1.39999998    2.57999992
   20.59138870  133.11300659    1.39999998    2.57999992
   20.59472275  124.98300171    1.38000000    2.57999992
   20.59805679  137.02499390    1.44000006    2.57999992
   20.60388947  137.02499390    1.53999996    2.57999992
   20.60805511  132.12500000    1.53999996    2.57999992
   20.61138916  136.70100403    1.53999996    2.57999992
   20.61444473  132.31799316    1.53999996    2.57999992
   20.61777878  144.42599487    1.58000004    2.57999992
   20.62111092  139.76300049    1.53999996    2.55999994
   20.62194443  144.70599365    1.55999994    2.55999994
   20.62444496  136.52099609    1.55999994    2.57999992
   20.62777710  133.24299622    1.53999996    2.55999994
   20.63111115  143.61399841    1.53999996    2.57999992
   20.63416672  135.01899719    1.53999996    2.57999992
   20.63750076  143.22999573    1.60000002    2.55999994
   20.64083290  137.86900330    1.61000001    2.55999994
   20.64666748  137.86900330    1.63000000    2.55999994
   20.65083313  132.95300293    1.63000000    2.57999992
   20.65416718  140.09300232    1.63000000    2.55999994
   20.65527725  144.85200500    1.61000001    2.55999994
   20.65777779  133.28999329    1.61000001    2.55999994
   20.66110992  134.77999878    1.63000000    2.55999994
   20.66444397  125.61100006    1.64999998    2.55999994
   20.66749954  139.96200562    1.64999998    2.55999994
   20.67083359  134.25999451    1.64999998    2.55999994
   20.67416573  139.76400757    1.63000000    2.55999994
   20.67722130  136.61000061    1.64999998    2.55999994
   20.68055534  136.21899414    1.66999996    2.55999994
   20.68361092  146.04299927    1.71000004    2.55999994
   20.68972206  146.04299927    1.76999998    2.55999994
   20.69388771  138.01400757    1.75000000    2.55999994
   20.69694328  137.24699402    1.73000002    2.55999994
   20.70027924  141.51199341    1.75000000    2.55999994
   20.70333481  122.44799805    1.75000000    2.55999994
   20.70666695  146.06399536    1.78999996    2.55999994
   20.71000099  137.96400452    1.83000004    2.55999994
   20.71305656  146.16499329    1.83000004    2.55999994
   20.71638870  139.72900391    1.73000002    2.55999994
   20.71972275  144.27900696    1.64999998    2.53999996
   20.72194481  137.47000122    1.63000000    2.53999996
   20.72305679  144.34800720    1.63000000    2.53999996
   20.72638893  139.29499817    1.60000002    2.55999994
   20.73250008  139.29499817    1.61000001    2.53999996
   20.73666763  140.89900208    1.60000002    2.53999996
   20.73972321  148.74000549    1.60000002    2.53999996
   20.74305534  148.38099670    1.61000001    2.53999996
   20.74638939  136.46899414    1.60000002    2.53999996
   20.74944496  140.57800293    1.63000000    2.53999996
   20.75277710  143.65499878    1.63000000    2.55999994
   20.75527763  138.65800476    1.63000000    2.55999994
   20.75638962  139.55200195    1.58000004    2.53999996
   20.75972176  142.33200073    1.53999996    2.53999996
   20.76305580  142.05299377    1.53999996    2.53999996
   20.76611137  136.89599609    1.51999998    2.53999996
   20.76944351  137.95399475    1.53999996    2.53999996
   20.77527809  137.95399475    1.55999994    2.53999996
   20.77944374  148.51800537    1.55999994    2.53999996
   20.78277779  142.76300049    1.55999994    2.53999996
   20.78583336  147.42199707    1.58000004    2.53999996
   20.78861046  139.37600708    1.64999998    2.51999998
   20.78944397  149.54100037    1.64999998    2.51999998
   20.79277802  139.80599976    1.66999996    2.51999998
   20.79611015  150.22900391    1.66999996    2.51999998
   20.79916573  144.41099548    1.66999996    2.51999998
   20.80249977  155.94200134    1.69000006    2.53999996
   20.80583191  142.49000549    1.66999996    2.53999996
   20.80888748  152.69099426    1.76999998    2.51999998
   20.81222153  138.61500549    1.76999998    2.51999998
   20.81805611  138.61500549    1.78999996    2.51999998
   20.82222366  155.77900696    1.78999996    2.51999998
   20.82555580  140.70500183    1.80999994    2.51999998
   20.82888985  139.30099487    1.78999996    2.51999998
   20.83194542  151.18099976    1.78999996    2.51999998
   20.83527756  140.88499451    1.71000004    2.51999998
   20.83861160  145.67199707    1.71000004    2.51999998
   20.84166718  154.36799622    1.71000004    2.51999998
   20.84500122  152.63699341    1.71000004    2.51999998
   20.84805679  164.03799438    1.66999996    2.51999998
   20.85138893  146.01100159    1.66999996    2.51999998
   20.85472298  162.61099243    1.69000006    2.51999998
   20.85527802  146.84599304    1.69000006    2.51999998
   20.86111069  146.84599304    1.69000006    2.51999998
   20.86527824  139.43200684    1.71000004    2.51999998
   20.86833382  156.01600647    1.73000002    2.51999998
   20.87166595  152.33599854    1.76999998    2.51999998
   20.87472153  143.58599854    1.83000004    2.50000000
   20.87805557  147.75599670    1.76999998    2.50000000
   20.88138962  156.23500061    1.76999998    2.50000000
   20.88444519  154.55599976    1.80999994    2.50000000
   20.88777733  151.94299316    1.86000001    2.50000000
   20.88861084  157.33200073    1.86000001    2.50000000
   20.89166641  148.71499634    1.86000001    2.50000000
   20.89472198  157.15100098    2.00000000    2.50000000
   20.89805603  153.98699951    1.98000002    2.50000000
   20.90388870  153.98699951    1.98000002    2.50000000
   20.90805435  149.08000183    2.23000002    2.50000000
   20.91110992  147.36399841    2.50000000    2.50000000
   20.91444397  151.99299622    2.80999994    2.48000002
   20.91777802  153.72399902    2.66000009    2.48000002
   20.92083359  153.78900146    2.55999994    2.48000002
   20.92194366  150.58000183    2.59999990    2.48000002
   20.92472076  146.85899353    2.75000000    2.48000002
   20.92777634  156.58500671    2.84999990    2.48000002
   20.93111038  158.44900513    2.78999996    2.48000002
   20.93416595  152.08700562    2.76999998    2.48000002
   20.93750000  157.34199524    2.61999989    2.48000002
   20.94083214  154.67999268    2.50000000    2.48000002
   20.94666672  154.67999268    2.46000004    2.48000002
   20.95083427  193.74899292    2.23000002    2.48000002
   20.95416832  241.48399353    2.01999998    2.48000002
   20.95527840  253.80400085    2.01999998    2.48000002
   20.95777893  308.08200073    2.00000000    2.48000002
   20.95972252  367.37399292    2.00000000    2.48000002
   20.96083450  389.15301514    1.98000002    2.48000002
   20.96222305  418.12899780    2.00000000    2.48000002
   20.96361160  378.33099365    2.01999998    2.48000002
   20.96500015  266.48800659    2.03999996    2.46000004
   20.96638870  169.66999817    2.07999992    2.48000002
   20.96666718  152.08700562    2.76999998    2.48000002
   20.96666718  157.34199524    2.61999989    2.48000002
   20.96694565  154.67999268    2.50000000    2.48000002
   20.96694565  193.74899292    2.23000002    2.48000002
   20.96694565  241.48399353    2.01999998    2.48000002
   20.96722221  308.08200073    2.00000000    2.48000002
   20.96722221  146.85899353    2.75000000    2.48000002
   20.96722221  156.58500671    2.84999990    2.48000002
   20.96750069  158.44900513    2.78999996    2.48000002
   20.96805573  152.80799866    2.05999994    2.48000002
   20.97111130   61.02140045    2.07999992    2.48000002
   20.97444534   -1.00000000    2.03999996    2.48000002
   20.97750092   -1.00000000    2.05999994    2.46000004
   20.98083305   -1.00000000    2.03999996    2.46000004
   20.99138832   -1.00000000    1.98000002    2.48000002
   20.99472237   -1.00000000    2.00000000    2.46000004
   20.99777794   -1.00000000    2.01999998    2.48000002
   21.00138855   -1.00000000    2.05999994    2.46000004
   21.00444412   -1.00000000    2.05999994    2.48000002
   21.00777817   -1.00000000    2.07999992    2.46000004
   21.01111031   -1.00000000    2.05999994    2.46000004
   21.01416588   -1.00000000    2.03999996    2.46000004
