    HOUR (UT)   FLARE FACTOR    SKY TESTER    SUN TESTER
   15.06083393   -1.00000000   -1.00000000   -1.00000000
   15.10111141   79.55249786    0.07000000    0.51999998
   15.10444450   78.69110107    0.07000000    0.51999998
   15.10750008   81.78459930    0.07000000    0.51999998
   15.11083412   78.89109802    0.07000000    0.51999998
   15.11388969   83.29209900    0.09000000    0.51999998
   15.11722279   83.81670380    0.07000000    0.51999998
   15.12138939   83.81670380    0.09000000    0.51999998
   15.12555599   82.09390259    0.09000000    0.51999998
   15.12888908   80.79029846    0.09000000    0.51999998
   15.13194466   81.09500122    0.09000000    0.51999998
   15.13444424   77.62100220    0.09000000    0.51999998
   15.13555527   84.39749908    0.09000000    0.51999998
   15.13888836   79.45629883    0.09000000    0.51999998
   15.14222240   81.66369629    0.09000000    0.51999998
   15.14527798   81.18450165    0.09000000    0.51999998
   15.14861107   75.90589905    0.09000000    0.51999998
   15.15194416   80.67569733    0.09000000    0.51999998
   15.15499973   80.09870148    0.09000000    0.51999998
   15.15833282   78.72570038    0.09000000    0.51999998
   15.16416645   78.72570038    0.09000000    0.51999998
   15.16833401   80.20059967    0.09000000    0.51999998
   15.17166710   81.08999634    0.09000000    0.51999998
   15.17472267   79.37680054    0.07000000    0.51999998
   15.17805576   82.06829834    0.07000000    0.51999998
   15.18138885   79.81030273    0.07000000    0.51999998
   15.18472195   79.11329651    0.07000000    0.51999998
   15.18777752   82.22360229    0.07000000    0.51999998
   15.19111156   79.64140320    0.07000000    0.51999998
   15.19416714   80.65000153    0.07000000    0.51999998
   15.19750023   78.00720215    0.09000000    0.51999998
   15.20083332   80.58000183    0.09000000    0.51999998
   15.20138836   78.83029938    0.09000000    0.51999998
   15.20722198   78.83029938    0.09000000    0.51999998
   15.21111107   77.22979736    0.09000000    0.51999998
   15.21444416   77.38339996    0.09000000    0.51999998
   15.21777725   77.68990326    0.09000000    0.51999998
   15.22083282   76.08979797    0.09000000    0.51999998
   15.22416592   81.00389862    0.09000000    0.51999998
   15.22749996   86.14600372    0.11000000    0.51999998
   15.23055553   86.21209717    0.13000000    0.51999998
   15.23388958   80.40019989    0.13000000    0.51999998
   15.23472214   82.37550354    0.13000000    0.51999998
   15.23750019   79.17890167    0.13000000    0.51999998
   15.24083328   79.70819855    0.13000000    0.51999998
   15.24416733   78.49510193    0.13000000    0.51999998
   15.25000000   78.49510193    0.13000000    0.51999998
   15.25416660   77.82959747    0.13000000    0.51999998
   15.25722218   78.30460358    0.11000000    0.51999998
   15.26055527   74.82749939    0.11000000    0.51999998
   15.26388931   79.42910004    0.11000000    0.51999998
   15.26694393   80.28500366    0.11000000    0.51999998
   15.26805496   76.87729645    0.11000000    0.51999998
   15.27055550   81.58630371    0.09000000    0.51999998
   15.27388859   83.08750153    0.09000000    0.51999998
   15.27722168   81.61109924    0.09000000    0.51999998
   15.28027725   78.17269897    0.09000000    0.51999998
   15.28361130   76.81539917    0.09000000    0.51999998
   15.28666687   75.66110229    0.09000000    0.51999998
   15.29277802   75.66110229    0.09000000    0.51999998
   15.29694462   76.12329865    0.09000000    0.51999998
   15.30027771   77.23280334    0.09000000    0.51999998
   15.30138874   77.05200195    0.09000000    0.51999998
   15.30361176   76.52729797    0.09000000    0.51999998
   15.30694485   77.06960297    0.09000000    0.51999998
   15.31027794   78.75489807    0.09000000    0.51999998
   15.31333351   81.12909698    0.09000000    0.51999998
   15.31666660   82.60399628    0.09000000    0.51999998
   15.31972218   81.30690002    0.09000000    0.51999998
   15.32305527   78.78759766    0.09000000    0.51999998
   15.32638836   81.14839935    0.09000000    0.51999998
   15.32944393   81.81210327    0.09000000    0.51999998
   15.33555508   81.81210327    0.09000000    0.51999998
   15.33972168   82.80819702    0.09000000    0.51999998
   15.34305477   80.57510376    0.09000000    0.51999998
   15.34611034   84.83190155    0.09000000    0.51999998
   15.34944439   83.56060028    0.09000000    0.51999998
   15.35277843   82.40299988    0.09000000    0.51999998
   15.35583401   80.45739746    0.09000000    0.51999998
   15.35916710   78.02239990    0.11000000    0.51999998
   15.36250019   79.17019653    0.09000000    0.51999998
   15.36555576   77.54830170    0.07000000    0.51999998
   15.36805534   80.54579926    0.07000000    0.51999998
   15.36916637   79.03859711    0.09000000    0.51999998
   15.37250042   81.69560242    0.09000000    0.51999998
   15.37833309   81.69560242    0.09000000    0.51999998
   15.38249969   80.21209717    0.13000000    0.51999998
   15.38583279   78.54660034    0.11000000    0.51999998
   15.38916683   78.80180359    0.11000000    0.51999998
   15.39222240   79.98739624    0.11000000    0.51999998
   15.39555550   79.54959869    0.13000000    0.51999998
   15.39888859   78.13629913    0.13000000    0.51999998
   15.40138817   81.81469727    0.11000000    0.51999998
   15.40222168   77.54730225    0.11000000    0.51999998
   15.40555477   79.97419739    0.11000000    0.51999998
   15.40888882   80.23780060    0.11000000    0.51999998
   15.41194439   77.60749817    0.11000000    0.51999998
   15.41527748   83.89070129    0.13000000    0.51999998
   15.42138958   83.89070129    0.11000000    0.51999998
   15.42555618   81.07369995    0.09000000    0.51999998
   15.42861176   80.79869843    0.09000000    0.51999998
   15.43194485   88.23880005    0.11000000    0.51999998
   15.43472195   84.74359894    0.11000000    0.51999998
   15.43555546   82.42330170    0.11000000    0.51999998
   15.43888855   86.30180359    0.09000000    0.51999998
   15.44222260   83.24030304    0.09000000    0.51999998
   15.44527817   81.72250366    0.09000000    0.51999998
   15.44861126   85.10610199    0.09000000    0.51999998
   15.45194435   82.97370148    0.09000000    0.51999998
   15.45499992   82.25039673    0.09000000    0.51999998
   15.45833302   75.63500214    0.09000000    0.51999998
   15.46416664   75.63500214    0.09000000    0.51999998
   15.46833324   80.05740356    0.09000000    0.51999998
   15.47138882   81.37200165    0.09000000    0.51999998
   15.47472191   79.67140198    0.09000000    0.51999998
   15.47805500   81.44609833    0.11000000    0.51999998
   15.48111057   87.60410309    0.09000000    0.51999998
   15.48444462   81.50099945    0.09000000    0.51999998
   15.48777771   82.48239899    0.09000000    0.51999998
   15.49083328   84.10310364    0.09000000    0.51999998
   15.49416733   79.15000153    0.09000000    0.51999998
   15.49722290   84.19329834    0.09000000    0.51999998
   15.50055599   79.49810028    0.09000000    0.51999998
   15.50138855   78.73000336    0.09000000    0.51999998
   15.50694466   78.73000336    0.09000000    0.51999998
   15.51111126   79.12560272    0.07000000    0.51999998
   15.51444435   78.48210144    0.07000000    0.51999998
   15.51777744   79.55860138    0.07000000    0.51999998
   15.52083302   84.70030212    0.09000000    0.51999998
   15.52416611   79.00279999    0.07000000    0.51999998
   15.52722168   74.78530121    0.07000000    0.51999998
   15.53055573   75.79039764    0.09000000    0.51999998
   15.53388977   78.48220062    0.09000000    0.51999998
   15.53472233   79.34609985    0.09000000    0.51999998
   15.53722286   78.81289673    0.07000000    0.51999998
   15.54055595   80.41500092    0.07000000    0.51999998
   15.54388905   79.31009674    0.07000000    0.51999998
   15.54972267   79.31009674    0.07000000    0.51999998
   15.55388927   80.35659790    0.07000000    0.51999998
   15.55722237   80.93859863    0.07000000    0.51999998
   15.56055546   81.35829926    0.07000000    0.51999998
   15.56361103   79.65540314    0.07000000    0.51999998
   15.56694412   83.28939819    0.07000000    0.51999998
   15.56805515   80.27880096    0.07000000    0.51999998
   15.57027817   85.20860291    0.07000000    0.51999998
   15.57361126   84.20469666    0.07000000    0.51999998
   15.57694435   82.73480225    0.07000000    0.51999998
   15.57999992   85.54270172    0.07000000    0.51999998
   15.58333302   79.80349731    0.07000000    0.51999998
   15.58666611   84.31880188    0.07000000    0.51999998
   15.59277725   84.31880188    0.07000000    0.51999998
   15.59694386   86.00060272    0.07000000    0.51999998
   15.60000038   80.79709625    0.09000000    0.51999998
   15.60138893   87.25350189    0.09000000    0.51999998
   15.60361195   87.11209869    0.07000000    0.51999998
   15.60694504   90.69290161    0.09000000    0.51999998
   15.61027813   85.12359619    0.09000000    0.51999998
   15.61333370   83.06439972    0.07000000    0.51999998
   15.61666679   84.95469666    0.09000000    0.51999998
   15.61999989   90.97190094    0.09000000    0.51999998
   15.62305546   86.30979919    0.09000000    0.51999998
   15.62638855   88.99220276    0.09000000    0.51999998
   15.62944412   81.18849945    0.09000000    0.51999998
   15.63555527   81.18849945    0.09000000    0.51999998
   15.63972187   82.93679810    0.09000000    0.51999998
   15.64305496   80.99130249    0.07000000    0.51999998
   15.64611053   78.90209961    0.07000000    0.51999998
   15.64944458   79.38510132    0.07000000    0.51999998
   15.65249920   85.00859833    0.09000000    0.51999998
   15.65583324   82.42500305    0.07000000    0.51999998
   15.65916634   83.29850006    0.07000000    0.51999998
   15.66222191   81.15339661    0.07000000    0.51999998
   15.66555500   79.40440369    0.07000000    0.51999998
   15.66805553   82.22489929    0.07000000    0.51999998
   15.66944504   84.58200073    0.07000000    0.51999998
   15.67250061   77.58460236    0.07000000    0.51999998
   15.67833328   77.58460236    0.07000000    0.51999998
   15.68249989   78.26809692    0.07000000    0.51999998
   15.68583298   76.69200134    0.07000000    0.51999998
   15.68888855   79.85520172    0.07000000    0.51999998
   15.69222260   83.18910217    0.07000000    0.51999998
   15.69555569   80.98889923    0.07000000    0.51999998
   15.69861126   82.75099945    0.07000000    0.51999998
   15.70138836   84.49299622    0.07000000    0.51999998
   15.70249939   82.99459839    0.07000000    0.51999998
   15.70555496   84.46790314    0.07000000    0.51999998
   15.70888901   88.20390320    0.07000000    0.51999998
   15.71194458   85.17749786    0.07000000    0.51999998
   15.71527767   85.55909729    0.07000000    0.51999998
   15.72111034   85.55909729    0.07000000    0.51999998
   15.72527695   82.34480286    0.07000000    0.51999998
   15.72861099   83.24530029    0.07000000    0.51999998
   15.73194408   85.25240326    0.07000000    0.51999998
   15.73472214   83.47530365    0.07000000    0.51999998
   15.73555565   80.55850220    0.07000000    0.51999998
   15.73861122   83.03109741    0.07000000    0.51999998
   15.74194431   82.24990082    0.07000000    0.51999998
   15.74499989   79.38880157    0.07000000    0.51999998
   15.74833393   79.28859711    0.07000000    0.51999998
   15.75166702   84.18789673    0.09000000    0.51999998
   15.75472260   81.81659698    0.09000000    0.51999998
   15.75805569   77.69400024    0.07000000    0.51999998
   15.76416683   77.69400024    0.09000000    0.51999998
   15.76833344   83.65789795    0.07000000    0.51999998
   15.77138901   83.58450317    0.07000000    0.51999998
   15.77472210   81.09940338    0.07000000    0.51999998
   15.77805519   81.70549774    0.07000000    0.51999998
   15.78111076   85.61519623    0.09000000    0.51999998
   15.78444481   86.11750031    0.09000000    0.51999998
   15.78750038   83.60510254    0.09000000    0.51999998
   15.79083347   82.00949860    0.09000000    0.51999998
   15.79416752   84.26360321    0.07000000    0.51999998
   15.79722309   85.56880188    0.07000000    0.51999998
   15.80055618   86.50589752    0.07000000    0.51999998
   15.80138874   85.06120300    0.09000000    0.51999998
   15.80694485   85.06120300    0.07000000    0.51999998
   15.81111145   84.85199738    0.07000000    0.51999998
   15.81444454   83.77089691    0.07000000    0.51999998
   15.81750011   79.73960114    0.09000000    0.51999998
   15.82083321   84.38600159    0.09000000    0.51999998
   15.82388878   85.48100281    0.09000000    0.51999998
   15.82722187   82.03119659    0.09000000    0.51999998
   15.83055592   83.48229980    0.09000000    0.51999998
   15.83361053   82.01180267    0.09000000    0.51999998
   15.83472157   82.53150177    0.11000000    0.51999998
   15.83749962   80.99030304    0.09000000    0.51999998
   15.84055519   89.37979889    0.11000000    0.51999998
   15.84388828   83.56559753    0.13000000    0.51999998
   15.84972191   83.56559753    0.15000001    0.51999998
   15.85388947   86.21240234    0.15000001    0.51999998
   15.85722256   80.65779877    0.13000000    0.51999998
   15.86027813   84.00330353    0.11000000    0.51999998
   15.86361122   82.73410034    0.17000000    0.51999998
   15.86694431   85.57019806    0.13000000    0.51999998
   15.86805534   85.48329926    0.13000000    0.51999998
   15.87055588   85.34570313    0.11000000    0.51999998
   15.87361145   92.83419800    0.07000000    0.51999998
   15.87694454   89.51069641    0.07000000    0.51999998
   15.88000011   89.68679810    0.07000000    0.51999998
   15.88333321   83.92109680    0.07000000    0.51999998
   15.88666630   83.16529846    0.07000000    0.51999998
   15.89249992   83.16529846    0.07000000    0.51999998
   15.89666653   82.49960327    0.07000000    0.51999998
   15.89999962   83.34380341    0.09000000    0.51999998
   15.90138817   83.24729919    0.09000000    0.51999998
   15.90388870   86.10520172    0.09000000    0.51999998
   15.90694427   86.32209778    0.07000000    0.51999998
   15.91027737   87.74890137    0.07000000    0.51999998
   15.91361046   82.72039795    0.07000000    0.51999998
   15.91666698   88.00389862    0.07000000    0.51999998
   15.92000008   86.51360321    0.09000000    0.51999998
   15.92305565   83.24520111    0.07000000    0.51999998
   15.92638874   86.75810242    0.07000000    0.51999998
   15.92972279   89.60379791    0.07000000    0.51999998
   15.93555546   89.60379791    0.09000000    0.51999998
   15.93972206   83.74819946    0.07000000    0.51999998
   15.94277763   84.58270264    0.07000000    0.51999998
   15.94611073   80.70200348    0.07000000    0.51999998
   15.94916630   80.11799622    0.07000000    0.51999998
   15.95249939   82.56349945    0.07000000    0.51999998
   15.95583344   77.19770050    0.07000000    0.51999998
   15.95916653   80.14990234    0.07000000    0.51999998
   15.96222210   82.38410187    0.07000000    0.51999998
   15.96555519   84.92150116    0.07000000    0.51999998
   15.96805477   80.49620056    0.07000000    0.51999998
   15.96916580   82.51989746    0.07000000    0.51999998
   15.97222137   82.85590363    0.07000000    0.51999998
   15.97833252   82.85590363    0.07000000    0.51999998
   15.98249912   81.96029663    0.07000000    0.51999998
   15.98555565   81.27739716    0.07000000    0.51999998
   15.98888874   83.33139801    0.07000000    0.51999998
   15.99222279   78.81479645    0.07000000    0.51999998
   15.99527836   81.42800140    0.07000000    0.51999998
   15.99861145   80.28820038    0.07000000    0.51999998
   16.00138855   78.70400238    0.07000000    0.51999998
   16.00222206   84.96880341    0.07000000    0.51999998
   16.00527763   84.10410309    0.07000000    0.51999998
   16.00861168   82.23850250    0.07000000    0.51999998
   16.01194382   83.16619873    0.07000000    0.51999998
   16.01499939   82.38269806    0.05000000    0.51999998
   16.02111053   82.38269806    0.07000000    0.51999998
   16.02527809   85.15450287    0.07000000    0.51999998
   16.02861023   83.21559906    0.07000000    0.51999998
   16.03166580   81.15959930    0.07000000    0.51999998
   16.03472137   84.27580261    0.07000000    0.51999998
   16.03555489   85.15679932    0.07000000    0.51999998
   16.03861046   80.12419891    0.07000000    0.51999998
   16.04194450   83.72889709    0.07000000    0.51999998
   16.04527664   80.26100159    0.07000000    0.51999998
   16.04833221   82.15609741    0.07000000    0.51999998
   16.05166626   81.68730164    0.07000000    0.51999998
   16.05472183   79.93540192    0.07000000    0.51999998
   16.05805397   79.40460205    0.07000000    0.51999998
   16.06388855   79.40460205    0.07000000    0.51999998
   16.06805611   80.84750366    0.07000000    0.51999998
   16.07139015   81.79470062    0.07000000    0.51999998
   16.07472229   79.75180054    0.07000000    0.51999998
   16.07777786   78.48780060    0.07000000    0.51999998
   16.08111191   82.50810242    0.09000000    0.51999998
   16.08416748   89.25189972    0.09000000    0.51999998
   16.08750153   85.68730164    0.11000000    0.51999998
   16.09083366   82.58660126    0.09000000    0.51999998
   16.09388924   86.18769836    0.09000000    0.51999998
   16.09722328   79.92960358    0.09000000    0.51999998
   16.10055542   88.55609894    0.09000000    0.51999998
   16.10138893   81.90769958    0.07000000    0.51999998
   16.12222290   81.90769958    0.07000000    0.51999998
   16.12638855   82.45520020    0.07000000    0.51999998
   16.12944412   83.18859863    0.07000000    0.51999998
   16.13277817   82.69029999    0.07000000    0.51999998
   16.13472176   84.01280212    0.07000000    0.51999998
   16.13638878   80.43379974    0.07000000    0.51999998
   16.13944435   82.03929901    0.07000000    0.51999998
   16.14277840   82.34380341    0.07000000    0.51999998
   16.14611053   83.05970001    0.07000000    0.51999998
   16.14916611   84.15049744    0.07000000    0.51999998
   16.15250015   84.57620239    0.07000000    0.51999998
   16.15555573   82.58460236    0.07000000    0.51999998
   16.15888786   80.42659760    0.07000000    0.51999998
   16.16499901   80.42659760    0.07000000    0.51999998
   16.16888809   83.32170105    0.07000000    0.51999998
   16.17222214   80.57409668    0.07000000    0.51999998
   16.17555428   85.65019989    0.07000000    0.51999998
   16.17860985   84.04370117    0.07000000    0.51999998
   16.18194389   83.63289642    0.07000000    0.51999998
   16.18527603   84.16439819    0.07000000    0.51999998
   16.18833160   85.11710358    0.09000000    0.51999998
   16.19166565   82.87129974    0.11000000    0.51999998
   16.19472122   82.03050232    0.11000000    0.51999998
   16.19805527   80.54709625    0.11000000    0.51999998
   16.20138931   81.42420197    0.11000000    0.51999998
   16.20194435   84.45400238    0.11000000    0.51999998
   16.20777893   84.45400238    0.15000001    0.51999998
   16.21194458   83.48269653    0.13000000    0.51999998
   16.21500015   79.85679626    0.15000001    0.51999998
   16.21833420   81.52610016    0.17000000    0.51999998
   16.22166634   80.05760193    0.17000000    0.51999998
   16.22472191   80.71520233    0.17000000    0.51999998
   16.22805595   83.24639893    0.17000000    0.51999998
   16.23111153   79.77729797    0.17000000    0.51999998
   16.23444557   82.87310028    0.13000000    0.51999998
   16.23527718   80.95400238    0.13000000    0.51999998
   16.23805618   85.56359863    0.13000000    0.51999998
   16.24138832   83.69020081    0.17000000    0.51999998
   16.24472237   84.01390076    0.13000000    0.51999998
   16.25055504   84.01390076    0.15000001    0.51999998
   16.25472260   81.86409760    0.13000000    0.51999998
   16.25805473   81.86540222    0.11000000    0.51999998
   16.26111031   81.87100220    0.09000000    0.51999998
   16.26444435   78.65409851    0.09000000    0.51999998
   16.26749992   79.50279999    0.11000000    0.51999998
   16.26861000   76.21589661    0.11000000    0.51999998
   16.27111053   78.07800293    0.09000000    0.51999998
   16.27444458   82.05539703    0.09000000    0.51999998
   16.27777672   85.46269989    0.11000000    0.51999998
   16.28083229   81.66560364    0.09000000    0.51999998
   16.28416634   81.24030304    0.09000000    0.51999998
   16.28722191   82.66989899    0.11000000    0.51999998
   16.29333305   82.66989899    0.09000000    0.51999998
   16.29749870   81.77999878    0.11000000    0.51999998
   16.30083275   86.37149811    0.11000000    0.51999998
   16.30194283   87.35260010    0.13000000    0.51999998
   16.30444336   84.30999756    0.13000000    0.51999998
   16.30777740   84.18000031    0.11000000    0.51999998
   16.31110954   81.10959625    0.09000000    0.51999998
   16.31416512   92.54769897    0.11000000    0.51999998
   16.31750107   83.81479645    0.07000000    0.51999998
   16.32055664   91.73069763    0.09000000    0.51999998
   16.32389069   86.56749725    0.07000000    0.51999998
   16.32722282   86.60880280    0.11000000    0.51999998
   16.33027840   83.15309906    0.13000000    0.51999998
   16.33611107   83.15309906    0.23000000    0.51999998
   16.34027863   90.07890320    0.19000000    0.51999998
   16.34361267   84.91819763    0.20999999    0.51999998
   16.34694481   87.76950073    0.23000000    0.51999998
   16.35000038   84.06109619    0.25999999    0.51999998
   16.35333443   83.75920105    0.23000000    0.51999998
   16.35666656   81.97280121    0.17000000    0.51999998
   16.35972214   82.89240265    0.13000000    0.51999998
   16.36305618   82.15529633    0.15000001    0.51999998
   16.36611176   82.59079742    0.13000000    0.51999998
   16.36861038   86.02290344    0.13000000    0.51999998
   16.36972237   87.53160095    0.13000000    0.51999998
   16.37305641   83.17420197    0.11000000    0.51999998
   16.37916756   83.17420197    0.11000000    0.51999998
   16.38333321   81.37850189    0.09000000    0.51999998
   16.38638878   82.01069641    0.11000000    0.51999998
   16.38972282   85.05799866    0.11000000    0.51999998
   16.39277840   79.01339722    0.09000000    0.51999998
   16.39611053   82.30729675    0.07000000    0.51999998
   16.39944458   81.97329712    0.07000000    0.51999998
   16.40194321   88.93840027    0.09000000    0.51999998
   16.40277672   80.32779694    0.09000000    0.51999998
   16.40611076   82.74770355    0.09000000    0.51999998
   16.40944481   84.41049957    0.09000000    0.51999998
   16.41250038   85.32900238    0.09000000    0.51999998
   16.41583252   81.30970001    0.11000000    0.51999998
   16.42194366   81.30970001    0.11000000    0.51999998
   16.42611122   86.83730316    0.13000000    0.51999998
   16.42944336   80.92479706    0.13000000    0.51999998
   16.43249893   85.79660034    0.13000000    0.51999998
   16.43527603   83.44560242    0.15000001    0.51999998
   16.43610954   84.36730194    0.15000001    0.51999998
   16.43944359   84.81590271    0.13000000    0.51999998
   16.44277763   80.98940277    0.17000000    0.51999998
   16.44583321   88.09349823    0.19000000    0.51999998
   16.44916534   86.72599792    0.25000000    0.51999998
   16.45250130   86.77590179    0.25999999    0.51999998
   16.45555687   82.57920074    0.25999999    0.51999998
   16.45888901   87.94960022    0.23000000    0.51999998
   16.46472359   87.94960022    0.17000000    0.51999998
   16.46888924   82.48010254    0.11000000    0.51999998
   16.47222328   81.24109650    0.11000000    0.51999998
   16.47527885   83.98650360    0.11000000    0.51999998
   16.47861099   86.34970093    0.11000000    0.51999998
   16.48194504   86.54509735    0.13000000    0.51999998
   16.48500061   83.77559662    0.13000000    0.51999998
   16.48833275   83.05439758    0.17000000    0.51999998
   16.49138832   83.30970001    0.13000000    0.51999998
   16.49472237   77.67089844    0.11000000    0.51999998
   16.49805641   81.75740051    0.15000001    0.51999998
   16.50111198   84.90889740    0.19000000    0.51999998
   16.50194359   86.36389923    0.19000000    0.51999998
   16.50749969   86.36389923    0.30000001    0.51999998
   16.51166725   88.07790375    0.36000001    0.51999998
   16.51499939   84.88710022    0.44000000    0.51999998
   16.51833344   88.33399963    0.55000001    0.51999998
   16.52138901   91.95510101    0.58999997    0.51999998
   16.52472115   84.99269867    0.63000000    0.51999998
   16.52777672   87.76640320    0.69000000    0.51999998
   16.53111076   86.15679932    0.51999998    0.50000000
   16.53444481   84.91110229    4.90999985    2.59999990
   16.53527641   82.48229980    4.90999985    2.57999992
   16.53805542   86.02700043    4.90999985    2.57999992
   16.54111099   80.09809875    4.90999985    2.59999990
   16.54444313   79.39129639    3.70000005    2.61999989
   16.55055428   79.39129639    3.46000004    2.61999989
   16.55472183   83.55680084    4.61999989    2.59999990
   16.55777740   85.36119843    4.80999994    2.59999990
   16.56110954   82.48539734    4.90999985    2.59999990
   16.56416512   90.73989868    4.80999994    2.59999990
   16.56750107   86.63449860    4.32999992    2.59999990
   16.56861115   85.17160034    4.19999981    2.61999989
   16.57111168   86.60800171    3.61999989    2.61999989
   16.57444572   87.26750183    4.73999977    2.59999990
   16.57777786   85.30449677    4.90999985    2.57999992
   16.58083344   84.09809875    4.90999985    2.57999992
   16.58416748   92.03990173    3.82999992    2.61999989
   16.58750153   89.53220367    3.82999992    2.61999989
   16.59333420   89.53220367    3.80999994    2.61999989
   16.59749985   87.56739807    2.91000009    2.61999989
   16.60055542   87.64029694    2.25000000    2.64000010
   16.60194397   88.11830139    1.30999994    2.64000010
   16.60416794   90.01370239    1.36000001    2.64000010
   16.60750008   86.16220093    1.86000001    2.66000009
   16.61083412   93.14009857    1.53999996    2.66000009
   16.61388969   87.23490143    2.26999998    2.64000010
   16.61722183   85.85549927    3.09999990    2.61999989
   16.62055588   85.98449707    3.18000007    2.61999989
   16.62361145   83.84259796    3.93000007    2.59999990
   16.62694550   85.28620148    4.17999983    2.61999989
   16.63000107   86.14969635    4.90999985    2.59999990
   16.63611031   86.14969635    4.90999985    2.59999990
   16.64027786   79.98370361    4.90999985    2.59999990
   16.64361191   79.98200226    4.90999985    2.59999990
   16.64666748   81.21420288    4.90999985    2.59999990
   16.64999962   84.53520203    4.90999985    2.59999990
   16.65333366   85.25779724    4.86999989    2.59999990
   16.65638924   80.93029785    4.17999983    2.61999989
   16.65972137   82.29609680    3.95000005    2.61999989
   16.66277695   89.39250183    3.73000002    2.61999989
   16.66611099   80.42279816    3.26999998    2.61999989
   16.66860962   77.55819702    2.98000002    2.64000010
   16.66972160   85.59239960    2.28999996    2.64000010
   16.67305565   83.97599792    2.61999989    2.64000010
   16.67888832   83.97599792    1.41999996    2.66000009
   16.68305397   85.40249634    1.94000006    2.64000010
   16.68638802   79.20269775    1.19000006    2.66000009
   16.68972206   84.16190338    1.03999996    2.66000009
   16.69277763   82.51640320    1.05999994    2.64000010
   16.69610977   79.87310028    1.53999996    2.66000009
   16.69916534   88.22209930    1.66999996    2.64000010
   16.70194435   83.87629700    1.71000004    2.64000010
   16.70277786   83.10810089    1.91999996    2.64000010
   16.70611191   87.28350067    2.17000008    2.64000010
   16.70944595   81.46970367    2.39000010    2.64000010
   16.71277809   82.98040009    1.98000002    2.64000010
   16.71583366   82.52610016    1.86000001    2.64000010
   16.72194481   82.52610016    1.19000006    2.64000010
   16.72611237   84.50460052    1.13000000    2.66000009
   16.72916794   85.36209869    1.00000000    2.66000009
   16.73250008   85.72640228    1.28999996    2.64000010
   16.73527718   88.70709991    1.34000003    2.64000010
   16.73583412   87.43569946    1.34000003    2.64000010
   16.73916626   85.43360138    1.50000000    2.64000010
   16.74250031   83.90689850    1.50000000    2.66000009
   16.74555588   89.48819733    1.61000001    2.64000010
   16.74888992   88.33149719    1.55999994    2.66000009
   16.75222206   84.53600311    1.63000000    2.64000010
   16.75527763   83.88639832    1.63000000    2.64000010
   16.75861168   86.43620300    1.80999994    2.66000009
   16.76472282   86.43620300    2.42000008    2.64000010
   16.76888847   86.37640381    3.00000000    2.64000010
   16.77194405   91.86759949    3.89000010    2.61999989
   16.77527809   96.24810028    4.38999987    2.59999990
   16.77861023   93.25990295    4.90999985    2.59999990
   16.78166580   96.65029907    4.90999985    2.57999992
   16.78499985   89.76069641    4.90999985    2.55999994
   16.78805542   92.83409882    4.90999985    2.57999992
   16.79138756   97.29769897    4.90999985    2.57999992
   16.79472160   86.01490021    4.90999985    2.57999992
   16.79777718   84.52519989    4.26999998    2.61999989
   16.80111122   89.40859985    3.03999996    2.64000010
   16.80194283   83.07890320    2.69000006    2.64000010
   16.80749893   83.07890320    2.55999994    2.64000010
   16.81166649   81.49890137    2.28999996    2.64000010
   16.81499863   84.90950012    2.48000002    2.64000010
   16.81805611   82.98960114    1.80999994    2.66000009
   16.82139015   82.45629883    2.21000004    2.66000009
   16.82444572   87.05989838    2.51999998    2.64000010
   16.82777786   80.84040070    2.94000006    2.64000010
   16.83111191   91.88909912    3.93000007    2.61999989
   16.83416748   84.98110199    4.26000023    2.59999990
   16.83527756   88.84359741    4.61999989    2.59999990
   16.83777809   90.90720367    3.73000002    2.61999989
   16.84111214   86.73919678    2.30999994    2.64000010
   16.84444427   85.90730286    2.32999992    2.64000010
   16.85027885   85.90730286    2.03999996    2.64000010
   16.85444450   89.51770020    2.03999996    2.64000010
   16.85777855   89.31549835    1.50000000    2.64000010
   16.86083412   87.12779999    1.71000004    2.64000010
   16.86416626   91.17469788    1.53999996    2.64000010
   16.86750031   81.34989929    1.50000000    2.64000010
   16.86861038   84.62519836    1.53999996    2.64000010
   16.87111092   83.64409637    1.53999996    2.64000010
   16.87416649   88.59369659    1.66999996    2.64000010
   16.87750053   81.44789886    1.50000000    2.64000010
   16.88055611   93.78859711    1.46000004    2.64000010
   16.88388824   96.08010101    1.46000004    2.64000010
   16.88722229   83.83740234    1.44000006    2.66000009
   16.89333344   83.83740234    1.03999996    2.64000010
   16.89722252   86.89959717    1.28999996    2.64000010
   16.90055466   83.74500275    1.14999998    2.64000010
   16.90194321   85.69419861    1.14999998    2.64000010
   16.90444374   86.55110168    1.14999998    2.64000010
   16.90749931   86.59310150    1.14999998    2.66000009
   16.91083336   85.07929993    1.25000000    2.64000010
   16.91388893   85.14440155    1.23000002    2.64000010
   16.91722107   79.23290253    1.19000006    2.66000009
   16.92055511   84.16169739    1.14999998    2.66000009
   16.92361069   80.07330322    1.14999998    2.64000010
   16.92694473   82.66680145    1.16999996    2.66000009
   16.93027687   90.14700317    1.11000001    2.66000009
   16.93610954   90.14700317    1.09000003    2.64000010
   16.94027710   84.82879639    1.03999996    2.66000009
   16.94333267   93.69120026    1.09000003    2.66000009
   16.94666672   87.67279816    1.11000001    2.66000009
   16.95000076   89.95680237    1.14999998    2.66000009
   16.95305634   84.89250183    1.19000006    2.64000010
   16.95639038   91.54840088    1.19000006    2.64000010
   16.95972252   86.14320374    1.19000006    2.64000010
   16.96277809   78.67549896    1.21000004    2.64000010
   16.96611214   82.08529663    1.16999996    2.66000009
   16.96861076   83.44159698    1.41999996    2.66000009
   16.96972275   83.00589752    1.55999994    2.64000010
   16.97277832   82.39040375    1.78999996    2.64000010
   16.97888947   82.39040375    1.83000004    2.64000010
   16.98305511   81.07309723    2.39000010    2.64000010
   16.98638916   83.43299866    2.23000002    2.64000010
   16.98944473   86.42939758    2.40000010    2.64000010
   16.99277878   83.17620087    2.40000010    2.64000010
   16.99583435   86.92240143    3.01999998    2.64000010
   16.99916649   87.83249664    3.43000007    2.61999989
   17.00194359   90.41049957    3.03999996    2.61999989
   17.00305557   84.85600281    2.94000006    2.61999989
   17.00611115   83.73739624    2.84999990    2.64000010
   17.00944519   87.15249634    3.80999994    2.61999989
   17.01250076   81.18190002    3.34999990    2.64000010
   17.01583290   84.30780029    3.43000007    2.61999989
   17.02166557   84.30780029    2.82999992    2.64000010
   17.02583313   87.22029877    2.55999994    2.64000010
   17.02916718   81.88890076    2.64000010    2.64000010
   17.03222275   83.38950348    2.21000004    2.64000010
   17.03527641   84.19159698    2.36999989    2.61999989
   17.03610992   82.63269806    1.86000001    2.64000010
   17.03916550   93.22769928    1.83000004    2.64000010
   17.04249954   85.16940308    2.09999990    2.64000010
   17.04555511   92.76210022    2.36999989    2.64000010
   17.04888916   87.95330048    2.05999994    2.64000010
   17.05222130   87.25409698    2.01999998    2.64000010
   17.05527687   89.55770111    1.88000000    2.64000010
   17.05861092   92.02490234    2.13000011    2.64000010
   17.06472206   92.02490234    1.73000002    2.66000009
   17.06861115   87.09089661    1.41999996    2.66000009
   17.07194519   83.76069641    1.50000000    2.64000010
   17.07527924   91.16670227    1.25000000    2.66000009
   17.07833481   84.65550232    1.28999996    2.66000009
   17.08166695   83.35820007    1.01999998    2.64000010
   17.08472252   82.36029816    1.28999996    2.64000010
   17.08805656   85.08129883    1.36000001    2.64000010
   17.09138870   83.49130249    1.30999994    2.66000009
   17.09444427   78.72149658    1.26999998    2.66000009
   17.09777832   87.06279755    1.39999998    2.66000009
   17.10111237   81.03199768    1.48000002    2.64000010
   17.10194397   86.65309906    1.26999998    2.66000009
   17.10750008   86.65309906    1.11000001    2.64000010
   17.11166763   82.77719879    1.07000005    2.64000010
   17.11472321   85.51679993    1.14999998    2.66000009
   17.11805534   84.28009796    1.28999996    2.64000010
   17.13555527   82.76290131    1.46000004    2.64000010
   17.13805580   84.57700348    1.46000004    2.66000009
   17.14138794   86.24490356    1.60000002    2.64000010
   17.14444351   87.64279938    1.69000006    2.64000010
   17.15055466   87.64279938    1.78999996    2.64000010
   17.15472221   82.81909943    1.64999998    2.64000010
   17.15777779   92.09880066    1.38000000    2.64000010
   17.16110992   87.91819763    1.71000004    2.64000010
   17.16416550   90.69210052    1.71000004    2.64000010
   17.16749954   90.60810089    1.66999996    2.66000009
   17.16888809   90.30329895    1.60000002    2.66000009
   17.17138863   85.56960297    1.60000002    2.66000009
   17.17444420   85.98320007    1.76999998    2.64000010
   17.17777634   84.17340088    2.01999998    2.64000010
   17.18111038   89.46630096    1.98000002    2.64000010
   17.18416595   89.11309814    1.98000002    2.64000010
   17.18750000   86.08260345    1.98000002    2.64000010
   17.19333267   86.08260345    2.01999998    2.64000010
   17.19749832   95.36029816    2.01999998    2.64000010
   17.20055580   86.87270355    2.71000004    2.64000010
   17.20222282   86.42089844    2.61999989    2.64000010
   17.20444489   83.15699768    1.78999996    2.64000010
   17.20750046   80.47149658    1.60000002    2.64000010
   17.21083450   88.87619781    1.33000004    2.64000010
   17.21389008   88.12470245    1.66999996    2.64000010
   17.21722221   87.74349976    1.83000004    2.64000010
   17.22055626   86.64969635    1.83000004    2.66000009
   17.22361183   84.80799866    2.30999994    2.64000010
   17.22694588   83.56710052    2.42000008    2.64000010
   17.23027802   91.86799622    3.14000010    2.61999989
   17.23611069   91.86799622    2.39000010    2.64000010
   17.24027824   86.73650360    2.64000010    2.64000010
   17.24361229   92.50150299    2.34999990    2.64000010
   17.24666786   85.94580078    2.11999989    2.64000010
   17.25000000   87.50009918    2.11999989    2.64000010
   17.25333405   86.98799896    1.44000006    2.64000010
   17.25638962   89.03130341    1.38000000    2.64000010
   17.25972176   87.19049835    1.46000004    2.64000010
   17.26277733   82.72709656    1.41999996    2.64000010
   17.26611137   84.41280365    1.33000004    2.66000009
   17.26888847   78.57450104    1.36000001    2.66000009
   17.27000046   85.36650085    1.36000001    2.66000009
   17.27305603   82.40809631    1.83000004    2.64000010
   17.27888870   82.40809631    2.13000011    2.64000010
   17.28305435   82.08180237    2.09999990    2.64000010
   17.28638840   89.93890381    1.96000004    2.66000009
   17.28972244   84.81749725    2.21000004    2.64000010
   17.29277802   83.78849792    2.40000010    2.64000010
   17.29611015   91.21710205    2.23000002    2.64000010
   17.29916573   89.73339844    2.17000008    2.64000010
   17.30222130   85.69149780    2.05999994    2.64000010
   17.30305481   89.80090332    2.00000000    2.64000010
   17.30611038   82.84570313    2.19000006    2.64000010
   17.30944443   80.91480255    2.05999994    2.64000010
   17.31277657   90.06420135    2.30999994    2.64000010
   17.31583214   84.59950256    2.53999996    2.64000010
   17.32194519   84.59950256    2.05999994    2.64000010
   17.32583427   85.03119659    2.32999992    2.64000010
   17.32916832   90.74839783    1.63000000    2.64000010
   17.33250046   86.43710327    1.64999998    2.64000010
   17.33555603   87.80809784    1.78999996    2.64000010
   17.33611107   86.50920105    1.76999998    2.64000010
   17.33916664   90.01779938    1.63000000    2.66000009
   17.34250069   83.76979828    1.61000001    2.64000010
   17.34583473   87.11630249    1.58000004    2.64000010
   17.34889030   82.62879944    1.60000002    2.64000010
   17.35222244   81.95449829    1.60000002    2.64000010
   17.35527802   87.19560242    1.61000001    2.64000010
   17.35861206   82.25189972    1.38000000    2.64000010
   17.36472321   82.25189972    1.36000001    2.66000009
   17.36888885   84.39019775    1.44000006    2.64000010
   17.36944389   83.19419861    1.44000006    2.64000010
   17.37249947   82.71019745    1.46000004    2.64000010
   17.37583351   83.32689667    1.64999998    2.64000010
   17.37916756   83.34220123    2.28999996    2.64000010
   17.38222313   81.11940002    1.94000006    2.64000010
   17.38555527   85.81670380    1.89999998    2.64000010
   17.38888931   84.57929993    1.89999998    2.64000010
   17.39194489   85.68009949    1.83000004    2.64000010
   17.39527702   82.45269775    1.78999996    2.64000010
   17.39833260   86.76599884    1.64999998    2.64000010
   17.40166664   92.45179749    1.64999998    2.64000010
   17.40222168   85.71040344    1.64999998    2.64000010
   17.40749931   85.71040344    1.53999996    2.64000010
   17.41166687   91.60160065    1.25000000    2.66000009
   17.41499901   85.89689636    1.39999998    2.66000009
   17.41805458   81.33570099    1.53999996    2.66000009
   17.42138863   85.65399933    1.53999996    2.66000009
   17.42472076   90.42600250    1.63000000    2.64000010
   17.42777634   80.60220337    1.30999994    2.64000010
   17.43111038   83.94879913    1.33000004    2.64000010
   17.43416595   79.20619965    1.30999994    2.64000010
   17.43555450   84.18260193    1.30999994    2.64000010
   17.43805504   82.03710175    1.30999994    2.64000010
   17.44111061   80.09320068    1.16999996    2.64000010
   17.44444275   76.11170197    1.11000001    2.64000010
   17.45027924   76.11170197    1.05999994    2.64000010
   17.45444489   83.71649933    1.07000005    2.64000010
   17.45777893   83.60140228    1.05999994    2.64000010
   17.46083450   85.22550201    1.05999994    2.64000010
   17.46416664   83.86340332    1.07000005    2.64000010
   17.46750069   84.22049713    1.07000005    2.64000010
   17.46888924   86.00250244    1.05999994    2.64000010
   17.47111130   84.45529938    1.05999994    2.64000010
   17.47416687   82.37059784    1.03999996    2.64000010
   17.47750092   79.34529877    1.01999998    2.64000010
   17.48083305   84.44059753    1.01999998    2.66000009
   17.48388863   85.10769653    1.05999994    2.64000010
   17.48722267   84.10260010    1.05999994    2.64000010
   17.49333382   84.10260010    1.14999998    2.64000010
   17.49722290   83.33550262    1.14999998    2.66000009
   17.50055504   83.64749908    1.14999998    2.64000010
   17.50222206   82.47360229    1.14999998    2.64000010
   17.50416756   84.56269836    1.14999998    2.64000010
   17.50722313   82.31780243    1.13000000    2.64000010
   17.51055527   81.13619995    1.19000006    2.66000009
   17.51388931   82.77020264    1.23000002    2.64000010
   17.51694489   85.45320129    1.25000000    2.64000010
   17.52027702   77.15080261    1.25000000    2.64000010
   17.52333260   86.35440063    1.25000000    2.66000009
   17.52666664   84.18509674    1.26999998    2.64000010
   17.53000069   81.24790192    1.23000002    2.64000010
   17.53638840   81.24790192    1.25000000    2.64000010
   17.54027748   79.50859833    1.23000002    2.64000010
   17.54361153   83.35359955    1.21000004    2.66000009
   17.54694366   82.23930359    1.21000004    2.66000009
   17.54999924   81.12339783    1.23000002    2.66000009
   17.55333328   82.21810150    1.30999994    2.64000010
   17.55666542   83.81909943    1.26999998    2.64000010
   17.55972099   82.21279907    1.26999998    2.64000010
   17.56305504   90.29969788    1.28999996    2.64000010
   17.56638718   85.78980255    1.30999994    2.64000010
   17.56888962   88.43620300    1.19000006    2.64000010
   17.57000160   79.55370331    1.16999996    2.66000009
   17.57305717   83.48049927    1.13000000    2.66000009
   17.57888985   83.48049927    1.14999998    2.66000009
   17.58305550   86.99400330    1.21000004    2.66000009
   17.58638954   85.80619812    1.28999996    2.64000010
   17.58944511   90.76959991    1.46000004    2.64000010
   17.59277916   83.75409698    1.46000004    2.64000010
   17.59611130   87.24510193    1.41999996    2.64000010
   17.59916687   87.93280029    1.48000002    2.64000010
   17.60222244   84.55169678    1.48000002    2.64000010
   17.60277748   83.70050049    1.53999996    2.64000010
   17.60583305   81.28520203    1.53999996    2.64000010
   17.60916710   85.49040222    1.39999998    2.64000010
   17.61250114   85.92759705    1.33000004    2.64000010
   17.61555672   87.14659882    1.36000001    2.66000009
   17.62166595   87.14659882    1.21000004    2.66000009
   17.62583351   84.00830078    1.19000006    2.64000010
   17.62916756   92.12380219    1.21000004    2.64000010
   17.63249969   91.21790314    1.33000004    2.64000010
   17.63555527   82.25569916    1.33000004    2.64000010
   17.63611031   84.58799744    1.33000004    2.64000010
   17.63944435   83.63529968    1.34000003    2.64000010
   17.64249992   85.84400177    1.34000003    2.64000010
   17.64583397   81.64230347    1.30999994    2.64000010
   17.64888954   88.86679840    1.28999996    2.64000010
   17.65222168   79.54060364    1.34000003    2.64000010
   17.65555573   85.89839935    1.36000001    2.64000010
   17.65861130   87.38680267    1.36000001    2.64000010
   17.66472244   87.38680267    1.38000000    2.64000010
   17.66888809   82.74079895    1.30999994    2.66000009
   17.66944313   83.85870361    1.30999994    2.64000010
   17.67249870   83.58270264    1.30999994    2.64000010
   17.67583275   81.94689941    1.33000004    2.64000010
   17.67888832   89.66069794    1.33000004    2.64000010
   17.68222237   82.58209991    1.19000006    2.64000010
   17.68555450   84.33439636    1.25000000    2.66000009
   17.68861008   82.53230286    1.34000003    2.64000010
   17.69194412   81.90850067    1.34000003    2.64000010
   17.69527626   82.99250031    1.44000006    2.64000010
   17.69833183   85.80090332    1.41999996    2.64000010
   17.70166779   79.62779999    1.46000004    2.64000010
   17.70277786   81.73310089    1.46000004    2.64000010
   17.70750046   81.73310089    1.46000004    2.64000010
   17.71166801   83.52700043    1.48000002    2.61999989
   17.71472359   81.87640381    1.41999996    2.64000010
   17.71805573   85.47769928    1.44000006    2.64000010
   17.72138977   80.70850372    1.46000004    2.64000010
   17.72472191   80.89350128    1.51999998    2.64000010
   17.72777748   81.81970215    1.44000006    2.64000010
   17.73111153   83.80789948    1.36000001    2.64000010
   17.73444557   81.30699921    1.36000001    2.64000010
   17.73611069   86.74430084    1.36000001    2.64000010
   17.73777771   85.05750275    1.36000001    2.64000010
   17.74111176   93.16320038    1.36000001    2.64000010
   17.74444389   87.53009796    1.36000001    2.64000010
   17.75027847   87.53009796    1.33000004    2.64000010
   17.75444412   86.98639679    1.33000004    2.64000010
   17.75777817   81.59850311    1.34000003    2.64000010
   17.76083374   84.52639771    1.34000003    2.64000010
   17.76416588   79.41840363    1.34000003    2.64000010
   17.76749992   83.62159729    1.36000001    2.64000010
   17.76944351   82.67070007    1.33000004    2.64000010
   17.77083397   82.29820251    1.36000001    2.64000010
   17.77416611   80.87729645    1.36000001    2.64000010
   17.77750015   87.48480225    1.38000000    2.64000010
   17.78055573   81.73670197    1.38000000    2.64000010
   17.78388786   83.77739716    1.38000000    2.64000010
   17.78722191   81.45549774    1.38000000    2.64000010
   17.79305458   81.45549774    1.34000003    2.64000010
   17.79722214   82.69069672    1.38000000    2.64000010
   17.80055428   83.14929962    1.38000000    2.64000010
   17.80277634   85.38459778    1.36000001    2.64000010
   17.80416679   83.58090210    1.36000001    2.64000010
   17.80749893   81.93949890    1.38000000    2.64000010
   17.81055450   85.05629730    1.51999998    2.64000010
   17.81388855   83.05740356    1.51999998    2.64000010
   17.81722260   82.89949799    1.51999998    2.64000010
   17.82027817   80.75569916    1.55999994    2.64000010
   17.82361221   82.55210114    1.55999994    2.64000010
   17.82694626   80.35610199    1.55999994    2.64000010
   17.83000183   80.90840149    1.55999994    2.64000010
   17.83611107   80.90840149    1.55999994    2.64000010
   17.84000015   84.24849701    1.44000006    2.64000010
   17.84333420   81.66429901    1.41999996    2.64000010
   17.84666824   84.83640289    1.41999996    2.64000010
   17.84972191   85.65889740    1.41999996    2.64000010
   17.85305595   81.96690369    1.44000006    2.64000010
   17.85639000   80.19290161    1.50000000    2.64000010
   17.85944557   82.86589813    1.48000002    2.64000010
   17.86277771   81.46620178    1.48000002    2.64000010
   17.86583328   87.21420288    1.48000002    2.64000010
   17.86916733   81.67060089    1.46000004    2.64000010
   17.87111092   84.65809631    1.48000002    2.64000010
   17.87277794   85.29930115    1.48000002    2.64000010
   17.87888908   85.29930115    1.50000000    2.64000010
   17.88305473   84.23560333    1.46000004    2.64000010
   17.88611031   77.79100037    1.46000004    2.64000010
   17.88944435   81.70349884    1.44000006    2.64000010
   17.89277840   84.28060150    1.44000006    2.64000010
   17.89583397   82.71070099    1.38000000    2.64000010
   17.89916611   85.34390259    1.36000001    2.64000010
   17.90250015   85.44660187    1.36000001    2.64000010
   17.90444374   83.69589996    1.36000001    2.64000010
   17.90583229   85.36229706    1.34000003    2.64000010
   17.90916634   84.26260376    1.33000004    2.64000010
   17.91250038   85.46099854    1.30999994    2.64000010
   17.91555595   81.55960083    1.33000004    2.64000010
   17.92166519   81.55960083    1.33000004    2.64000010
   17.92583275   86.29389954    1.30999994    2.64000010
   17.92916679   86.91709900    1.30999994    2.64000010
   17.93222237   83.27619934    1.34000003    2.64000010
   17.93555450   87.38030243    1.34000003    2.64000010
   17.93805504   81.30380249    1.34000003    2.64000010
   17.93916512   86.91529846    1.34000003    2.64000010
   17.94249916   85.19400024    1.34000003    2.64000010
   17.94555473   82.00479889    1.34000003    2.64000010
   17.94888878   87.30169678    1.34000003    2.64000010
   17.95222282   83.93620300    1.34000003    2.64000010
   17.95527840   82.37740326    1.34000003    2.61999989
   17.95861244   84.99240112    1.26999998    2.64000010
   17.96444511   84.99240112    1.25000000    2.64000010
   17.96861076   87.86100006    1.25000000    2.64000010
   17.97138977   82.41719818    1.39999998    2.61999989
   17.97222328   87.15650177    1.39999998    2.61999989
   17.97555542   85.74420166    1.39999998    2.61999989
   17.97861099   87.33959961    1.44000006    2.61999989
   17.98194504   89.16010284    1.41999996    2.64000010
   17.98527718   82.93830109    1.41999996    2.64000010
   17.98833275   87.73490143    1.39999998    2.64000010
   17.99166679   86.58200073    1.39999998    2.61999989
   17.99500084   81.15219879    1.38000000    2.64000010
   17.99805641   87.39990234    1.39999998    2.64000010
   18.00138855   86.76210022    1.38000000    2.64000010
   18.00749969   86.76210022    1.44000006    2.64000010
   18.01138878   84.70629883    1.39999998    2.61999989
   18.01472282   86.82189941    1.39999998    2.64000010
   18.01805496   79.46499634    1.33000004    2.64000010
   18.02111053   89.04239655    1.30999994    2.64000010
   18.02444458   84.31150055    1.30999994    2.64000010
   18.02777672   90.15660095    1.33000004    2.64000010
   18.03083229   87.05010223    1.30999994    2.64000010
   18.03416634   80.78910065    1.33000004    2.61999989
   18.03750038   83.06469727    1.36000001    2.64000010
   18.03833199   87.50119781    1.34000003    2.64000010
   18.04083252   82.03299713    1.34000003    2.64000010
   18.04416656   83.07949829    1.34000003    2.64000010
   18.05027771   83.07949829    1.33000004    2.61999989
   18.05444336   81.99240112    1.34000003    2.64000010
   18.05749893   82.56580353    1.34000003    2.64000010
   18.06083298   79.68479919    1.34000003    2.64000010
   18.06416512   82.20300293    1.33000004    2.64000010
   18.06722260   84.26490021    1.25000000    2.64000010
   18.07055664   83.44819641    1.25000000    2.64000010
   18.07166672   81.56529999    1.21000004    2.64000010
   18.07444572   83.77420044    1.21000004    2.64000010
   18.07750130   85.18479919    1.23000002    2.61999989
   18.08083344   88.22029877    1.34000003    2.64000010
   18.08388901   84.14859772    1.34000003    2.61999989
   18.08722305   84.30909729    1.34000003    2.61999989
   18.09305573   84.30909729    1.38000000    2.61999989
   18.09722328   83.57939911    1.55999994    2.61999989
   18.10055542   90.30650330    1.46000004    2.64000010
   18.10361099   92.85759735    1.39999998    2.64000010
   18.10527802   85.73490143    1.39999998    2.64000010
   18.10722351   92.77529907    1.39999998    2.61999989
   18.11055565   88.51869965    1.39999998    2.61999989
   18.11361122   85.99919891    1.39999998    2.64000010
   18.11694527   85.24340057    1.38000000    2.64000010
   18.12027740   83.74449921    1.39999998    2.61999989
   18.12333298   88.44029999    1.39999998    2.61999989
   18.12666702   86.39810181    1.30999994    2.61999989
   18.13000107   84.91619873    1.30999994    2.61999989
   18.13583374   84.91619873    1.28999996    2.64000010
   18.15444374   90.77040100    1.28999996    2.61999989
   18.15749931   82.66249847    1.26999998    2.61999989
   18.16083336   85.71829987    1.25000000    2.61999989
   18.16388893   90.03450012    1.28999996    2.61999989
   18.16722107   90.67639923    1.26999998    2.61999989
   18.17055511   88.57299805    1.26999998    2.64000010
   18.17361069   85.13490295    1.23000002    2.61999989
   18.17888832   85.13490295    1.25000000    2.61999989
   18.18305397   80.37909698    1.16999996    2.61999989
   18.18638802   86.53130341    1.13000000    2.61999989
   18.18750000   85.75109863    1.13000000    2.61999989
   18.18999863   86.53189850    1.11000001    2.61999989
   18.19333267   85.92739868    1.11000001    2.64000010
   18.19638824   86.29309845    1.14999998    2.61999989
   18.19972038   85.86219788    1.14999998    2.61999989
   18.20305634   83.69629669    1.13000000    2.61999989
   18.20611191   85.54850006    1.13000000    2.61999989
   18.20944595   82.53040314    1.13000000    2.61999989
   18.21277809   83.47219849    1.13000000    2.61999989
   18.21583366   84.81580353    1.11000001    2.61999989
   18.22194481   84.81580353    1.11000001    2.61999989
   18.22611237   85.87709808    1.09000003    2.61999989
   18.22916794   89.12680054    1.09000003    2.61999989
   18.23250008   86.96489716    1.09000003    2.61999989
   18.23555565   89.92179871    1.09000003    2.61999989
   18.23888969   90.45279694    1.09000003    2.61999989
   18.24222183   84.06839752    1.11000001    2.61999989
   18.24527740   88.36370087    1.14999998    2.61999989
   18.24861145   85.47100067    1.14999998    2.61999989
   18.25194359   86.80930328    1.14999998    2.61999989
   18.25416756   90.42310333    1.14999998    2.61999989
   18.25555611   88.14550018    1.14999998    2.61999989
   18.25888824   85.08950043    1.14999998    2.61999989
   18.26472282   85.08950043    1.07000005    2.61999989
   18.26888847   86.39160156    1.09000003    2.61999989
   18.27222252   84.42310333    1.09000003    2.61999989
   18.27555466   81.71970367    1.07000005    2.61999989
   18.27861023   84.70240021    1.05999994    2.61999989
   18.28194427   93.57910156    1.05999994    2.61999989
   18.28527641   88.43430328    1.05999994    2.61999989
   18.28750038   86.40630341    1.01999998    2.61999989
   18.28861046   88.79019928    1.01999998    2.61999989
   18.29194450   89.21160126    1.01999998    2.61999989
   18.29500008   82.48229980    1.00000000    2.61999989
   18.29833221   88.21089935    1.01999998    2.61999989
   18.30166626   87.49770355    1.00000000    2.61999989
   18.30749893   87.49770355    1.01999998    2.61999989
   18.31166649   84.19699860    1.01999998    2.61999989
   18.31499863   87.43569946    1.01999998    2.61999989
   18.31805611   84.63890076    1.01999998    2.61999989
   18.32083511   83.12750244    1.03999996    2.61999989
   18.32166672   88.65180206    1.03999996    2.61999989
   18.32500076   90.39669800    1.05999994    2.61999989
   18.32833481   87.91190338    1.05999994    2.61999989
   18.33139038   86.47820282    1.09000003    2.61999989
   18.33472252   84.36270142    1.09000003    2.61999989
   18.33777809   90.34329987    1.09000003    2.61999989
   18.34111214   89.34459686    1.09000003    2.59999990
   18.34444427   88.06780243    1.07000005    2.61999989
   18.35027885   88.06780243    1.07000005    2.59999990
   18.35444450   88.37999725    1.07000005    2.61999989
   18.35777855   83.25070190    1.07000005    2.61999989
   18.36111069   83.48580170    1.09000003    2.61999989
   18.36416626   88.64279938    1.09000003    2.61999989
   18.36750031   82.10710144    1.09000003    2.61999989
   18.37055588   90.19539642    1.11000001    2.59999990
   18.37388992   88.29709625    1.13000000    2.61999989
   18.37722206   89.69460297    1.13000000    2.61999989
   18.38027763   85.98130035    1.11000001    2.61999989
   18.38361168   87.32170105    1.09000003    2.61999989
   18.38694382   82.28810120    1.09000003    2.61999989
   18.38750076   85.66580200    1.09000003    2.61999989
   18.39333344   85.66580200    1.05999994    2.59999990
   18.39749908   86.12349701    1.05999994    2.59999990
   18.40055466   83.72049713    1.05999994    2.61999989
   18.40388870   86.27799988    1.05999994    2.61999989
   18.40722275   80.03620148    1.05999994    2.61999989
   18.41027832   81.21399689    1.05999994    2.59999990
   18.41361046   86.96520233    1.05999994    2.59999990
   18.41666603   82.25630188    1.05999994    2.61999989
   18.42000008   85.11759949    1.07000005    2.59999990
   18.42083359   84.57730103    1.07000005    2.59999990
   18.42361069   85.34539795    1.07000005    2.61999989
   18.42694473   83.29109955    1.07000005    2.61999989
   18.43027687   79.20390320    1.09000003    2.61999989
   18.43610954   79.20390320    1.05999994    2.61999989
   18.44027710   89.03199768    1.05999994    2.61999989
   18.44333267   81.81880188    1.05999994    2.61999989
   18.44666672   80.54810333    1.05999994    2.61999989
   18.45000076   86.65049744    1.07000005    2.59999990
   18.45305634   84.79119873    1.07000005    2.59999990
   18.45416832   86.77839661    1.07000005    2.59999990
   18.45666695   89.31590271    1.07000005    2.59999990
   18.46000099   85.96749878    1.07000005    2.61999989
   18.46333504   90.47509766    1.05999994    2.59999990
   18.46638870   90.69059753    1.09000003    2.59999990
   18.46972275   93.18000031    1.09000003    2.61999989
   18.47305679   87.33719635    1.09000003    2.61999989
   18.47888947   87.33719635    1.07000005    2.59999990
   18.48305511   84.80599976    1.07000005    2.61999989
   18.48638916   86.15879822    1.09000003    2.59999990
   18.48750114   85.90409851    1.09000003    2.59999990
   18.48972321   85.96649933    1.13000000    2.59999990
   18.49305534   84.21949768    1.11000001    2.59999990
   18.49638939   85.26370239    1.11000001    2.59999990
   18.49944496   87.15170288    1.09000003    2.59999990
   18.50277710   82.40350342    1.09000003    2.59999990
   18.50583267   81.36000061    1.09000003    2.59999990
   18.50916672   82.81369781    1.09000003    2.59999990
   18.51250076   81.69539642    1.09000003    2.59999990
   18.51555634   81.79250336    1.13000000    2.59999990
   18.52166557   81.79250336    1.13000000    2.59999990
   18.52583313   81.78549957    1.13000000    2.59999990
   18.52916718   89.41880035    1.11000001    2.59999990
   18.53249931   80.10079956    1.11000001    2.59999990
   18.53555489   78.58429718    1.11000001    2.59999990
   18.53888893   84.15959930    1.11000001    2.59999990
   18.54194450   81.62249756    1.11000001    2.59999990
   18.54527664   79.44429779    1.11000001    2.59999990
   18.54861069   80.09040070    1.11000001    2.59999990
   18.55166626   81.48519897    1.11000001    2.59999990
   18.55416679   85.93009949    1.11000001    2.59999990
   18.55527687   83.16179657    1.11000001    2.59999990
   18.55861092   80.03970337    1.11000001    2.59999990
   18.56472206   80.03970337    1.11000001    2.59999990
   18.56861115   80.81379700    1.13000000    2.59999990
   18.57194519   85.87729645    1.13000000    2.59999990
   18.57527924   81.77580261    1.13000000    2.59999990
   18.57833481   80.71240234    1.13000000    2.59999990
   18.58166695   81.03369904    1.21000004    2.59999990
   18.58500099   82.16799927    1.19000006    2.59999990
   18.58750153   80.57649994    1.19000006    2.59999990
   18.58833313   80.67610168    1.19000006    2.59999990
   18.59166718   81.61460114    1.19000006    2.59999990
   18.59500122   83.24649811    1.13000000    2.59999990
   18.59805679   80.24169922    1.14999998    2.59999990
   18.60138893   83.51270294    1.13000000    2.59999990
   18.60750008   83.51270294    1.13000000    2.59999990
   18.61166763   86.40910339    1.13000000    2.57999992
   18.61472321   81.62439728    1.11000001    2.59999990
   18.61805534   79.43779755    1.11000001    2.59999990
   18.62083435   78.81870270    1.11000001    2.59999990
   18.62166595   79.34619904    1.11000001    2.59999990
   18.62500000   82.97840118    1.09000003    2.59999990
   18.62833405   78.98040009    1.07000005    2.59999990
   18.63138962   83.45500183    1.07000005    2.59999990
   18.63472176   85.86280060    1.07000005    2.59999990
   18.63805580   78.90899658    1.07000005    2.59999990
   18.64111137   79.66410065    1.09000003    2.59999990
   18.64444351   79.24559784    1.09000003    2.59999990
   18.65027809   79.24559784    1.09000003    2.59999990
   18.65444374   77.95390320    1.11000001    2.59999990
   18.65777779   80.37860107    1.11000001    2.59999990
   18.66083336   84.01509857    1.09000003    2.59999990
   18.66416550   82.55400085    1.07000005    2.59999990
   18.66749954   78.29789734    1.07000005    2.59999990
   18.67055511   85.78289795    1.07000005    2.59999990
   18.67388916   84.87120056    1.07000005    2.59999990
   18.67722130   81.53489685    1.09000003    2.59999990
   18.68027687   87.05100250    1.09000003    2.59999990
   18.68361092   82.80190277    1.09000003    2.57999992
   18.68666649   80.75060272    1.09000003    2.57999992
   18.68750000   80.39360046    1.09000003    2.59999990
   18.69305420   80.39360046    1.09000003    2.59999990
   18.69722176   81.40720367    1.11000001    2.59999990
   18.70055580   80.92769623    1.14999998    2.59999990
   18.70361137   78.82779694    1.14999998    2.59999990
   18.70694542   84.68920135    1.16999996    2.57999992
   18.71027946   81.49160004    1.16999996    2.59999990
   18.71333504   81.75849915    1.16999996    2.59999990
   18.71666718   79.81520081    1.14999998    2.59999990
   18.72000122   89.67359924    1.05999994    2.57999992
   18.72083473   81.65090179    1.05999994    2.57999992
   18.72333336   84.73909760    1.05999994    2.59999990
   18.72666740   82.18979645    1.05999994    2.57999992
   18.73000145   80.85040283    1.05999994    2.57999992
   18.73611069   80.85040283    1.05999994    2.57999992
   18.73999977   85.48310089    1.07000005    2.59999990
   18.74333382   84.40869904    1.07000005    2.57999992
   18.74666786   81.36789703    1.07000005    2.57999992
   18.74972153   84.93209839    1.07000005    2.59999990
   18.75305557   85.24369812    1.07000005    2.59999990
   18.75416756   82.85620117    1.07000005    2.59999990
   18.75666618   82.27909851    1.05999994    2.57999992
   18.76000023   82.64150238    1.05999994    2.59999990
   18.76333427   82.99500275    1.05999994    2.59999990
   18.76638794   85.91230011    1.05999994    2.59999990
   18.76972198   81.51319885    1.01999998    2.57999992
   18.77305603   80.22229767    1.05999994    2.57999992
   18.77888870   80.22229767    1.11000001    2.57999992
   18.78305435   83.32430267    1.13000000    2.57999992
   18.78610992   79.10810089    1.13000000    2.55999994
   18.78750038   83.95580292    1.13000000    2.55999994
   18.78999901   79.83209991    1.14999998    2.57999992
   18.79305458   79.43009949    1.19000006    2.59999990
   18.79638863   82.09500122    1.13000000    2.57999992
   18.79944420   85.12210083    1.13000000    2.57999992
   18.80277634   79.36799622    1.14999998    2.57999992
   18.80611038   86.79759979    1.16999996    2.57999992
   18.80916595   83.46520233    1.16999996    2.57999992
   18.81250000   80.18039703    1.19000006    2.57999992
   18.81583214   83.65850067    1.21000004    2.57999992
   18.82166672   83.65850067    1.21000004    2.57999992
   18.82583427   85.78140259    1.21000004    2.57999992
   18.82916832   89.89119720    1.25000000    2.57999992
   18.83222389   87.29280090    1.26999998    2.57999992
   18.83555603   83.21279907    1.30999994    2.57999992
   18.83861160   85.68450165    1.30999994    2.57999992
   18.84194565   81.71279907    1.33000004    2.55999994
   18.84527779   81.47720337    1.36000001    2.55999994
   18.84833336   83.07740021    1.34000003    2.55999994
   18.85166740   81.95449829    1.36000001    2.55999994
   18.85416794   86.30740356    1.36000001    2.55999994
   18.85527802   83.75379944    1.36000001    2.55999994
   18.85861206   81.83709717    1.48000002    2.57999992
   18.86444473   81.83709717    1.50000000    2.55999994
   18.86861038   82.46289825    1.50000000    2.55999994
   18.87194443   80.12310028    1.51999998    2.57999992
   18.87500000   86.04090118    1.51999998    2.55999994
   18.87833405   83.03980255    1.51999998    2.55999994
   18.88166618   83.70649719    1.51999998    2.57999992
   18.88472176   81.45590210    1.51999998    2.55999994
   18.88750076   79.56629944    1.51999998    2.55999994
   18.88861084   87.40969849    1.51999998    2.55999994
   18.89166641   81.64469910    1.53999996    2.55999994
   18.89500046   81.39959717    1.60000002    2.57999992
   18.89805603   85.30909729    1.60000002    2.57999992
   18.90138817   90.22810364    1.64999998    2.55999994
   18.90749931   90.22810364    1.76999998    2.55999994
   18.91138840   83.53970337    1.76999998    2.55999994
   18.91472244   89.45580292    1.76999998    2.55999994
   18.91805458   86.10189819    1.76999998    2.55999994
   18.92083359   88.62629700    1.76999998    2.55999994
   18.92138863   81.31880188    1.76999998    2.55999994
   18.92472076   80.92189789    1.69000006    2.55999994
   18.92805481   84.76860046    1.63000000    2.55999994
   18.93111038   83.69920349    1.60000002    2.55999994
   18.93444443   84.08589935    1.58000004    2.55999994
   18.93777657   82.70290375    1.55999994    2.55999994
   18.94083214   83.31169891    1.46000004    2.55999994
   18.94416618   84.41300201    1.44000006    2.55999994
   18.95027924   84.41300201    1.44000006    2.55999994
   18.95444489   80.32039642    1.39999998    2.55999994
   18.95750046   84.78070068    1.38000000    2.55999994
   18.96083450   82.87210083    1.38000000    2.55999994
   18.96416664   81.54470062    1.36000001    2.55999994
   18.96722221   81.37419891    1.33000004    2.55999994
   18.97055626   82.09040070    1.30999994    2.55999994
   18.97389030   83.89170074    1.26999998    2.55999994
   18.97694588   85.42310333    1.26999998    2.55999994
   18.98027802   83.04460144    1.21000004    2.55999994
   18.98333359   84.66919708    1.19000006    2.55999994
   18.98666763   83.28949738    1.19000006    2.55999994
   18.98750114   86.40989685    1.19000006    2.55999994
   18.99305534   86.40989685    1.14999998    2.55999994
   18.99722290   82.47370148    1.14999998    2.55999994
   19.00055504   81.18659973    1.14999998    2.55999994
   19.00361061   80.53949738    1.14999998    2.55999994
   19.00694466   83.36370087    1.14999998    2.55999994
   19.01027870   80.56980133    1.14999998    2.55999994
   19.01333427   85.17530060    1.14999998    2.55999994
   19.01666641   80.63099670    1.14999998    2.55999994
   19.02000046   83.71260071    1.16999996    2.55999994
   19.02083397   83.70420074    1.16999996    2.55999994
   19.02361107   83.00890350    1.19000006    2.55999994
   19.02666664   84.40940094    1.19000006    2.55999994
   19.03000069   79.91529846    1.21000004    2.55999994
   19.03583336   79.91529846    1.25000000    2.55999994
   19.03999901   84.28549957    1.25000000    2.55999994
   19.04333305   82.44349670    1.25000000    2.55999994
   19.04638863   82.23979950    1.23000002    2.55999994
   19.04972076   83.54309845    1.21000004    2.55999994
   19.05305481   81.55290222    1.23000002    2.55999994
   19.05416679   84.25820160    1.23000002    2.55999994
   19.05666542   83.77909851    1.23000002    2.55999994
   19.05972099   85.04280090    1.23000002    2.55999994
   19.06305504   80.37619781    1.26999998    2.55999994
   19.06638718   85.79209900    1.26999998    2.53999996
   19.06944466   81.69509888    1.25000000    2.55999994
   19.07277870   81.29450226    1.25000000    2.55999994
   19.07888985   81.29450226    1.26999998    2.55999994
   19.08277893   89.60859680    1.25000000    2.53999996
   19.08611107   81.32019806    1.25000000    2.55999994
   19.08750153   84.23290253    1.25000000    2.53999996
   19.09000015   89.13670349    1.25000000    2.55999994
   19.09305573   82.67430115    1.25000000    2.55999994
   19.09638977   82.61889648    1.25000000    2.55999994
   19.09972191   84.46810150    1.26999998    2.55999994
   19.10277748   86.31659698    1.25000000    2.55999994
   19.10611153   79.03389740    1.25000000    2.53999996
   19.10916710   83.97879791    1.25000000    2.55999994
   19.11250114   79.75869751    1.23000002    2.53999996
   19.11583328   79.92330170    1.23000002    2.53999996
   19.12166595   79.92330170    1.21000004    2.53999996
   19.12583351   85.40579987    1.21000004    2.53999996
   19.12888908   80.87920380    1.19000006    2.53999996
   19.13222313   83.86060333    1.19000006    2.53999996
   19.13555527   87.59680176    1.16999996    2.53999996
   19.13861084   83.75250244    1.16999996    2.55999994
   19.14194489   79.93620300    1.16999996    2.55999994
   19.14500046   84.89640045    1.16999996    2.55999994
   19.14833260   87.51170349    1.16999996    2.53999996
   19.15166664   79.72879791    1.16999996    2.53999996
   19.15416718   80.70140076    1.14999998    2.53999996
   19.17472076   80.70140076    1.05999994    2.53999996
   19.17888832   82.84490204    1.05999994    2.53999996
   19.18222237   78.31169891    1.07000005    2.53999996
   19.18527603   83.56500244    1.09000003    2.53999996
   19.18750000   83.65750122    1.09000003    2.53999996
   19.18916512   82.77839661    1.09000003    2.53999996
   19.19222069   80.96050262    1.09000003    2.53999996
   19.19555473   82.83869934    1.09000003    2.53999996
   19.19888878   83.25969696    1.09000003    2.53999996
   19.20194435   82.35279846    1.09000003    2.53999996
   19.20527840   80.28459930    1.07000005    2.53999996
   19.20861244   84.74210358    1.07000005    2.53999996
   19.21166801   84.08850098    1.05999994    2.53999996
   19.21750069   84.08850098    1.05999994    2.53999996
   19.22166634   85.95919800    1.03999996    2.53999996
   19.22500038   85.13150024    1.03999996    2.53999996
   19.22805595   81.01599884    1.05999994    2.53999996
   19.23139000   76.30850220    1.09000003    2.53999996
   19.23472214   83.71450043    1.09000003    2.51999998
   19.23777771   85.51789856    1.09000003    2.51999998
   19.24111176   81.74210358    1.09000003    2.51999998
   19.24416733   81.25990295    1.03999996    2.53999996
   19.24749947   83.36419678    1.05999994    2.53999996
   19.25083351   77.07550049    1.05999994    2.51999998
   19.25388908   77.71949768    1.07000005    2.51999998
   19.25444412   78.69419861    1.07000005    2.51999998
   19.26027870   78.69419861    1.05999994    2.51999998
   19.26444435   79.56189728    1.05999994    2.53999996
   19.26777840   80.47409821    1.05999994    2.51999998
   19.27111053   78.89929962    1.05999994    2.51999998
   19.27416611   81.81970215    1.07000005    2.53999996
   19.27750015   78.91699982    1.07000005    2.53999996
   19.28055573   79.22299957    1.09000003    2.51999998
   19.28388786   85.45259857    1.14999998    2.51999998
   19.28722191   79.44860077    1.14999998    2.51999998
   19.28777695   82.92449951    1.14999998    2.51999998
   19.29083252   76.98049927    1.14999998    2.51999998
   19.29416656   83.00730133    1.14999998    2.51999998
   19.29722214   79.79340363    1.14999998    2.51999998
   19.30333328   79.79340363    1.16999996    2.51999998
   19.30749893   78.74649811    1.16999996    2.51999998
   19.31055450   77.89659882    1.16999996    2.51999998
   19.31388855   76.84639740    1.25000000    2.51999998
   19.31722260   78.88990021    1.25000000    2.51999998
   19.32027817   80.73020172    1.26999998    2.51999998
   19.32111168   83.46589661    1.26999998    2.51999998
   19.32389069   84.97160339    1.26999998    2.51999998
   19.32722282   86.86350250    1.28999996    2.51999998
   19.33027840   82.36399841    1.28999996    2.51999998
   19.33361244   83.02480316    1.26999998    2.51999998
   19.33666801   77.83409882    1.25000000    2.50000000
   19.34000015   79.02729797    1.25000000    2.50000000
   19.34611130   79.02729797    1.28999996    2.51999998
   19.35027885   82.13819885    1.26999998    2.51999998
   19.35333443   78.88950348    1.26999998    2.51999998
   19.35444450   78.89330292    1.26999998    2.51999998
   19.35722351   78.52349854    1.28999996    2.51999998
   19.36055565   77.83879852    1.33000004    2.51999998
   19.36361122   82.17150116    1.33000004    2.51999998
   19.36694527   84.71499634    1.33000004    2.51999998
   19.37027740   82.51139832    1.33000004    2.51999998
   19.37333298   80.47650146    1.38000000    2.50000000
   19.37666702   79.57440186    1.38000000    2.51999998
   19.37972260   78.19210052    1.34000003    2.51999998
   19.38305473   79.14830017    1.30999994    2.51999998
   19.38888931   79.14830017    1.25000000    2.51999998
   19.39305496   80.36319733    1.23000002    2.51999998
   19.39638901   84.66490173    1.23000002    2.51999998
   19.39944458   82.45600128    1.21000004    2.50000000
   19.40277672   87.79319763    1.21000004    2.51999998
   19.40611076   83.10479736    1.21000004    2.51999998
   19.40916634   88.73680115    1.21000004    2.51999998
   19.41250038   90.03109741    1.21000004    2.51999998
   19.41555595   82.15480042    1.21000004    2.50000000
   19.41888809   84.28829956    1.21000004    2.50000000
   19.42111015   82.74970245    1.23000002    2.50000000
   19.42249870   78.60140228    1.23000002    2.50000000
   19.42583275   81.22480011    1.26999998    2.50000000
   19.43166542   81.22480011    1.30999994    2.50000000
   19.43583298   87.35369873    1.30999994    2.50000000
   19.43916512   81.39739990    1.30999994    2.50000000
   19.44249916   86.02390289    1.39999998    2.50000000
   19.44555473   90.43969727    1.36000001    2.50000000
   19.44888878   79.90740204    1.36000001    2.50000000
   19.45194435   78.95359802    1.36000001    2.50000000
   19.45444489   82.49340057    1.36000001    2.50000000
   19.45583344   85.49939728    1.46000004    2.50000000
   19.45916748   84.29840088    1.44000006    2.50000000
   19.46222305   82.96649933    1.41999996    2.50000000
   19.46555710   82.28479767    1.41999996    2.50000000
   19.46888924   82.00589752    1.41999996    2.50000000
   19.47472191   82.00589752    1.41999996    2.50000000
   19.47888947   87.53029633    1.44000006    2.50000000
   19.48194504   78.92479706    1.46000004    2.48000002
   19.48527718   86.69680023    1.46000004    2.48000002
   19.48777771   82.15170288    1.46000004    2.48000002
   19.48888969   86.06610107    1.46000004    2.50000000
   19.49222183   84.46199799    1.46000004    2.50000000
   19.49527740   83.44190216    1.48000002    2.50000000
   19.49861145   84.17389679    1.48000002    2.48000002
   19.50166702   81.83190155    1.48000002    2.50000000
   19.50499916   82.30229950    1.48000002    2.50000000
   19.50833321   82.88220215    1.44000006    2.48000002
   19.51138878   79.56749725    1.41999996    2.48000002
   19.51749992   79.56749725    1.41999996    2.48000002
   19.52166557   78.55809784    1.39999998    2.50000000
   19.52472115   79.36090088    1.38000000    2.50000000
   19.52805519   78.17910004    1.38000000    2.50000000
   19.53138924   81.80860138    1.36000001    2.50000000
   19.53444481   83.93900299    1.36000001    2.50000000
   19.53777695   83.18049622    1.36000001    2.48000002
   19.54111099   82.93990326    1.36000001    2.48000002
   19.54416656   86.30159760    1.36000001    2.48000002
   19.54749870   80.90740204    1.38000000    2.50000000
   19.55055428   87.23390198    1.38000000    2.50000000
   19.55388832   81.41600037    1.38000000    2.48000002
   19.55444336   84.84200287    1.38000000    2.48000002
   19.56027794   84.84200287    1.36000001    2.50000000
   19.56444359   81.50610352    1.38000000    2.48000002
   19.56777954   81.21739960    1.38000000    2.48000002
   19.57083511   84.84929657    1.41999996    2.48000002
   19.57416725   85.90840149    1.41999996    2.48000002
   19.57750130   82.27020264    1.50000000    2.48000002
   19.58055687   83.18540192    1.50000000    2.48000002
   19.58388901   79.98010254    1.50000000    2.48000002
   19.58722305   84.32279968    1.50000000    2.48000002
   19.58777809   82.47409821    1.50000000    2.48000002
   19.59083366   82.40850067    1.48000002    2.48000002
   19.59416771   87.99870300    1.48000002    2.48000002
   19.59722328   80.24720001    1.48000002    2.48000002
   19.60305595   80.24720001    1.44000006    2.48000002
   19.60722351   77.25569916    1.44000006    2.48000002
   19.61055565   80.27359772    1.46000004    2.48000002
   19.61388969   81.87010193    1.44000006    2.48000002
   19.61694527   80.40370178    1.39999998    2.48000002
   19.62027740   78.48269653    1.39999998    2.48000002
   19.62111092   75.44619751    1.39999998    2.48000002
   19.62388992   81.77860260    1.39999998    2.48000002
   19.62722206   82.52349854    1.39999998    2.48000002
   19.63027763   83.76719666    1.39999998    2.48000002
   19.63361168   81.74790192    1.39999998    2.48000002
   19.63694382   84.04969788    1.39999998    2.48000002
   19.63999939   79.28839874    1.39999998    2.46000004
   19.64611053   79.28839874    1.39999998    2.46000004
   19.65027809   82.87239838    1.38000000    2.48000002
   19.65333366   85.95480347    1.34000003    2.48000002
   19.65444374   83.79380035    1.34000003    2.48000002
   19.65694427   83.56079865    1.34000003    2.48000002
   19.66027832   84.95600128    1.34000003    2.46000004
   19.66333389   83.57710266    1.36000001    2.46000004
   19.66666603   81.79879761    1.36000001    2.48000002
   19.67000008   80.29530334    1.36000001    2.48000002
   19.67305565   80.19319916    1.36000001    2.48000002
   19.67638779   82.31369781    1.30999994    2.46000004
   19.67944336   83.92140198    1.33000004    2.46000004
   19.68277740   85.50869751    1.30999994    2.46000004
   19.68888855   85.50869751    1.28999996    2.46000004
   19.69305420   87.24620056    1.28999996    2.46000004
   19.69610977   80.50250244    1.28999996    2.46000004
   19.69944382   88.60900116    1.30999994    2.46000004
   19.70277786   80.85009766    1.30999994    2.46000004
   19.70583344   82.01049805    1.30999994    2.46000004
   19.70916748   81.82309723    1.30999994    2.46000004
   19.71250153   80.62110138    1.30999994    2.46000004
   19.71555710   84.06430054    1.30999994    2.46000004
   19.71888924   78.77960205    1.33000004    2.44000006
   19.72111130   87.39260101    1.28999996    2.44000006
   19.72249985   77.38590240    1.28999996    2.44000006
   19.72583389   84.45279694    1.28999996    2.46000004
   19.73166656   84.45279694    1.16999996    2.46000004
   19.73583412   86.52619934    1.16999996    2.44000006
   19.73916626   81.17340088    1.16999996    2.44000006
   19.74222183   84.97470093    1.16999996    2.46000004
   19.74555588   80.79499817    1.16999996    2.44000006
   19.74861145   79.92980194    1.16999996    2.46000004
   19.75194359   76.95189667    1.19000006    2.46000004
   19.75444412   83.10579681    1.21000004    2.46000004
   19.75555611   84.10959625    1.21000004    2.46000004
   19.75888824   87.47119904    1.25000000    2.46000004
   19.76194382   82.52400208    1.28999996    2.44000006
   19.76527786   78.61509705    1.30999994    2.44000006
   19.76861000   84.35250092    1.30999994    2.44000006
   19.77444458   84.35250092    1.28999996    2.44000006
   19.77861023   81.78279877    1.26999998    2.44000006
   19.78194427   86.89289856    1.25000000    2.44000006
   19.78527641   92.01580048    1.23000002    2.44000006
   19.78777695   85.08059692    1.23000002    2.44000006
   19.78888893   83.27780151    1.23000002    2.44000006
   19.79222107   84.50039673    1.21000004    2.44000006
   19.79527664   81.99269867    1.16999996    2.44000006
   19.79861069   84.61920166    1.19000006    2.44000006
   19.80194283   80.65699768    1.19000006    2.44000006
   19.80499840   79.90070343    1.21000004    2.44000006
   19.80833244   82.10320282    1.25000000    2.44000006
   19.81166649   83.90509796    1.26999998    2.44000006
   19.81750107   83.90509796    1.26999998    2.44000006
   19.82139015  110.01999664    1.30999994    2.44000006
   19.82472229  119.93299866    1.33000004    2.44000006
   19.82805634  187.55799866    1.38000000    2.44000006
   19.83111191   -1.00000000    1.36000001    2.44000006
   19.83444595   -1.00000000    1.36000001    2.44000006
   19.83750153   -1.00000000    1.36000001    2.44000006
   19.84083366   -1.00000000    1.36000001    2.46000004
   19.84416771   -1.00000000    1.36000001    2.46000004
   19.84722328   -1.00000000    1.33000004    2.44000006
   19.85055542   -1.00000000    1.41999996    2.42000008
   19.85388947   -1.00000000    1.44000006    2.42000008
   19.86416626   -1.00000000    1.48000002    2.42000008
   19.86750031   -1.00000000    1.51999998    2.42000008
   19.87083435   -1.00000000    1.51999998    2.42000008
   19.87388992   -1.00000000    1.51999998    2.42000008
   19.87722206   -1.00000000    1.51999998    2.42000008
   19.88027763   -1.00000000    1.51999998    2.42000008
   19.88361168   -1.00000000    1.50000000    2.42000008
   19.88694382   -1.00000000    1.46000004    2.42000008
   19.89055634   -1.00000000    1.39999998    2.42000008
   19.89361191   -1.00000000    1.36000001    2.42000008
   19.89694405   -1.00000000    1.39999998    2.42000008
   19.90722275   -1.00000000    1.48000002    2.42000008
   19.91027832   -1.00000000    1.50000000    2.42000008
   19.91361046   -1.00000000    1.50000000    2.40000010
   19.91666603   -1.00000000    1.50000000    2.42000008
   19.92000008   -1.00000000    1.51999998    2.40000010
   19.92361069   -1.00000000    1.51999998    2.40000010
   19.92666626   -1.00000000    1.46000004    2.40000010
   19.93000031   -1.00000000    1.39999998    2.40000010
   19.93333244   -1.00000000    1.34000003    2.42000008
   19.93638802   -1.00000000    1.34000003    2.42000008
   19.93972206   -1.00000000    1.36000001    2.42000008
   19.95000076   -1.00000000    1.55999994    2.40000010
   19.95305634   -1.00000000    1.61000001    2.40000010
   19.95666695   -1.00000000    1.63000000    2.40000010
   19.96000099   -1.00000000    1.63000000    2.40000010
   19.96305656   -1.00000000    1.63000000    2.40000010
   19.96638870   -1.00000000    1.64999998    2.40000010
   19.96944427   -1.00000000    1.69000006    2.40000010
   19.97277832   -1.00000000    1.75000000    2.40000010
   19.97611237   -1.00000000    1.73000002    2.40000010
   19.97916794   -1.00000000    1.71000004    2.40000010
   19.98250008   -1.00000000    1.64999998    2.39000010
   19.99277878   -1.00000000    1.58000004    2.40000010
   19.99611092   -1.00000000    1.48000002    2.39000010
   19.99916649   -1.00000000    1.48000002    2.40000010
   20.00250053   -1.00000000    1.46000004    2.40000010
   20.00583267   -1.00000000    1.46000004    2.40000010
   20.00888824   -1.00000000    1.38000000    2.40000010
   20.01222229   -1.00000000    1.36000001    2.39000010
   20.01527786   -1.00000000    1.34000003    2.39000010
   20.01861000   -1.00000000    1.34000003    2.40000010
   20.02222252   -1.00000000    1.34000003    2.39000010
   20.02527809   -1.00000000    1.34000003    2.39000010
   20.03555489   -1.00000000    1.33000004    2.39000010
   20.03888893   -1.00000000    1.30999994    2.39000010
   20.04222107   -1.00000000    1.28999996    2.40000010
   20.04527664   -1.00000000    1.28999996    2.40000010
   20.04861069   -1.00000000    1.26999998    2.39000010
   20.05166626   -1.00000000    1.28999996    2.39000010
   20.05527687   -1.00000000    1.28999996    2.39000010
   20.05833244   -1.00000000    1.33000004    2.39000010
   20.06166649   -1.00000000    1.33000004    2.39000010
   20.06499863   -1.00000000    1.33000004    2.39000010
   20.06805611   -1.00000000    1.33000004    2.36999989
   20.07861137   -1.00000000    1.51999998    2.36999989
   20.08166695   -1.00000000    1.53999996    2.36999989
   20.08500099   -1.00000000    1.53999996    2.36999989
   20.08861160   -1.00000000    1.55999994    2.36999989
   20.09166718   -1.00000000    1.58000004    2.36999989
   20.09500122   -1.00000000    1.58000004    2.36999989
   20.09833336   -1.00000000    1.58000004    2.36999989
   20.10138893   -1.00000000    1.58000004    2.36999989
   20.10472298   -1.00000000    1.55999994    2.36999989
   20.10805511   -1.00000000    1.58000004    2.36999989
   20.11111069   -1.00000000    1.60000002    2.36999989
   20.12138939   -1.00000000    1.66999996    2.36999989
   20.12444496   -1.00000000    1.64999998    2.36999989
   20.12777710   -1.00000000    1.66999996    2.36999989
   20.13111115   -1.00000000    1.69000006    2.36999989
   20.13416672   -1.00000000    1.86000001    2.34999990
   20.13750076   -1.00000000    1.88000000    2.34999990
   20.14083290   -1.00000000    1.89999998    2.34999990
   20.14388847   -1.00000000    1.86000001    2.34999990
   20.14722252   -1.00000000    1.83000004    2.34999990
   20.15027809   -1.00000000    1.80999994    2.36999989
   20.15361023   -1.00000000    1.76999998    2.34999990
   20.16416550   -1.00000000    1.53999996    2.34999990
   20.16749954   -1.00000000    1.53999996    2.34999990
   20.17055511   -1.00000000    1.53999996    2.34999990
   20.19027710   -1.00000000    2.23000002    2.34999990
   20.19333267   -1.00000000    2.46000004    2.32999992
   20.19666672   -1.00000000    2.34999990    2.32999992
   20.20722389   -1.00000000    3.23000002    2.32999992
   20.21027946   -1.00000000    3.11999989    2.32999992
   20.21361160   -1.00000000    3.01999998    2.34999990
   20.21694565   -1.00000000    2.84999990    2.32999992
   20.22000122   -1.00000000    2.57999992    2.32999992
   20.22333336   -1.00000000    2.34999990    2.32999992
   20.22666740   -1.00000000    2.15000010    2.32999992
   20.23000145   -1.00000000    2.00000000    2.32999992
   20.23305511   -1.00000000    1.94000006    2.32999992
   20.23638916   -1.00000000    1.91999996    2.32999992
   20.23972321   -1.00000000    2.00000000    2.32999992
   20.25000000   -1.00000000    1.98000002    2.32999992
   20.25305557   -1.00000000    1.86000001    2.32999992
   20.25666618   -1.00000000    1.83000004    2.32999992
   20.26000023   -1.00000000    1.83000004    2.32999992
   20.26333427   -1.00000000    1.80999994    2.32999992
   20.26638794   -1.00000000    1.76999998    2.30999994
   20.26972198   -1.00000000    1.66999996    2.30999994
   20.27305603   -1.00000000    1.63000000    2.30999994
   20.27611160   -1.00000000    1.63000000    2.30999994
   20.27944374   -1.00000000    1.61000001    2.30999994
   20.28249931   -1.00000000    1.61000001    2.30999994
   20.29277802   -1.00000000    2.25000000    2.30999994
   20.29611015   -1.00000000    2.19000006    2.30999994
   20.29916573   -1.00000000    2.07999992    2.30999994
   20.30249977   -1.00000000    2.21000004    2.30999994
   20.30583191   -1.00000000    2.61999989    2.30999994
   20.30888748   -1.00000000    3.01999998    2.28999996
   20.31222153   -1.00000000    3.95000005    2.28999996
   20.31555557   -1.00000000    4.90999985    2.28999996
   20.31861115   -1.00000000    4.90999985    2.30999994
   20.32222366   -1.00000000    4.90999985    2.30999994
   20.32555580   -1.00000000    4.90999985    2.30999994
   20.33555603   -1.00000000    4.90999985    2.30999994
   20.33889008   -1.00000000    4.90999985    2.28999996
   20.34222221   -1.00000000    4.90999985    2.28999996
   20.34527779   -1.00000000    4.90999985    2.28999996
   20.34861183   -1.00000000    4.90999985    2.30999994
   20.35194397   -1.00000000    4.90999985    2.28999996
   20.35527802   -1.00000000    4.90999985    2.19000006
   20.35861206   -1.00000000    4.90999985    2.03999996
   20.36194420   -1.00000000    4.90999985    1.91999996
   20.36499977   -1.00000000    4.90999985    2.01999998
   20.36833382   -1.00000000    4.90999985    2.11999989
   20.37861061   -1.00000000    4.90999985    2.28999996
   20.38166618   -1.00000000    4.90999985    2.28999996
   20.38500023   -1.00000000    4.90999985    2.15000010
   20.38833237   -1.00000000    4.90999985    1.89999998
   20.39166641   -1.00000000    4.90999985    2.05999994
   20.39500046   -1.00000000    4.90999985    2.21000004
   20.39805603   -1.00000000    4.90999985    2.17000008
   20.40138817   -1.00000000    4.90999985    2.23000002
   20.40472221   -1.00000000    4.90999985    2.03999996
   20.40777779   -1.00000000    4.90999985    1.69000006
   20.41110992   -1.00000000    4.90999985    1.76999998
   20.42166519   -1.00000000    4.90999985    2.23000002
   20.42499924   -1.00000000    4.90999985    2.23000002
   20.42833328   -1.00000000    4.90999985    2.23000002
   20.43138885   -1.00000000    4.90999985    2.23000002
   20.43472099   -1.00000000    4.90999985    2.25000000
   20.43805504   -1.00000000    4.90999985    2.25000000
   20.44111061   -1.00000000    4.90999985    2.23000002
   20.44444275   -1.00000000    4.78000021    2.19000006
   20.44749832   -1.00000000    4.53999996    2.25000000
   20.45083427   -1.00000000    4.19999981    2.23000002
   20.45416832   -1.00000000    4.26000023    2.25000000
   20.46416664   -1.00000000    3.68000007    2.23000002
   20.46750069   -1.00000000    4.00000000    2.17000008
   20.47055626   -1.00000000    4.86999989    2.15000010
   20.47389030   -1.00000000    4.90999985    2.25000000
   20.47722244   -1.00000000    4.90999985    2.25000000
   20.48027802   -1.00000000    4.90999985    2.25000000
   20.48361206   -1.00000000    4.90999985    2.25000000
   20.48694420   -1.00000000    4.90999985    2.19000006
   20.49055672   -1.00000000    4.90999985    2.09999990
   20.49361229   -1.00000000    4.90999985    2.13000011
   20.49694443   -1.00000000    4.90999985    2.17000008
   20.50694466   -1.00000000    4.90999985    1.78999996
   20.51027870   -1.00000000    4.90999985    2.01999998
   20.51361084   -1.00000000    4.90999985    1.98000002
   20.51666641   -1.00000000    4.90999985    1.60000002
   20.52000046   -1.00000000    4.90999985    1.05999994
   20.52361107   -1.00000000    4.90999985    0.58999997
   20.52666664   -1.00000000    4.90999985    1.36000001
   20.53000069   -1.00000000    4.90999985    1.63000000
   20.53305435   -1.00000000    4.90999985    1.73000002
   20.53638840   -1.00000000    4.90999985    2.03999996
   20.53972244   -1.00000000    4.90999985    2.23000002
   20.54999924   -1.00000000    0.09000000    0.20999999
   20.55305481   -1.00000000    0.07000000    0.07000000
   20.55666542   -1.00000000    0.07000000    0.07000000
   20.55972099   -1.00000000    0.07000000    0.07000000
   20.56305504   -1.00000000    0.07000000    0.07000000
   20.56611061   -1.00000000    0.07000000    0.07000000
   20.56944466   -1.00000000    0.07000000    0.07000000
   20.57277870   -1.00000000    0.07000000    0.07000000
   20.57583427   -1.00000000    0.07000000    0.07000000
   20.57916832   -1.00000000    0.07000000    0.07000000
   20.58250046   -1.00000000    0.07000000    0.07000000
   20.59277916   -1.00000000    0.07000000    0.07000000
   20.59611130   -1.00000000    0.07000000    0.07000000
   20.59916687   -1.00000000    0.07000000    0.07000000
   20.60250092   -1.00000000    0.07000000    0.07000000
   20.60555649   -1.00000000    0.07000000    0.07000000
   20.60888863   -1.00000000    0.07000000    0.07000000
   20.61222267   -1.00000000    0.07000000    0.07000000
   20.61527824   -1.00000000    0.07000000    0.07000000
   20.61861038   -1.00000000    0.07000000    0.07000000
   20.62222290   -1.00000000    0.07000000    0.07000000
   20.62527847   -1.00000000    0.07000000    0.07000000
   20.63555527   -1.00000000    0.07000000    0.07000000
   20.63888931   -1.00000000    0.07000000    0.07000000
   20.64194489   -1.00000000    0.07000000    0.07000000
   20.64527702   -1.00000000    0.07000000    0.07000000
   20.64861107   -1.00000000    0.07000000    0.07000000
   20.65166664   -1.00000000    0.07000000    0.07000000
   20.65527725   -1.00000000    0.07000000    0.07000000
   20.65833282   -1.00000000    0.07000000    0.07000000
   20.66166687   -1.00000000    0.07000000    0.07000000
   20.66472244   -1.00000000    0.07000000    0.07000000
   20.66805458   -1.00000000    0.07000000    0.07000000
   20.67833328   -1.00000000    0.07000000    0.07000000
   20.68166542   -1.00000000    0.07000000    0.07000000
   20.68499947   -1.00000000    0.07000000    0.07000000
   20.68861008   -1.00000000    0.07000000    0.07000000
   20.69166565   -1.00000000    0.07000000    0.07000000
   20.69499969   -1.00000000    0.07000000    0.07000000
   20.69805527   -1.00000000    0.07000000    0.07000000
   20.70138931   -1.00000000    0.07000000    0.07000000
   20.70472336   -1.00000000    0.07000000    0.07000000
   20.70777893   -1.00000000    0.07000000    0.07000000
   20.71111107   -1.00000000    0.07000000    0.07000000
   20.72138977   -1.00000000    0.07000000    0.07000000
   20.72500038   -1.00000000    0.07000000    0.07000000
   20.72833443   -1.00000000    0.07000000    0.07000000
   20.73139000   -1.00000000    0.07000000    0.07000000
   20.73472214   -1.00000000    0.07000000    0.07000000
   20.73777771   -1.00000000    0.07000000    0.07000000
   20.74111176   -1.00000000    0.07000000    0.07000000
   20.74444389   -1.00000000    0.07000000    0.07000000
   20.74749947   -1.00000000    0.07000000    0.07000000
   20.75083351   -1.00000000    0.07000000    0.07000000
   20.75416756   -1.00000000    0.07000000    0.07000000
   20.76416588   -1.00000000    0.07000000    0.07000000
   20.76749992   -1.00000000    0.07000000    0.07000000
   20.77055550   -1.00000000    0.07000000    0.07000000
   20.77388954   -1.00000000    0.07000000    0.07000000
   20.77694511   -1.00000000    0.07000000    0.07000000
   20.78027725   -1.00000000    0.07000000    0.07000000
   20.78361130   -1.00000000    0.07000000    0.07000000
   20.78666687   -1.00000000    0.07000000    0.07000000
   20.79027748   -1.00000000    0.07000000    0.07000000
   20.79361153   -1.00000000    0.07000000    0.07000000
   20.79666710   -1.00000000    0.07000000    0.07000000
   20.80694389   -1.00000000    0.07000000    0.07000000
   20.81027794   -1.00000000    0.07000000    0.07000000
   20.81333351   -1.00000000    0.07000000    0.07000000
   20.81666756   -1.00000000    0.07000000    0.07000000
   20.82000160   -1.00000000    0.07000000    0.07000000
   20.82333374   -1.00000000    0.07000000    0.07000000
   20.82666779   -1.00000000    0.07000000    0.07000000
   20.82972336   -1.00000000    0.07000000    0.07000000
   20.83305550   -1.00000000    0.07000000    0.07000000
   20.83611107   -1.00000000    0.07000000    0.07000000
   20.83944511   -1.00000000    0.07000000    0.07000000
   20.84972191   -1.00000000    0.07000000    0.07000000
   20.85305595   -1.00000000    0.07000000    0.07000000
   20.85666656   -1.00000000    0.07000000    0.07000000
   20.86000061   -1.00000000    0.07000000    0.07000000
   20.86305618   -1.00000000    0.07000000    0.07000000
   20.86638832   -1.00000000    0.07000000    0.07000000
   20.86944389   -1.00000000    0.07000000    0.07000000
   20.87277794   -1.00000000    0.07000000    0.07000000
   20.87611198   -1.00000000    0.07000000    0.07000000
   20.87916756   -1.00000000    0.07000000    0.07000000
   20.88249969   -1.00000000    0.07000000    0.07000000
   20.89277840   -1.00000000    0.07000000    0.07000000
   20.89583397   -1.00000000    0.07000000    0.07000000
   20.89916611   -1.00000000    0.07000000    0.07000000
   20.90250015   -1.00000000    0.07000000    0.07000000
   20.90555573   -1.00000000    0.07000000    0.07000000
   20.90888786   -1.00000000    0.07000000    0.07000000
   20.91194344   -1.00000000    0.07000000    0.07000000
   20.91527748   -1.00000000    0.07000000    0.07000000
   20.91860962   -1.00000000    0.07000000    0.07000000
   20.92166519   -1.00000000    0.07000000    0.07000000
   20.92555428   -1.00000000    0.07000000    0.07000000
   20.93555450   -1.00000000    0.07000000    0.07000000
   20.93888855   -1.00000000    0.07000000    0.07000000
   20.94194412   -1.00000000    0.07000000    0.07000000
   20.94527626   -1.00000000    0.07000000    0.07000000
   20.94833183   -1.00000000    0.07000000    0.07000000
   20.95166779   -1.00000000    0.07000000    0.07000000
   20.95499992   -1.00000000    0.07000000    0.07000000
   20.95861244   -1.00000000    0.07000000    0.07000000
   20.96166801   -1.00000000    0.07000000    0.07000000
   20.96500015   -1.00000000    0.07000000    0.07000000
   20.96805573   -1.00000000    0.07000000    0.07000000
   20.97833443   -1.00000000    0.07000000    0.07000000
   20.98166656   -1.00000000    0.07000000    0.07000000
   20.98472214   -1.00000000    0.07000000    0.07000000
   20.98805618   -1.00000000    0.07000000    0.07000000
   20.99166679   -1.00000000    0.07000000    0.07000000
   20.99472237   -1.00000000    0.07000000    0.07000000
   20.99805641   -1.00000000    0.07000000    0.07000000
   21.00111198   -1.00000000    0.07000000    0.07000000
   21.00444412   -1.00000000    0.07000000    0.07000000
   21.00777817   -1.00000000    0.07000000    0.07000000
   21.01083374   -1.00000000    0.07000000    0.07000000
   21.02111053   -1.00000000    0.07000000    0.07000000
   21.02499962   -1.00000000    0.07000000    0.07000000
   21.02805519   -1.00000000    0.07000000    0.07000000
   21.03138924   -1.00000000    0.07000000    0.07000000
   21.03444481   -1.00000000    0.07000000    0.07000000
   21.03777695   -1.00000000    0.07000000    0.07000000
   21.04111099   -1.00000000    0.07000000    0.07000000
   21.04416656   -1.00000000    0.07000000    0.07000000
   21.04749870   -1.00000000    0.07000000    0.07000000
   21.05083275   -1.00000000    0.07000000    0.07000000
   21.05388832   -1.00000000    0.07000000    0.07000000
   21.06416512   -1.00000000    0.07000000    0.07000000
   21.06722260   -1.00000000    0.07000000    0.07000000
