    HOUR (UT)   FLARE FACTOR    SKY TESTER    SUN TESTER
   11.42916679   -1.00000000   -1.00000000   -1.00000000
   11.47444439  152.08799744    1.98000002    2.59999990
   11.47944355  144.76699829    1.96000004    2.61999989
   11.48333359  168.58299255    1.96000004    2.61999989
   11.48666668  157.75199890    1.96000004    2.61999989
   11.49000072  147.67599487    1.94000006    2.61999989
   11.49305534  149.37500000    1.91999996    2.61999989
   11.49638939  153.42700195    1.91999996    2.61999989
   11.49944496  140.25199890    1.89999998    2.61999989
   11.50277805   -1.00000000    1.88000000    2.61999989
   11.50611115   -1.00000000    1.86000001    2.61999989
   11.50944424   -1.00000000    1.85000002    2.61999989
   11.51277733   -1.00000000    1.86000001    2.61999989
   11.51583290   -1.00000000    1.88000000    2.64000010
   11.51916599   -1.00000000    1.89999998    2.64000010
   11.52250004   -1.00000000    1.89999998    2.64000010
   11.52555561   -1.00000000    1.86000001    2.64000010
   11.52888870   -1.00000000    1.83000004    2.64000010
   11.53222179   -1.00000000    1.83000004    2.64000010
   11.53527832  146.36700439    1.83000004    2.64000010
   11.53861141  157.64900208    1.83000004    2.64000010
   11.54166698  161.13699341    1.83000004    2.64000010
   11.54500008  154.46699524    1.86000001    2.64000010
   11.54833412  171.16999817    1.88000000    2.64000010
   11.55138874  138.57200623    1.88000000    2.64000010
   11.55472279  167.35899353    1.88000000    2.64000010
   11.55777836  141.19400024    1.88000000    2.64000010
   11.55833340  144.87199402    1.88000000    2.64000010
   11.56166649  156.56900024    1.88000000    2.64000010
   11.56611156  169.36999512    1.88000000    2.64000010
   11.56916618  159.44299316    1.88000000    2.64000010
   11.57250023  168.81300354    1.88000000    2.64000010
   11.57583332  151.94099426    1.88000000    2.64000010
   11.57916641  163.15800476    1.88000000    2.64000010
   11.58222198  177.44200134    1.88000000    2.64000010
   11.58555508  146.91400146    1.88000000    2.64000010
   11.58888817  157.30999756    1.88000000    2.64000010
   11.59194374  162.20300293    1.88000000    2.64000010
   11.59527779  161.19599915    1.88000000    2.64000010
   11.59861088  143.79299927    1.88000000    2.64000010
   11.60166740  153.69900513    1.88000000    2.64000010
   11.60500050  152.48699951    1.88000000    2.64000010
   11.60777855  146.50100708    1.88000000    2.64000010
   11.60861111  148.07800293    1.88000000    2.64000010
   11.61166668  159.46899414    1.88000000    2.64000010
   11.61500072  150.53399658    1.88000000    2.64000010
   11.61833382  152.87500000    1.88000000    2.64000010
   11.62138939  151.46000671    1.88000000    2.64000010
   11.62472248  153.86999512    1.88000000    2.64000010
   11.62777805  159.59199524    1.88000000    2.64000010
   11.63111115  148.47399902    1.88000000    2.64000010
   11.63444424  154.24600220    1.88000000    2.64000010
   11.63749981  171.47900391    1.88000000    2.64000010
   11.64083290  153.72099304    1.88000000    2.64000010
   11.64416695  147.32000732    1.88000000    2.64000010
   11.64722252  141.83799744    1.88000000    2.64000010
   11.71472168   -1.00000000   -1.00000000   -1.00000000
   11.72027779   -1.00000000   -1.00000000   -1.00000000
   11.74111176  152.40299988    1.88000000    2.64000010
   11.74555588  147.05200195    1.88000000    2.64000010
   11.74916649  137.48100281    1.88000000    2.64000010
   11.75249958  132.70700073    1.88000000    2.64000010
   11.75555515  142.37300110    1.88000000    2.64000010
   11.75888920  122.45500183    1.88000000    2.64000010
   11.76194477  132.12199402    1.88000000    2.64000010
   11.76527786  137.35200500    1.88000000    2.64000010
   11.76861095  160.14700317    1.88000000    2.64000010
   11.77166653  141.44500732    1.88000000    2.64000010
   11.77444458  153.19799805    1.88000000    2.64000010
   11.77555561  131.10499573    1.88000000    2.64000010
   11.77861118  130.99400330    1.88000000    2.64000010
   11.78194427  126.15399933    1.88000000    2.64000010
   11.78527832  130.91000366    1.89999998    2.64000010
   11.78833389  141.08500671    1.89999998    2.64000010
   11.79166698  136.62199402    1.89999998    2.64000010
   11.79500008  137.19700623    1.89999998    2.64000010
   11.79805565  132.02699280    1.89999998    2.64000010
   11.80138874  141.21400452    1.89999998    2.64000010
   11.80444431  141.34700012    1.89999998    2.64000010
   11.80777836  139.51199341    1.89999998    2.64000010
   11.81111145  135.19200134    1.89999998    2.64000010
   11.81416702  150.41499329    1.89999998    2.64000010
   11.81750011  156.16999817    1.89999998    2.64000010
   11.82083321  146.42399597    1.89999998    2.64000010
   11.82388878  153.24299622    1.89999998    2.64000010
   11.82444477  150.78599548    1.89999998    2.64000010
   11.82750034  153.23199463    1.89999998    2.64000010
   11.83055592  154.75199890    1.89999998    2.64000010
   11.83416653  156.39300537    1.89999998    2.64000010
   11.83722210  149.74200439    1.89999998    2.64000010
   11.84055519  152.28500366    1.89999998    2.64000010
   11.84388828  148.08000183    1.89999998    2.64000010
   11.84694386  149.88699341    1.89999998    2.64000010
   11.85027790  153.43299866    1.89999998    2.64000010
   11.85361195  148.40400696    1.89999998    2.64000010
   11.85666752  152.74299622    1.89999998    2.64000010
   11.86000061  147.44500732    1.89999998    2.64000010
   11.86305618  148.28799438    1.89999998    2.64000010
   11.86638927  143.40899658    1.89999998    2.64000010
   11.86972237  142.94099426    1.89999998    2.64000010
   11.87277794  151.17199707    1.89999998    2.64000010
   11.87444496  164.63999939    1.89999998    2.64000010
   11.87666702  182.53900146    1.89999998    2.64000010
   11.87972260  139.80799866    1.89999998    2.64000010
   11.88305569  157.04899597    1.89999998    2.64000010
   11.88638878  167.72500610    1.89999998    2.64000010
   11.88944435  158.47300720    1.89999998    2.64000010
   11.89277744  154.29299927    1.89999998    2.64000010
   11.89611053  149.06300354    1.89999998    2.64000010
   11.89916611  147.73199463    1.89999998    2.64000010
   11.90249920  151.09500122    1.89999998    2.64000010
   11.90555477  182.86500549    1.89999998    2.64000010
   11.90888882  163.18499756    1.89999998    2.64000010
   11.91222191  156.83000183    1.89999998    2.64000010
   11.91527748  157.07000732    1.89999998    2.64000010
   11.91861153  155.99200439    1.89999998    2.64000010
   11.92194462  150.12100220    1.89999998    2.64000010
   11.92444515  150.79600525    1.89999998    2.64000010
   11.92555618  149.90400696    1.89999998    2.64000010
   11.92888927  156.02999878    1.89999998    2.64000010
   11.93194485  157.70399475    1.89999998    2.64000010
   11.93527794  159.97399902    1.89999998    2.64000010
   11.93833351  170.61599731    1.89999998    2.64000010
   11.94166660  156.39100647    1.89999998    2.64000010
   11.94499969  168.27900696    1.89999998    2.64000010
   11.94805527  157.91499329    1.89999998    2.64000010
   11.95138836  167.12899780    1.89999998    2.64000010
   11.95472240  157.55599976    1.89999998    2.64000010
   11.95777798  154.00199890    1.89999998    2.64000010
   11.96111107  164.93200684    1.89999998    2.64000010
   11.96416664  159.24499512    1.89999998    2.64000010
   11.96749973  174.49099731    1.89999998    2.64000010
   11.97083282  172.67199707    1.89999998    2.64000010
   11.97388840  166.41400146    1.89999998    2.64000010
   11.97444439  171.33599854    1.89999998    2.64000010
   11.97749996  166.62199402    1.89999998    2.64000010
   11.98083305  174.88000488    1.89999998    2.64000010
   11.98388958  162.25000000    1.89999998    2.64000010
   11.98722267  168.31399536    1.89999998    2.64000010
   11.99055576  167.97099304    1.89999998    2.64000010
   11.99361134  160.48899841    1.89999998    2.64000010
   11.99694443  166.25999451    1.89999998    2.64000010
   12.00027752  171.85299683    1.89999998    2.64000010
   12.00333309  154.08399963    1.89999998    2.64000010
   12.00666714  152.27400208    1.89999998    2.64000010
   12.01000023  143.96099854    1.89999998    2.64000010
   12.01305580  167.55299377    1.89999998    2.64000010
   12.01638889  158.74600220    1.89999998    2.64000010
   12.01944447  163.53199768    1.89999998    2.64000010
   12.02277756  163.10200500    1.89999998    2.64000010
   12.02444458  179.50799561    1.89999998    2.64000010
   12.02666664  167.03199768    1.89999998    2.64000010
   12.03055573  163.58299255    1.89999998    2.64000010
   12.03416729  170.91299438    1.89999998    2.64000010
   12.03750038  154.75700378    1.89999998    2.64000010
   12.04166698  180.33000183    1.89999998    2.64000010
   12.04472256  181.75399780    1.89999998    2.64000010
   12.04833412  166.67399597    1.89999998    2.64000010
   12.05222225  159.54699707    1.89999998    2.64000010
   12.05555534  192.55700684    1.89999998    2.64000010
   12.05972195  175.27200317    1.89999998    2.64000010
   12.06361103  150.70799255    1.89999998    2.64000010
   12.06805515  154.40100098    1.89999998    2.64000010
   12.07222176  171.46000671    1.89999998    2.64000010
   12.08277798  149.12100220    0.00000000    0.00000000
   12.08416653  151.74200439    0.00000000    0.00000000
   12.08805561  148.72599792    0.00000000    0.00000000
   12.09138870  154.81500244    1.89999998    2.64000010
   12.09472179  166.97200012    1.89999998    2.64000010
   12.09861088  152.62399292    1.89999998    2.64000010
   12.10166740  150.33200073    1.89999998    2.64000010
   12.10500050  161.13699341    1.89999998    2.64000010
   12.10833359  156.59800720    1.89999998    2.64000010
   12.11166668  143.42399597    1.89999998    2.64000010
   12.11500072  148.59100342    1.89999998    2.64000010
   12.11833382  160.11199951    1.88000000    2.69000006
   12.12166691  141.05900574    1.60000002    2.76999998
   12.12472248  151.61500549    1.60000002    2.76999998
   12.12527752  163.74099731    1.60000002    2.76999998
   12.12861156  154.63000488    1.60000002    2.76999998
   12.13222218  148.59300232    1.63000000    2.76999998
   12.13555527  152.50300598    1.63000000    2.76999998
   12.13888836  143.61399841    1.61000001    2.76999998
   12.14222240  151.27699280    1.63000000    2.76999998
   12.14527798  150.88400269    1.64999998    2.75000000
   12.14861107  158.23199463    1.63000000    2.76999998
   12.15194416  165.52799988    1.64999998    2.76999998
   12.15527725  157.78300476    1.66999996    2.76999998
   12.15861034  146.31399536    1.61000001    2.76999998
   12.16166592  145.76100159    1.61000001    2.76999998
   12.16499996  160.19900513    1.61000001    2.76999998
   12.16805553  154.99200439    1.61000001    2.78999996
   12.17138958  154.63999939    1.60000002    2.76999998
   12.17444515  144.19299316    1.61000001    2.76999998
   12.17500019  149.11399841    1.63000000    2.78999996
   12.17833328  159.25399780    1.61000001    2.76999998
   12.18138885  153.41499329    1.61000001    2.76999998
   12.18472195  155.30400085    1.61000001    2.76999998
   12.18777752  154.86199951    1.63000000    2.76999998
   12.19111156  148.64500427    1.63000000    2.76999998
   12.19444466  162.97700500    1.63000000    2.78999996
   12.19750023  152.41499329    1.63000000    2.76999998
   12.20083332  147.11300659    1.60000002    2.78999996
   12.20388889  151.88400269    1.60000002    2.76999998
   12.20722198  148.59300232    1.60000002    2.76999998
   12.21055508  158.78500366    1.60000002    2.76999998
   12.21361065  144.87699890    1.61000001    2.76999998
   12.21694374  160.81900024    1.61000001    2.78999996
   12.21999931  140.29499817    1.60000002    2.78999996
   12.22333336  165.67999268    1.58000004    2.76999998
   12.22444439  166.44099426    1.55999994    2.78999996
   12.22694397  165.02999878    1.55999994    2.78999996
   12.23083305  151.82099915    1.60000002    2.78999996
   12.23388958  151.08000183    1.60000002    2.78999996
   12.23722267  151.45899963    1.58000004    2.78999996
   12.24055576  159.24200439    1.50000000    2.78999996
   12.24361134  156.12899780    1.48000002    2.78999996
   12.24694443  150.74499512    1.46000004    2.78999996
   12.25000000  159.23599243    1.41999996    2.78999996
   12.25333309  155.19200134    1.39999998    2.78999996
   12.25666714  172.50300598    1.39999998    2.78999996
   12.25972176  146.94999695    1.39999998    2.80999994
   12.26305580  167.32299805    1.41999996    2.78999996
   12.26611137  152.86599731    1.44000006    2.80999994
   12.26944447  162.56199646    1.46000004    2.78999996
   12.27277756  157.19000244    1.48000002    2.78999996
   12.27472210  165.72099304    1.50000000    2.78999996
   12.27638817  163.97799683    1.51999998    2.78999996
   12.27972221  171.41999817    1.53999996    2.78999996
   12.28277779  155.55999756    1.53999996    2.78999996
   12.28611183  173.02000427    1.53999996    2.78999996
   12.28944492  157.36000061    1.51999998    2.80999994
   12.29250050  151.88600159    1.50000000    2.80999994
   12.29583359  152.78599548    1.39999998    2.80999994
   12.29888916  163.91799927    1.38000000    2.80999994
   12.30222225  166.87800598    1.38000000    2.80999994
   12.30555534  166.25700378    1.36000001    2.80999994
   12.30861092  154.11799622    1.36000001    2.80999994
   12.31194496  147.23899841    1.38000000    2.80999994
   12.31555557  176.13800049    1.38000000    2.80999994
   12.31861115  146.54100037    1.41999996    2.80999994
   12.32194424  156.95399475    1.44000006    2.80999994
   12.32472229  149.09300232    1.44000006    2.80999994
   12.32555580  149.94599915    1.44000006    2.80999994
   12.32888889  147.26199341    1.46000004    2.82999992
   12.33194447  147.83000183    1.44000006    2.80999994
   12.33527756  137.57899475    1.46000004    2.78999996
   12.33861065  146.35800171    1.48000002    2.78999996
   12.34166622  145.25599670    1.50000000    2.80999994
   12.34499931  153.48699951    1.50000000    2.80999994
   12.34833336  142.06100464    1.51999998    2.80999994
   12.35138893  153.23500061    1.53999996    2.80999994
   12.35472298  143.94299316    1.53999996    2.78999996
   12.35777855  138.85400391    1.55999994    2.80999994
   12.36111164  142.61900330    1.53999996    2.80999994
   12.36444473  138.24200439    1.53999996    2.80999994
   12.36750031  141.56300354    1.51999998    2.80999994
   12.37083340  144.23300171    1.53999996    2.80999994
   12.37416649  152.38600159    1.53999996    2.80999994
   12.37472248  150.23300171    1.53999996    2.82999992
   12.37750053  143.10499573    1.55999994    2.82999992
   12.38083363  148.36999512    1.53999996    2.78999996
   12.38388920  147.36099243    1.51999998    2.80999994
   12.38722229  149.41799927    1.50000000    2.80999994
   12.39055538  157.69400024    1.50000000    2.80999994
   12.39361095  169.15699768    1.50000000    2.80999994
   12.39694405  141.45899963    1.48000002    2.80999994
   12.40027714  150.18400574    1.48000002    2.80999994
   12.40333271  175.77099609    1.48000002    2.80999994
   12.40666676  154.00199890    1.50000000    2.82999992
   12.40972137  160.62500000    1.50000000    2.82999992
   12.41305542  161.64900208    1.41999996    2.84999990
   12.41638851  176.83900452    1.41999996    2.82999992
   12.41944504  173.46499634    1.41999996    2.82999992
   12.42277813  147.10499573    1.44000006    2.82999992
   12.42472267  158.68200684    1.41999996    2.82999992
   12.42638874  169.66799927    1.41999996    2.80999994
   12.42972279  164.73699951    1.41999996    2.82999992
   12.43305588  151.92500305    1.41999996    2.82999992
   12.43611145  164.68099976    1.41999996    2.82999992
   12.43944454  169.01100159    1.41999996    2.82999992
   12.44250011  161.71099854    1.39999998    2.82999992
   12.44583321  162.51499939    1.34000003    2.82999992
   12.44916630  156.46600342    1.34000003    2.82999992
   12.45222187  158.57499695    1.30999994    2.82999992
   12.45555496  160.82699585    1.28999996    2.82999992
   12.45888901  164.56900024    1.25000000    2.82999992
   12.46194458  163.42500305    1.26999998    2.82999992
   12.46527767  176.15800476    1.26999998    2.82999992
   12.46833324  181.52400208    1.28999996    2.82999992
   12.47166634  195.78599548    1.30999994    2.82999992
   12.47472191  200.56700134    1.30999994    2.82999992
   12.47527695  232.45899963    1.30999994    2.82999992
   12.47861099  181.49899292    1.33000004    2.82999992
   12.48166656  193.10499573    1.33000004    2.82999992
   12.48500061  171.92799377    1.33000004    2.82999992
   12.48833370  202.84800720    1.33000004    2.82999992
   12.49138927  154.56799316    1.26999998    2.84999990
   12.49472237  187.10099792    1.26999998    2.84999990
   12.49805546  191.24899292    1.26999998    2.82999992
   12.50111103  172.45799255    1.26999998    2.84999990
   12.50444412  147.07499695    1.26999998    2.84999990
   12.50749969  145.93299866    1.26999998    2.84999990
   12.51083374  164.09100342    1.26999998    2.84999990
   12.51416683  139.25300598    1.26999998    2.84999990
   12.51722240  154.68699646    1.34000003    2.84999990
   12.52055550  157.17599487    1.34000003    2.84999990
   12.52388859  149.28199768    1.34000003    2.84999990
   12.52472210  136.60899353    1.34000003    2.84999990
   12.52722168  152.75900269    1.34000003    2.82999992
   12.53055573  143.83099365    1.34000003    2.82999992
   12.53388977  155.45100403    1.34000003    2.82999992
   12.53694534  150.77600098    1.36000001    2.84999990
   12.54027843  159.79499817    1.38000000    2.84999990
   12.54333401  141.24499512    1.38000000    2.82999992
   12.54666710  145.47799683    1.38000000    2.82999992
   12.55000019  142.67799377    1.36000001    2.82999992
   12.55305576  144.91299438    1.38000000    2.82999992
   12.55638885  154.83500671    1.36000001    2.84999990
   12.55972195  157.54400635    1.36000001    2.84999990
   12.56277752  136.79100037    1.34000003    2.82999992
   12.56611156  144.59800720    1.34000003    2.84999990
   12.56916618  129.42799377    1.33000004    2.84999990
   12.57250023  138.35200500    1.28999996    2.84999990
   12.57472229  134.60800171    1.28999996    2.84999990
   12.57611084  108.99299622    1.26999998    2.84999990
   12.57944393  146.70100403    1.26999998    2.84999990
   12.58277798  135.46299744    1.26999998    2.84999990
   12.58583260  156.07299805    1.26999998    2.84999990
   12.58916664  142.49800110    1.28999996    2.84999990
   12.59249973  139.89399719    1.28999996    2.84999990
   12.59555531  145.30200195    1.26999998    2.84999990
   12.59888840  131.58999634    1.25000000    2.84999990
   12.60222244  131.10899353    1.26999998    2.86999989
   12.60527802  138.73100281    1.26999998    2.84999990
   12.60861111  145.16400146    1.26999998    2.84999990
   12.61166668  152.23399353    1.30999994    2.84999990
   12.61500072  134.74000549    1.28999996    2.84999990
   12.61833382  146.21200562    1.28999996    2.84999990
   12.62138939  151.41700745    1.28999996    2.84999990
   12.62472248  156.56500244    1.28999996    2.86999989
   12.62527752  137.85200500    1.28999996    2.86999989
   12.62861156  129.63299561    1.33000004    2.84999990
   12.63194466  157.55999756    1.30999994    2.86999989
   12.63500023  154.54200745    1.28999996    2.84999990
   12.63833332  148.93499756    1.30999994    2.84999990
   12.64138889  137.90699768    1.33000004    2.84999990
   12.64472198  130.49499512    1.33000004    2.84999990
   12.64805508  157.02699280    1.33000004    2.84999990
   12.65111065  149.53399658    1.28999996    2.84999990
   12.65444374  131.14999390    1.28999996    2.84999990
   12.65777779  151.22700500    1.30999994    2.86999989
   12.66083336  158.45799255    1.30999994    2.84999990
   12.66416645  143.38499451    1.33000004    2.84999990
   12.66722298  149.04100037    1.33000004    2.86999989
   12.67055607  142.45899963    1.33000004    2.86999989
   12.67388916  130.14599609    1.33000004    2.86999989
   12.67472267  141.73399353    1.33000004    2.86999989
   12.67722225  140.37100220    1.34000003    2.84999990
   12.68055630  166.73100281    1.36000001    2.84999990
   12.68388939  154.16099548    1.36000001    2.84999990
   12.68722248  141.57400513    1.34000003    2.84999990
   12.69027805  141.00100708    1.34000003    2.84999990
   12.69361115  128.78900146    1.30999994    2.84999990
   12.69666672  136.96800232    1.28999996    2.86999989
   12.69999981  146.81199646    1.28999996    2.84999990
   12.70333290  147.36099243    1.34000003    2.86999989
   12.70638847  157.03300476    1.36000001    2.86999989
   12.70972157  140.10400391    1.38000000    2.86999989
   12.71305561  149.21499634    1.39999998    2.84999990
   12.71611118  153.75999451    1.39999998    2.84999990
   12.71944427  143.90400696    1.36000001    2.84999990
   12.72249985  143.27400208    1.38000000    2.86999989
   12.72472191  150.59700012    1.38000000    2.86999989
   12.72611046  144.77799988    1.38000000    2.84999990
   12.72944355  164.60600281    1.39999998    2.84999990
   12.73277760  160.36099243    1.39999998    2.86999989
   12.73583317  167.88999939    1.41999996    2.84999990
   12.73916721  157.21600342    1.41999996    2.84999990
   12.75888920  203.63299561    1.38000000    2.84999990
   12.76222229  229.12699890    1.39999998    2.84999990
   12.76527786  219.19200134    1.39999998    2.86999989
   12.76861095  218.24200439    1.39999998    2.86999989
   12.77194405  218.37600708    1.41999996    2.86999989
   12.77472210  204.16900635    1.44000006    2.86999989
   12.77527714  186.67399597    1.44000006    2.86999989
   12.77861118  179.34199524    1.46000004    2.86999989
   12.78194427  167.06700134    1.44000006    2.86999989
   12.78500080  180.22700500    1.41999996    2.86999989
   12.78833389  180.03100586    1.41999996    2.86999989
   12.79166698  146.27299500    1.38000000    2.84999990
   12.79472256  156.43800354    1.36000001    2.86999989
   12.79805565  158.34800720    1.34000003    2.86999989
   12.80138874  157.84899902    1.33000004    2.86999989
   12.80444431  184.57800293    1.30999994    2.86999989
   12.80777836  167.33000183    1.28999996    2.86999989
   12.81083393  161.06599426    1.26999998    2.89000010
   12.81416702  170.11199951    1.25000000    2.89000010
   12.81750011  181.09199524    1.25000000    2.86999989
   12.82055569  163.58599854    1.28999996    2.89000010
   12.82388878  176.26800537    1.30999994    2.86999989
   12.82472229  162.78999329    1.30999994    2.86999989
   12.82750034  174.87100220    1.28999996    2.86999989
   12.83055592  181.36700439    1.28999996    2.89000010
   12.83388901  156.48399353    1.30999994    2.89000010
   12.83694458  183.65499878    1.30999994    2.86999989
   12.84027767  195.72399902    1.33000004    2.89000010
   12.84361076  188.68699646    1.34000003    2.86999989
   12.84666634  186.43800354    1.34000003    2.89000010
   12.85000038  162.26400757    1.36000001    2.86999989
   12.85333347  178.30900574    1.38000000    2.86999989
   12.85638905  183.86399841    1.39999998    2.86999989
   12.85972214  183.65199280    1.41999996    2.86999989
   12.86277771  199.55499268    1.41999996    2.86999989
   12.86611176  171.46899414    1.36000001    2.89000010
   12.86944485  179.09899902    1.28999996    2.89000010
   12.87250042  176.38000488    1.25000000    2.89000010
   12.87472248  158.26800537    1.25000000    2.89000010
   12.87638855  169.90800476    1.23000002    2.89000010
   12.87944412  183.05000305    1.25000000    2.89000010
   12.88277817  170.44999695    1.25000000    2.89000010
   12.88583279  176.78900146    1.28999996    2.89000010
   12.88916683  164.22099304    1.25000000    2.89000010
   12.89249992  173.63000488    1.23000002    2.89000010
   12.89555550  161.27099609    1.19000006    2.89000010
   12.89888859  149.94000244    1.13000000    2.91000009
   12.90222168  150.85600281    1.07000005    2.91000009
   12.90527725  190.37100220    1.07000005    2.91000009
   12.90861034  206.52299500    1.05999994    2.91000009
   12.91166592  183.40800476    1.07000005    2.91000009
   12.91499996  208.05700684    1.07000005    2.91000009
   12.91833401  199.60600281    1.05999994    2.91000009
   12.92138958  200.96800232    1.07000005    2.89000010
   12.92472267  221.17700195    1.09000003    2.91000009
   12.92527771  195.78199768    1.09000003    2.91000009
   12.92833328  218.27999878    1.14999998    2.91000009
   12.93166733  215.80700684    1.14999998    2.91000009
   12.93500042  230.05999756    1.13000000    2.91000009
   12.93805599  208.18800354    1.13000000    2.91000009
   12.94138908  206.95199585    1.19000006    2.89000010
   12.94444466  197.67799377    1.23000002    2.91000009
   12.94777775  205.12500000    1.28999996    2.91000009
   12.95111084  199.81799316    1.28999996    2.91000009
   12.95416641  186.22200012    1.28999996    2.89000010
   12.95749950  195.16999817    1.28999996    2.91000009
   12.96083355  184.96400452    1.28999996    2.91000009
   12.96388912  215.44400024    1.25000000    2.91000009
   12.96722221  187.96600342    1.25000000    2.91000009
   12.97027779  195.33999634    1.25000000    2.91000009
   12.97361088  183.71499634    1.25000000    2.91000009
   12.97472191  195.26699829    1.25000000    2.91000009
   12.97722149  178.58599854    1.25000000    2.91000009
   12.98027706  178.84100342    1.25000000    2.91000009
   12.98361111  196.07499695    1.25000000    2.91000009
   12.98694515  219.52099609    1.25000000    2.89000010
   12.99000072  179.00000000    1.25000000    2.89000010
   12.99333382  187.44799805    1.25000000    2.89000010
   12.99638939  176.34700012    1.25000000    2.89000010
   12.99972248  180.86000061    1.25000000    2.89000010
   13.00305557  194.44099426    1.25000000    2.89000010
   13.00611115  188.42999268    1.25000000    2.89000010
   13.00944424  182.75999451    1.25000000    2.89000010
   13.01277733  199.05599976    1.25000000    2.89000010
   13.01583290  171.50500488    1.25000000    2.89000010
   13.01916599  180.01699829    1.25000000    2.89000010
   13.02222157  163.42999268    1.25000000    2.89000010
   13.02472210  185.15899658    1.25000000    2.89000010
   13.02611065  155.42100525    1.25000000    2.89000010
   13.02916622  174.80499268    1.25000000    2.89000010
   13.03249931  196.55999756    1.25000000    2.89000010
   13.03583336  194.80400085    1.25000000    2.89000010
   13.03888893  174.25100708    1.13000000    2.91000009
   13.04222298  174.33399963    1.14999998    2.93000007
   13.04527855  178.67999268    1.21000004    2.91000009
   13.04861164  194.19400024    1.25000000    2.91000009
   13.05194473  203.99200439    1.25000000    2.91000009
   13.05500031  225.01100159    1.25000000    2.91000009
   13.05833340  210.95500183    1.26999998    2.91000009
   13.06166649  212.00900269    1.25000000    2.91000009
   13.06472206  205.00599670    1.25000000    2.91000009
   13.06805515  206.60000610    1.19000006    2.91000009
   13.07111073  216.94200134    1.16999996    2.91000009
   13.07444477  195.16099548    1.16999996    2.91000009
   13.07499981  206.15499878    1.16999996    2.91000009
   13.07833290  224.46600342    1.19000006    2.91000009
   13.08138847  187.46600342    1.23000002    2.91000009
   13.08472157  184.49099731    1.23000002    2.93000007
   13.08805561  198.15899658    1.21000004    2.93000007
   13.09111118  176.21299744    1.23000002    2.93000007
   13.09444427  163.96099854    1.21000004    2.91000009
   13.09777737  186.81799316    1.19000006    2.91000009
   13.10083389  189.95799255    1.16999996    2.91000009
   13.10416698  175.16099548    1.16999996    2.91000009
   13.10722256  178.65299988    1.21000004    2.91000009
   13.11055565  167.99200439    1.21000004    2.91000009
   13.11388969  170.02299500    1.21000004    2.91000009
   13.11694431  175.67799377    1.21000004    2.91000009
   13.12027836  179.76199341    1.21000004    2.91000009
   13.12361145  176.74499512    1.21000004    2.91000009
   13.12500000  210.75900269    1.21000004    2.91000009
   13.12722206  176.20300293    1.21000004    2.91000009
   13.13027763  174.96699524    1.21000004    2.91000009
   13.13361073  181.05799866    1.21000004    2.91000009
   13.13694477  179.78100586    1.21000004    2.91000009
   13.14000034  219.83599854    1.21000004    2.91000009
   13.14333344  169.92300415    1.21000004    2.91000009
   13.14638901  186.37500000    1.21000004    2.91000009
   13.14972210  188.08999634    1.21000004    2.91000009
   13.15305519  175.22999573    1.21000004    2.91000009
   13.15611076  182.67599487    1.21000004    2.91000009
   13.15944386  173.98100281    1.21000004    2.91000009
   13.16277695  170.10099792    1.21000004    2.91000009
   13.16583252  155.87899780    1.21000004    2.91000009
   13.16916656  205.87600708    1.21000004    2.91000009
   13.17250061  177.72599792    1.21000004    2.91000009
   13.17500019  177.28399658    1.21000004    2.91000009
   13.17611122  195.98199463    1.21000004    2.91000009
   13.17916679  182.99600220    1.21000004    2.91000009
   13.18249989  218.79800415    1.07000005    2.93000007
   13.18583298  187.95799255    1.07000005    2.93000007
   13.18888855  209.66099548    1.07000005    2.93000007
   13.19222260  187.91700745    1.07000005    2.93000007
   13.19527817  210.40499878    1.03999996    2.93000007
   13.19861126  224.60000610    1.05999994    2.93000007
   13.20194435  209.58399963    1.09000003    2.93000007
   13.20499992  204.94500732    1.09000003    2.93000007
   13.20833302  196.10600281    1.09000003    2.93000007
   13.21166611  213.00000000    1.09000003    2.93000007
   13.21472168  227.69700623    1.09000003    2.93000007
   13.21805477  206.79800415    1.09000003    2.93000007
   13.22111034  170.56500244    1.09000003    2.93000007
   13.22444439  191.32800293    1.09000003    2.93000007
   13.22499943  189.33500671    1.09000003    2.93000007
   13.22805500  170.41299438    1.09000003    2.93000007
   13.23111057  188.46800232    1.09000003    2.93000007
   13.23444462  193.52999878    1.09000003    2.93000007
   13.23777771  210.17900085    1.09000003    2.93000007
   13.24083328  191.90499878    1.09000003    2.93000007
   13.24416733  203.82299805    1.09000003    2.93000007
   13.24722290  194.82699585    1.09000003    2.93000007
   13.25055599  182.71299744    1.09000003    2.93000007
   13.25388908  208.73399353    1.09000003    2.93000007
   13.25694466  203.74800110    1.09000003    2.93000007
   13.26027775  195.17300415    1.09000003    2.93000007
   13.26361084  199.44599915    1.09000003    2.93000007
   13.26666641  177.20700073    1.09000003    2.93000007
   13.26999950  195.63499451    1.09000003    2.93000007
   13.27305508  188.35800171    1.09000003    2.93000007
   13.27499962  182.33900452    1.09000003    2.93000007
   13.27694416  180.92300415    1.09000003    2.93000007
   13.27999973  173.03500366    1.09000003    2.93000007
   13.28333378  165.47700500    1.09000003    2.93000007
   13.28666687  181.74499512    1.09000003    2.93000007
   13.28972244  176.45300293    1.09000003    2.93000007
   13.29305553  200.69500732    1.09000003    2.93000007
   13.29611111  187.36999512    1.09000003    2.93000007
   13.29944515  187.80000305    1.09000003    2.93000007
   13.30277824  201.09599304    1.09000003    2.93000007
   13.30583382  197.39500427    1.09000003    2.93000007
   13.30916691  180.58000183    1.09000003    2.93000007
   13.31250000  173.62800598    1.09000003    2.93000007
   13.31555557  194.01699829    1.09000003    2.93000007
   13.31888866  180.25799561    1.09000003    2.93000007
   13.32194424  173.52499390    1.09000003    2.93000007
   13.32499981  181.09500122    1.09000003    2.93000007
   13.32583332  175.81700134    1.09000003    2.93000007
   13.32888889  168.40400696    1.09000003    2.93000007
   13.33222198  159.96400452    1.09000003    2.93000007
   13.33555508  204.96699524    1.11000001    2.94000006
   13.33861065  223.36799622    0.92000002    2.94000006
   13.34194374  235.95599365    0.92000002    2.94000006
   13.34499931  193.05200195    0.92000002    2.94000006
   13.34833336  173.56199646    0.89999998    2.94000006
   13.35166740  182.74400330    0.89999998    2.94000006
   13.35472298  176.24600220    0.89999998    2.94000006
   13.35805607  168.55599976    0.92000002    2.94000006
   13.36138916  172.10600281    0.98000002    2.94000006
   13.36444473  186.78500366    1.01999998    2.94000006
   13.36777782  206.06100464    1.03999996    2.94000006
   13.37083340  177.65899658    1.03999996    2.94000006
   13.37416649  186.29100037    1.03999996    2.94000006
   13.37500000  194.96499634    1.03999996    2.94000006
   13.37777805  188.30599976    1.05999994    2.94000006
   13.38083363  173.84599304    1.05999994    2.94000006
   13.38416672  189.04600525    1.05999994    2.94000006
   13.38749981  179.63699341    1.05999994    2.94000006
   13.39055538  179.77699280    1.05999994    2.94000006
   13.39388847  171.68899536    1.05999994    2.94000006
   13.39722252  162.18899536    1.05999994    2.94000006
   13.40027714  176.78599548    1.05999994    2.94000006
   13.40361118  176.27200317    1.05999994    2.94000006
   13.40666676  162.66999817    1.05999994    2.94000006
   13.40999985  171.43499756    1.05999994    2.94000006
   13.41333294  157.81300354    1.05999994    2.94000006
   13.41638851  180.50799561    1.05999994    2.94000006
   13.41972256  156.05700684    1.05999994    2.94000006
   13.42305565  158.74899292    1.05999994    2.94000006
   13.42500019  162.16099548    1.05999994    2.94000006
   13.42666721  165.12899780    1.05999994    2.94000006
   13.42972279  173.21499634    1.05999994    2.94000006
   13.43305588  177.63200378    1.05999994    2.94000006
   13.43638897  186.88699341    1.05999994    2.94000006
   13.43944454  155.91000366    1.07000005    2.94000006
   13.44277763  163.32200623    1.11000001    2.94000006
   13.44611073  152.47500610    1.11000001    2.94000006
   13.44916630  171.77799988    1.11000001    2.94000006
   13.45249939  167.97799683    1.14999998    2.94000006
   13.45555496  164.33200073    1.14999998    2.94000006
   13.45888901  181.74499512    1.16999996    2.94000006
   13.46222210  150.48699951    1.16999996    2.94000006
   13.46527767  165.39799500    1.23000002    2.94000006
   13.46861076  157.61399841    1.28999996    2.94000006
   13.47194386  165.27099609    1.33000004    2.94000006
   13.47499943  144.67300415    1.34000003    2.94000006
   13.47555542  164.00500488    1.34000003    2.94000006
   13.47888851  172.24099731    1.39999998    2.94000006
   13.48194408  168.18899536    1.38000000    2.93000007
   13.48527813  186.08099365    1.36000001    2.94000006
   13.48833370  181.86900330    1.34000003    2.94000006
   13.49166679  182.25799561    1.28999996    2.94000006
   13.49499989  191.33099365    1.26999998    2.94000006
   13.49805546  185.54600525    1.26999998    2.94000006
   13.50138855  193.54100037    1.21000004    2.94000006
   13.50472260  196.24899292    1.16999996    2.94000006
   13.50777817  199.86099243    1.16999996    2.94000006
   13.51111126  207.11599731    1.16999996    2.94000006
   13.51444435  197.03100586    1.16999996    2.94000006
   13.51749992  203.90800476    1.19000006    2.94000006
   13.52083302  204.62100220    1.19000006    2.94000006
   13.52388859  186.57099915    1.19000006    2.94000006
   13.52499962  193.79499817    1.19000006    2.94000006
   13.52777767  205.43299866    1.19000006    2.94000006
   13.53111076  182.09300232    1.19000006    2.94000006
   13.53416729  187.68299866    1.13000000    2.94000006
   13.53750038  182.69099426    1.13000000    2.94000006
   13.54055595  174.43099976    1.11000001    2.94000006
   13.54388905  186.04499817    1.11000001    2.94000006
   13.54722309  184.69700623    1.11000001    2.94000006
   13.55027771  191.95199585    1.11000001    2.94000006
   13.55361176  189.04800415    1.11000001    2.94000006
   13.55694485  176.97000122    1.11000001    2.94000006
   13.56000042  185.03900146    1.11000001    2.94000006
   13.56333351  178.63499451    1.11000001    2.94000006
   13.56638908  182.79100037    1.11000001    2.94000006
   13.56972218  166.47300720    1.11000001    2.94000006
   13.57305527  173.32299805    1.09000003    2.96000004
   13.57499981  176.44000244    1.11000001    2.96000004
   13.57666683  169.86900330    1.13000000    2.96000004
   13.57999992  171.89100647    1.13000000    2.94000006
   13.58305550  175.90699768    1.14999998    2.94000006
   13.58638859  178.47799683    1.14999998    2.94000006
   13.58972168  175.55700684    1.14999998    2.94000006
   13.59277725  165.14599609    1.21000004    2.96000004
   13.59611034  170.38699341    1.25000000    2.94000006
   13.59916592  170.51800537    1.25000000    2.94000006
   13.60249996  173.56500244    1.25000000    2.94000006
   13.60583401  173.36500549    1.26999998    2.96000004
   13.60888958  166.88099670    1.28999996    2.94000006
   13.61222267  183.35800171    1.30999994    2.94000006
   13.61555576  161.18200684    1.30999994    2.94000006
   13.61861134  178.02099609    1.33000004    2.94000006
   13.62194443  166.48599243    1.33000004    2.94000006
   13.62500000  163.05400085    1.39999998    2.94000006
   13.62555599  176.82699585    1.39999998    2.94000006
   13.62888908  165.10899353    1.39999998    2.93000007
   13.63194466  161.80200195    1.39999998    2.96000004
   13.63527775  160.08200073    1.38000000    2.94000006
   13.63833332  171.92300415    1.36000001    2.94000006
   13.64166641  166.61099243    1.36000001    2.94000006
   13.64499950  152.61099243    1.34000003    2.94000006
   13.64805508  173.99299622    1.33000004    2.94000006
   13.65138817  163.36700439    1.33000004    2.94000006
   13.65472221  172.61300659    1.28999996    2.94000006
   13.65777779  158.10200500    1.26999998    2.94000006
   13.66111088  169.46200562    1.25000000    2.96000004
   13.66444397  159.41000366    1.19000006    2.94000006
   13.66750050  166.82699585    1.19000006    2.94000006
   13.67083359  152.44799805    1.16999996    2.94000006
   13.67388916  158.33900452    1.14999998    2.94000006
   13.67500019  170.50599670    1.13000000    2.96000004
   13.67750072  166.74899292    1.13000000    2.93000007
   13.68083382  166.58200073    1.14999998    2.96000004
   13.68388939  165.85200500    1.11000001    2.96000004
   13.68722248  161.30799866    1.14999998    2.96000004
   13.69055557  167.64500427    1.14999998    2.96000004
   13.69361115  169.60600281    1.13000000    2.96000004
   13.69694424  172.47200012    1.11000001    2.96000004
   13.69999981  170.16000366    1.11000001    2.94000006
   13.70333290  163.03999329    1.11000001    2.96000004
   13.70666695  181.05799866    1.09000003    2.94000006
   13.70972157  176.42300415    1.05999994    2.96000004
   13.71305561  109.18900299    1.03999996    2.96000004
   13.71611118  156.15899658    1.01999998    2.96000004
   13.71944427  157.35899353    1.07000005    2.98000002
   13.72249985  165.89799500    1.11000001    2.94000006
   13.72499943  172.03300476    1.09000003    2.94000006
   13.72611046  160.85800171    1.07000005    2.96000004
   13.72944355  177.32899475    1.05999994    2.94000006
   13.73249912  158.62899780    1.01999998    2.94000006
   13.73583317  174.83099365    1.01999998    2.96000004
   13.73888874  163.97500610    1.00000000    2.96000004
   13.74222279  164.23399353    1.01999998    2.96000004
   13.74555588  183.75100708    1.05999994    2.96000004
   13.74861145  170.73399353    1.03999996    2.96000004
   13.75194454  180.47700500    1.05999994    2.96000004
   13.75500011  177.46800232    1.09000003    2.94000006
   13.77472210  168.20799255    1.03999996    2.96000004
   13.77527714  183.07899475    1.03999996    2.96000004
   13.77833271  190.50399780    1.03999996    2.96000004
   13.78138828  182.77000427    1.03999996    2.94000006
   13.78472233  195.35200500    1.05999994    2.96000004
   13.78805637  174.14599609    1.01999998    2.96000004
   13.79111195  173.05299377    0.98000002    2.96000004
   13.79444504  185.23500061    0.94000000    2.96000004
   13.79750061  173.73800659    0.92000002    2.96000004
   13.80083370  160.85600281    0.92000002    2.96000004
   13.80416679  156.38999939    0.92000002    2.96000004
   13.80722237  158.18299866    0.94000000    2.96000004
   13.81055546  155.08200073    0.92000002    2.96000004
   13.81388950  172.52699280    0.94000000    2.96000004
   13.81694412  199.52400208    1.00000000    2.96000004
   13.82027817  239.94700623    1.01999998    2.96000004
   13.92861176   -1.00000000   -1.00000000   -1.00000000
   14.02499962   -1.00000000   -1.00000000   -1.00000000
   14.12555599   -1.00000000   -1.00000000   -1.00000000
   14.15583324   66.01709747    0.95999998    2.98000002
   14.15916634  155.24299622    0.95999998    2.98000002
   14.16222191  165.72300720    0.95999998    2.98000002
   14.16555500  135.36900330    0.95999998    2.98000002
   14.16888905  156.07099915    0.95999998    2.98000002
   14.17194462  148.76100159    0.95999998    2.98000002
   14.17527771  168.54600525    0.95999998    2.98000002
   14.17861176  160.74600220    0.95999998    2.98000002
   14.18444443  160.74600220    0.95999998    2.98000002
   14.18861103  162.70700073    0.95999998    2.98000002
   14.19166660  156.87800598    0.95999998    2.98000002
   14.19499969  162.59300232    0.95999998    2.98000002
   14.19833374  157.67799377    0.95999998    2.98000002
   14.20138836  155.88000488    0.95999998    2.98000002
   14.20472240  152.01800537    0.95999998    2.98000002
   14.20583344  153.81199646    0.95999998    2.98000002
   14.20833302  159.72000122    0.95999998    2.98000002
   14.21138859  163.23800659    0.95999998    2.98000002
   14.21472168  162.07899475    0.95999998    2.98000002
   14.21805477  176.85299683    0.95999998    2.98000002
   14.22111034  149.67199707    0.95999998    2.98000002
   14.22444439  157.04499817    0.95999998    2.98000002
   14.22749996  169.94799805    0.95999998    2.98000002
   14.23083305  168.91700745    0.95999998    2.98000002
   14.23555565  168.91700745    0.95999998    2.98000002
   14.23972225  167.66099548    0.95999998    2.98000002
   14.24305534  146.14500427    0.95999998    2.98000002
   14.24611092  145.57899475    0.95999998    2.98000002
   14.24944496  144.05200195    0.95999998    2.98000002
   14.25277805  149.47999573    0.95999998    2.98000002
   14.25583363  166.20899963    0.95999998    2.98000002
   14.25638866  145.62300110    0.95999998    2.98000002
   14.25944424  148.69000244    0.95999998    2.98000002
   14.26277733  153.97300720    0.95999998    2.98000002
   14.26583290  155.85600281    0.95999998    2.98000002
   14.26916599  141.21699524    0.95999998    2.98000002
   14.27250004  149.31199646    0.95999998    2.98000002
   14.27555561  144.94400024    0.92000002    2.98000002
   14.27888870  144.12600708    0.92000002    3.00000000
   14.28222179  137.82499695    0.89999998    3.00000000
   14.28666687  137.82499695    0.88000000    3.00000000
   14.29083347  141.58099365    0.89999998    3.00000000
   14.29416752  137.74899292    0.89999998    3.00000000
   14.29750061  135.01300049    0.89999998    3.00000000
   14.30055618  136.63600159    0.89999998    3.00000000
   14.30388927  136.19700623    0.89999998    3.00000000
   14.30583382  140.38900757    0.89999998    3.00000000
   14.30749989  135.96200562    0.89999998    3.00000000
   14.31055546  140.77000427    0.89999998    3.00000000
   14.31388950  132.21699524    0.89999998    2.98000002
   14.31694412  141.34599304    0.88000000    3.00000000
   14.32027817  133.62699890    0.88000000    3.00000000
   14.32361126  147.50199890    0.88000000    3.00000000
   14.32666683  135.13400269    0.88000000    3.00000000
   14.32999992  124.48100281    0.88000000    3.00000000
   14.33333302  126.28700256    0.88000000    3.00000000
   14.33805561  126.28700256    0.88000000    3.00000000
   14.34222221  144.62300110    0.92000002    2.98000002
   14.34527779  155.76400757    0.92000002    2.98000002
   14.34861088  167.94400024    0.92000002    2.98000002
   14.35166740  176.27099609    0.92000002    2.98000002
   14.35500050  165.22700500    0.92000002    2.98000002
   14.35583401  137.68200684    0.92000002    2.98000002
   14.35888958  150.16700745    0.92000002    2.98000002
   14.36194515  141.53199768    0.92000002    2.98000002
   14.36527824  155.05299377    0.92000002    2.98000002
   14.36861134  125.84400177    0.92000002    2.98000002
   14.37166691  157.72500610    0.92000002    2.98000002
   14.37500000  169.66200256    0.92000002    2.98000002
   14.37833309  154.22799683    0.92000002    2.98000002
   14.38138866  147.51400757    0.92000002    2.98000002
   14.38472176  183.13999939    0.92000002    2.98000002
   14.38916683  183.13999939    0.92000002    2.98000002
   14.39333344  200.31700134    0.92000002    2.98000002
   14.39638901  170.89599609    0.92000002    2.98000002
   14.39972210  170.34399414    0.92000002    2.98000002
   14.40305519  176.60600281    0.92000002    2.98000002
   14.40583324  175.28700256    0.92000002    2.98000002
   14.40666676  164.48599243    0.92000002    2.98000002
   14.40972137  173.92900085    0.92000002    2.98000002
   14.41305542  151.91400146    0.92000002    3.00000000
   14.41638851  168.15499878    0.92000002    3.00000000
   14.41944504  165.67799377    0.92000002    3.00000000
   14.42277813  178.01899719    0.92000002    3.00000000
   14.42583370  161.84500122    0.92000002    3.00000000
   14.42916679  173.60499573    0.92000002    3.00000000
   14.43249989  177.37899780    0.92000002    3.00000000
   14.43555546  163.13699341    0.92000002    3.00000000
   14.44027805  163.13699341    0.88000000    3.01999998
   14.44444466  151.06900024    0.89999998    3.00000000
   14.44777775  157.41400146    0.89999998    3.00000000
   14.45083332  138.71400452    0.89999998    2.98000002
   14.45416641  156.32200623    0.89999998    3.00000000
   14.45583344  158.99099731    0.89999998    3.00000000
   14.45777798  127.93299866    0.88000000    3.01999998
   14.46083355  133.87100220    0.88000000    3.00000000
   14.46416664  161.74400330    0.88000000    3.00000000
   14.46749973  176.95799255    0.88000000    3.00000000
   14.47055531  155.40299988    0.88000000    3.00000000
   14.47388840  168.28199768    0.88000000    3.00000000
   14.47722149  155.80400085    0.88000000    3.00000000
   14.48027706  186.74000549    0.88000000    3.00000000
   14.48361111  177.36199951    0.88000000    3.00000000
   14.48666668  202.11000061    0.88000000    3.00000000
   14.49138927  202.11000061    0.83999997    3.00000000
   14.50277805  228.79499817    0.00000000    0.00000000
   14.50638866  231.18600464    0.00000000    0.00000000
   14.50694466  259.93301392    0.00000000    0.00000000
   14.51027775  231.41299438    0.86000001    3.01999998
   14.51333332  232.32200623    0.86000001    3.01999998
   14.51666641  249.40100098    0.86000001    3.01999998
   14.51972198  254.83599854    0.86000001    3.01999998
   14.52305508  273.98498535    0.86000001    3.01999998
   14.52638817  217.83099365    0.86000001    3.01999998
   14.52944374  221.38900757    0.86000001    3.01999998
   14.53277779  241.32200623    0.86000001    3.01999998
   14.53611183  295.92098999    0.83999997    3.00000000
   14.54277802  295.92098999    0.88000000    3.00000000
   14.54694462  265.76998901    0.88000000    3.01999998
   14.55000019  220.53100586    0.88000000    3.01999998
   14.55333328  255.46899414    0.88000000    3.01999998
   14.55583382  233.44000244    0.88000000    3.01999998
   14.55694485  237.34100342    0.88000000    3.01999998
   14.56000042  250.58900452    0.88000000    3.01999998
   14.56333351  213.50599670    0.88000000    3.01999998
   14.56666660  231.96699524    0.88000000    3.01999998
   14.56972218  214.88400269    0.88000000    3.01999998
   14.57305527  216.11399841    0.88000000    3.01999998
   14.57638836  182.38499451    0.88000000    3.01999998
   14.57944393  211.81399536    0.88000000    3.01999998
   14.58277798  213.05700684    0.88000000    3.01999998
   14.58583260  240.79100037    0.88000000    3.01999998
   14.58916664  163.46600342    0.88000000    3.01999998
   14.59388828  163.46600342    0.88000000    3.01999998
   14.59805489  229.07800293    0.88000000    3.01999998
   14.60138893  249.07499695    0.88000000    3.01999998
   14.60444450  191.25300598    0.88000000    3.01999998
   14.60583401  190.56399536    0.88000000    3.01999998
   14.60805607  230.37800598    0.88000000    3.01999998
   14.61138916  211.04800415    0.88000000    3.01999998
   14.61444473  259.09298706    0.88000000    3.01999998
   14.61777782  250.35499573    0.88000000    3.01999998
   14.62111092  220.96200562    0.88000000    3.01999998
   14.62416649  247.79100037    0.88000000    3.01999998
   14.62750053  207.82400513    0.88000000    3.01999998
   14.63055611  195.67100525    0.88000000    3.01999998
   14.63388920  215.43200684    0.88000000    3.01999998
   14.63722229  202.20799255    0.88000000    3.01999998
   14.64027786  215.15299988    0.88000000    3.01999998
   14.64499950  215.15299988    0.88000000    3.01999998
   14.64916611  185.76899719    0.88000000    3.01999998
   14.65249920  190.66999817    0.88000000    3.01999998
   14.65555477  207.24099731    0.88000000    3.01999998
   14.65611076  222.35499573    0.88000000    3.01999998
   14.65944386  216.08799744    0.88000000    3.01999998
   14.66277695  230.39199829    0.88000000    3.01999998
   14.66583252  209.35800171    0.88000000    3.01999998
   14.66916656  164.17599487    0.88000000    3.01999998
   14.67222214  223.96299744    0.88000000    3.01999998
   14.67555618  182.17999268    0.88000000    3.01999998
   14.67888927  193.71600342    0.88000000    3.01999998
   14.68194485  201.30000305    0.88000000    3.01999998
   14.68527794  183.49000549    0.88000000    3.01999998
   14.68861103  203.44400024    0.88000000    3.01999998
   14.69166660  181.56399536    0.88000000    3.01999998
   14.69638920  181.56399536    0.88000000    3.01999998
   14.70027733  207.12899780    0.88000000    3.01999998
   14.70361137  198.23100281    0.88000000    3.01999998
   14.70638847  191.27999878    0.88000000    3.01999998
   14.70722198  198.95799255    0.88000000    3.01999998
   14.71055508  189.55200195    0.88000000    3.01999998
   14.71388912  170.93299866    0.88000000    3.01999998
   14.71694374  193.39199829    0.88000000    3.01999998
   14.72027779  203.88600159    0.88000000    3.01999998
   14.72333336  201.27000427    0.88000000    3.01999998
   14.72666645  177.85299683    0.88000000    3.01999998
   14.72999954  150.35600281    0.88000000    3.01999998
   14.73305511  187.46600342    0.88000000    3.01999998
   14.73638916  178.59599304    0.88000000    3.01999998
   14.73972225  183.12399292    0.88000000    3.01999998
   14.74277782  192.69999695    0.88000000    3.01999998
   14.74750042  192.69999695    0.88000000    3.01999998
   14.75166702  162.00100708    0.88000000    3.01999998
   14.75472260  183.99800110    0.88000000    3.01999998
   14.75638866  178.69299316    0.88000000    3.01999998
   14.75833321  177.49299622    0.88000000    3.01999998
   14.76166630  176.02900696    0.88000000    3.01999998
   14.76500034  146.97300720    0.88000000    3.01999998
   14.76805496  161.02799988    0.88000000    3.01999998
   14.77138901  184.75199890    0.88000000    3.01999998
   14.77444458  175.69000244    0.88000000    3.01999998
   14.77777767  163.63699341    0.88000000    3.01999998
   14.78111076  181.75500488    0.88000000    3.01999998
   14.78416729  176.25900269    0.88000000    3.01999998
   14.78750038  169.11700439    0.88000000    3.01999998
   14.79083347  175.92500305    0.88000000    3.01999998
   14.79388905  155.47399902    0.88000000    3.01999998
   14.79861164  155.47399902    0.88000000    3.01999998
   14.80277824  164.56799316    0.88000000    3.01999998
   14.80611134  163.52200317    0.88000000    3.01999998
   14.80666733  151.02400208    0.88000000    3.01999998
   14.80972195  152.32299805    0.88000000    3.01999998
   14.81305599  161.80700684    0.88000000    3.01999998
   14.81611156  155.45599365    0.88000000    3.01999998
   14.81944466  151.87899780    0.88000000    3.01999998
   14.82277775  168.04400635    0.88000000    3.01999998
   14.82583332  163.35699463    0.88000000    3.01999998
   14.82916641  155.11500549    0.88000000    3.01999998
   14.83222198  167.57800293    0.88000000    3.01999998
   14.83555508  153.80499268    0.88000000    3.01999998
   14.83888817  161.09700012    0.88000000    3.01999998
   14.84194374  136.82400513    0.88000000    3.01999998
   14.84555531  160.41499329    0.88000000    3.01999998
   14.84972191  160.41499329    0.88000000    3.01999998
   14.85388947  149.01699829    0.88000000    3.01999998
   14.85750008  150.45100403    0.88000000    3.01999998
   14.85833359  165.91099548    0.88000000    3.01999998
   14.86166668  157.43099976    0.88000000    3.01999998
   14.86500072  149.22399902    0.88000000    3.01999998
   14.86805534  149.77999878    0.88000000    3.01999998
   14.87138939  153.14599609    0.88000000    3.01999998
   14.87472248  158.02200317    0.88000000    3.01999998
   14.87777805  156.36300659    0.88000000    3.01999998
   14.88111115  155.58500671    0.88000000    3.01999998
   14.88416672  169.88299561    0.88000000    3.01999998
   14.88749981  159.69200134    0.88000000    3.01999998
   14.89083290  173.26300049    0.88000000    3.01999998
   14.89388847  161.97799683    0.88000000    3.01999998
   14.89722252  153.63999939    0.88000000    3.01999998
   14.90138817  153.63999939    0.88000000    3.01999998
   14.90555477  157.49099731    0.88000000    3.01999998
   14.90666676  153.57499695    0.88000000    3.01999998
   14.90916634  159.89300537    0.88000000    3.01999998
   14.91249943  146.98300171    0.88000000    3.01999998
   14.91583252  154.58799744    0.88000000    3.01999998
   14.91888905  134.65100098    0.88000000    3.01999998
   14.92222214  136.75399780    0.88000000    3.01999998
   14.92527771  137.09300232    0.88000000    3.01999998
   14.92861176  145.61199951    0.88000000    3.01999998
   14.93194485  146.04200745    0.88000000    3.01999998
   14.93500042  151.65800476    0.88000000    3.01999998
   14.93833351  141.14700317    0.88000000    3.01999998
   14.94166660  139.84199524    0.88000000    3.01999998
   14.94472218  135.07400513    0.88000000    3.01999998
   14.94805527  137.37199402    0.88000000    3.01999998
   14.95249939  137.37199402    0.88000000    3.01999998
   14.95666695  118.91699982    0.88000000    3.01999998
   14.96000004  131.24699402    0.88000000    3.01999998
   14.96333313  139.13400269    0.88000000    3.01999998
   14.96638870  153.27400208    0.88000000    3.01999998
   14.96972179  148.74200439    0.88000000    3.01999998
   14.97277737  141.14399719    0.88000000    3.01999998
   14.97611046  137.49200439    0.88000000    3.01999998
   14.97944355  134.51300049    0.88000000    3.01999998
   14.98249912  135.25100708    0.88000000    3.01999998
   14.98583317  130.17700195    0.88000000    3.01999998
   14.98888874  129.57299805    0.88000000    3.01999998
   14.99222279  125.80000305    0.88000000    3.01999998
   14.99555588  128.15299988    0.88000000    3.01999998
   14.99861145  127.06099701    0.88000000    3.01999998
   15.00361156  127.06099701    0.88000000    3.01999998
   15.00777817  137.96499634    0.88000000    3.01999998
   15.01111126  129.39599609    0.88000000    3.01999998
   15.01416683  130.51300049    0.88000000    3.01999998
   15.01749992  135.49299622    0.88000000    3.01999998
   15.02083302  139.91700745    0.88000000    3.01999998
   15.02388859  134.92100525    0.88000000    3.01999998
   15.02722168  121.63099670    0.88000000    3.01999998
   15.03055573  127.52600098    0.88000000    3.01999998
   15.03361130  134.03300476    0.88000000    3.01999998
   15.03694534  138.27600098    0.88000000    3.01999998
   15.04000092  140.71299744    0.88000000    3.01999998
   15.04333401  142.70399475    0.88000000    3.01999998
   15.04666710  143.80599976    0.88000000    3.01999998
   15.05000019  130.66999817    0.88000000    3.01999998
   15.05500031  130.66999817    0.88000000    3.01999998
   15.05888939  137.48500061    0.88000000    3.01999998
   15.06222248  146.90100098    0.88000000    3.01999998
   15.06555557  163.61199951    0.88000000    3.01999998
   15.06861115  155.66200256    0.88000000    3.01999998
   15.07194424  147.82600403    0.88000000    3.01999998
   15.07527733  145.95700073    0.88000000    3.01999998
   15.07833290  152.79699707    0.88000000    3.01999998
   15.08166695  144.86300659    0.88000000    3.01999998
   15.08472157  141.07299805    0.88000000    3.01999998
   15.08805561  140.50300598    0.88000000    3.01999998
   15.09138870  145.18499756    0.88000000    3.01999998
   15.09444427  129.34800720    0.88000000    3.01999998
   15.09777737  134.09899902    0.88000000    3.01999998
   15.10111141  146.43600464    0.88000000    3.01999998
   15.10611153  146.43600464    0.88000000    3.01999998
   15.11027813  125.85500336    0.88000000    3.01999998
   15.11333370  127.18800354    0.88000000    3.01999998
   15.11666679  138.91299438    0.88000000    3.01999998
   15.11999989  138.67799377    0.88000000    3.01999998
   15.12305546  119.41300201    0.88000000    3.01999998
   15.12638855  128.77799988    0.88000000    3.01999998
   15.12972260  126.50800323    0.88000000    3.01999998
   15.13277817  132.20300293    0.88000000    3.01999998
   15.13611126  130.45599365    0.88000000    3.01999998
   15.13916683  130.88400269    0.88000000    3.01999998
   15.14249992  134.29699707    0.88000000    3.01999998
   15.14583302  140.27499390    0.88000000    3.01999998
   15.14888859  120.49800110    0.88000000    3.01999998
   15.15222168  136.55099487    0.88000000    3.01999998
   15.15722179  136.55099487    0.88000000    3.01999998
   15.17555618  138.18200684    0.88000000    3.01999998
   15.17888927  130.85400391    0.88000000    3.01999998
   15.18194485  132.42799377    0.88000000    3.01999998
   15.18527794  140.87399292    0.88000000    3.01999998
   15.18861103  147.62699890    0.88000000    3.01999998
   15.19166660  114.22499847    0.88000000    3.01999998
   15.19499969  130.19200134    0.88000000    3.01999998
   15.19833374  121.71199799    0.88000000    3.01999998
   15.20138836  125.20099640    0.88000000    3.01999998
   15.20472240  147.14700317    0.88000000    3.01999998
   15.20888901  147.14700317    0.88000000    3.01999998
   15.21305561  115.86599731    0.88000000    3.01999998
   15.21611118  156.81700134    0.88000000    3.01999998
   15.21944427  157.66499329    0.88000000    3.01999998
   15.22277737  146.09399414    0.88000000    3.01999998
   15.22527695  148.12399292    0.88000000    3.01999998
   15.22638798  153.06799316    0.88000000    3.01999998
   15.22944355  147.07099915    0.88000000    3.01999998
   15.23277760  144.77699280    0.88000000    3.01999998
   15.23611164  141.91600037    0.88000000    3.01999998
   15.23916721  129.67999268    0.88000000    3.01999998
   15.24250031  130.62399292    0.88000000    3.01999998
   15.24583340  141.18499756    0.88000000    3.01999998
   15.24888897  117.29000092    0.88000000    3.01999998
   15.25222206  123.89800262    0.88000000    3.01999998
   15.25527763  117.82199860    0.88000000    3.01999998
   15.26000023  117.82199860    0.88000000    3.01999998
   15.26416683  137.88800049    0.88000000    3.01999998
   15.26722240  138.48599243    0.88000000    3.01999998
   15.27055550  150.77900696    0.88000000    3.01999998
   15.27388859  151.91000366    0.88000000    3.01999998
   15.27527714  163.77000427    0.88000000    3.01999998
   15.27750015  155.65299988    0.88000000    3.01999998
   15.28083324  156.70799255    0.88000000    3.01999998
   15.28388977  164.88200378    0.88000000    3.01999998
   15.28722286  162.45300293    0.88000000    3.01999998
   15.29027843  142.69099426    0.88000000    3.01999998
   15.29361153  128.98399353    0.88000000    3.01999998
   15.29694462  138.56700134    0.88000000    3.01999998
   15.30000019  146.66400146    0.88000000    3.01999998
   15.30333328  132.78799438    0.88000000    3.01999998
   15.30666733  131.48800659    0.88000000    3.01999998
   15.31111145  131.48800659    0.88000000    3.01999998
   15.31527805  128.01499939    0.88000000    3.01999998
   15.31861115  147.53500366    0.88000000    3.01999998
   15.32166672  152.13600159    0.88000000    3.01999998
   15.32499981  153.79699707    0.88000000    3.01999998
   15.32555580  138.42799377    0.88000000    3.01999998
   15.32861137  149.84100342    0.88000000    3.01999998
   15.33166695  132.04699707    0.88000000    3.01999998
   15.33500004  136.78100586    0.88000000    3.01999998
   15.33833313  134.72399902    0.88000000    3.01999998
   15.34138870  137.80200195    0.88000000    3.01999998
   15.34472179  139.61799622    0.88000000    3.01999998
   15.34805489  127.70300293    0.88000000    3.01999998
   15.35111141  130.66299438    0.88000000    3.01999998
   15.35444450  122.73100281    0.88000000    3.01999998
   15.35750008  129.60000610    0.88000000    3.01999998
   15.36250019  129.60000610    0.88000000    3.01999998
   15.36638927  126.48500061    0.88000000    3.01999998
   15.36972237  143.23599243    0.88000000    3.01999998
   15.37305546  128.64300537    0.88000000    3.01999998
   15.37555599  130.62800598    0.88000000    3.01999998
   15.37666702  127.18800354    0.88000000    3.01999998
   15.37972260  124.16500092    0.88000000    3.01999998
   15.38305569  138.49800110    0.88000000    3.01999998
   15.38638878  140.64100647    0.88000000    3.01999998
   15.38944435  134.96400452    0.88000000    3.01999998
   15.39277744  126.09799957    0.88000000    3.01999998
   15.39611053  132.22700500    0.88000000    3.01999998
   15.39916611  123.50599670    0.88000000    3.01999998
   15.40249920  132.49499512    0.88000000    3.01999998
   15.40555477  147.32899475    0.88000000    3.01999998
   15.40888882  142.77999878    0.88000000    3.01999998
   15.41361046  142.77999878    0.88000000    3.01999998
   15.41777802  147.59100342    0.88000000    3.01999998
   15.42083359  156.32899475    0.88000000    3.01999998
   15.42416668  153.95799255    0.88000000    3.01999998
   15.42555618  160.57600403    0.88000000    3.01999998
   15.42777824  161.52499390    0.88000000    3.01999998
   15.43083382  134.12600708    0.88000000    3.01999998
   15.43416691  159.31700134    0.88000000    3.01999998
   15.43750000  149.16099548    0.88000000    3.01999998
   15.44055557  153.02299500    0.88000000    3.01999998
   15.44388866  151.15400696    0.88000000    3.01999998
   15.44722271  153.38099670    0.88000000    3.01999998
   15.45027733  140.45700073    0.88000000    3.01999998
   15.45361137  142.73800659    0.88000000    3.01999998
   15.45666695  132.92500305    0.88000000    3.01999998
   15.46000004  145.21600342    0.88000000    3.01999998
   15.46472168  145.21600342    0.88000000    3.01999998
   15.46888828  142.35800171    0.88000000    3.01999998
   15.47194386  140.57299805    0.88000000    3.01999998
   15.47527695  141.01699829    0.88000000    3.01999998
   15.47583294  144.08799744    0.88000000    3.01999998
   15.47888851  150.46099854    0.88000000    3.01999998
   15.48194408  139.45399475    0.88000000    3.01999998
   15.48527813  141.81500244    0.88000000    3.01999998
   15.48861122  147.89900208    0.88000000    3.01999998
   15.49166679  140.01100159    0.88000000    3.01999998
   15.49499989  137.10099792    0.88000000    3.01999998
   15.49833393  142.17100525    0.88000000    3.01999998
   15.50138855  143.04200745    0.88000000    3.01999998
   15.50472260  135.72399902    0.88000000    3.01999998
   15.50777817  137.83999634    0.88000000    3.01999998
   15.51111126  139.91000366    0.88000000    3.01999998
   15.51583290  139.91000366    0.88000000    3.01999998
   15.51999950  139.41799927    0.88000000    3.01999998
   15.52333355  140.61700439    0.88000000    3.01999998
   15.52583313  136.83999634    0.88000000    3.01999998
   15.52694416  136.20700073    0.88000000    3.01999998
   15.52999973  145.19799805    0.88000000    3.01999998
   15.53333378  139.84899902    0.88000000    3.01999998
   15.53666687  138.90199280    0.88000000    3.01999998
   15.53972244  144.96400452    0.88000000    3.01999998
   15.54305553  147.59800720    0.88000000    3.01999998
   15.54638958  135.19500732    0.88000000    3.01999998
   15.54944515  142.34599304    0.88000000    3.01999998
   15.55277824  138.78500366    0.88000000    3.01999998
   15.55583382  146.20599365    0.88000000    3.01999998
   15.55916691  132.09100342    0.88000000    3.01999998
   15.56250000  139.33399963    0.88000000    3.01999998
   15.56694412  139.33399963    0.88000000    3.01999998
   15.57111073  141.15100098    0.88000000    3.01999998
   15.57444477  134.88200378    0.88000000    3.01999998
   15.57583332  135.22500610    0.88000000    3.01999998
   15.57805538  145.80000305    0.88000000    3.01999998
   15.58111095  140.65400696    0.88000000    3.01999998
   15.58444405  132.48599243    0.88000000    3.01999998
   15.58777714  140.64500427    0.88000000    3.01999998
   15.59083271  141.71499634    0.88000000    3.01999998
   15.59416676  121.72899628    0.88000000    3.01999998
   15.59749985  142.25199890    0.88000000    3.01999998
   15.60055637  140.53900146    0.88000000    3.01999998
   15.60388947  141.43899536    0.88000000    3.01999998
   15.60694504  126.79299927    0.88000000    3.01999998
   15.61027813  134.69000244    0.88000000    3.01999998
   15.61361122  118.91100311    0.88000000    3.01999998
   15.61833382  118.91100311    0.88000000    3.01999998
   15.62250042  125.63200378    0.88000000    3.01999998
   15.62555599  130.41600037    0.88000000    3.01999998
   15.62611103  125.97100067    0.88000000    3.01999998
   15.62944412  137.37500000    0.88000000    3.01999998
   15.63249969  122.56600189    0.88000000    3.01999998
   15.63583279  114.36799622    0.88000000    3.01999998
   15.63916683  112.34700012    0.88000000    3.01999998
   15.64222240  113.86299896    0.88000000    3.01999998
   15.64555550  135.99499512    0.88000000    3.01999998
   15.64888859  136.55200195    0.88000000    3.01999998
   15.65194416  138.85899353    0.88000000    3.01999998
   15.65527725  127.91500092    0.88000000    3.01999998
   15.65861034  127.25499725    0.88000000    3.01999998
   15.66166592  140.21099854    0.88000000    3.01999998
   15.66499996  124.76799774    0.88000000    3.01999998
   15.66944504  124.76799774    0.88000000    3.01999998
   15.67361164  124.27600098    0.88000000    3.01999998
   15.67611122  129.48100281    0.88000000    3.01999998
   15.67722225  126.00399780    0.88000000    3.01999998
   15.68027782  149.01300049    0.88000000    3.01999998
   15.68361092  120.29599762    0.88000000    3.01999998
   15.68694496  134.19599915    0.88000000    3.01999998
   15.69000053  131.51199341    0.88000000    3.01999998
   15.69333363  137.83799744    0.88000000    3.01999998
   15.69666672  126.83599854    0.88000000    3.01999998
   15.69972229  144.14799500    0.88000000    3.01999998
   15.70305538  151.44200134    0.88000000    3.01999998
   15.70611095  142.33999634    0.88000000    3.01999998
   15.70944405  133.12199402    0.88000000    3.01999998
   15.71277714  129.68200684    0.88000000    3.01999998
   15.71583271  139.09199524    0.88000000    3.01999998
   15.72055531  139.09199524    0.88000000    3.01999998
   15.72472191  148.10299683    0.88000000    3.01999998
   15.72611046  133.39900208    0.88000000    3.01999998
   15.72833252  127.20400238    0.88000000    3.01999998
   15.73138809  132.07499695    0.88000000    3.01999998
   15.73472214  134.74800110    0.88000000    3.01999998
   15.73805618  119.75299835    0.88000000    3.01999998
   15.74111176  125.36499786    0.88000000    3.01999998
   15.74444485  139.00900269    0.88000000    3.01999998
   15.74777794  138.33299255    0.88000000    3.01999998
   15.75083351  127.24299622    0.88000000    3.01999998
   15.75416660  147.13299561    0.88000000    3.01999998
   15.75722218  135.00000000    0.88000000    3.01999998
   15.76055527  142.07800293    0.88000000    3.01999998
   15.76388931  137.61799622    0.88000000    3.01999998
   15.76694393  136.86700439    0.88000000    3.01999998
   15.77166653  136.86700439    0.88000000    3.01999998
   15.77583313  136.88800049    0.88000000    3.01999998
   15.77638817  140.04200745    0.88000000    3.01999998
   15.77972221  140.67599487    0.88000000    3.01999998
   15.78277779  137.16299438    0.88000000    3.01999998
   15.78611183  156.63299561    0.88000000    3.01999998
   15.78944492  125.04299927    0.88000000    3.01999998
   15.79250050  137.77600098    0.88000000    3.01999998
   15.79583359  120.95099640    0.88000000    3.01999998
   15.79916668  135.53399658    0.88000000    3.01999998
   15.80222225  144.38900757    0.88000000    3.01999998
   15.80555534  116.33399963    0.88000000    3.01999998
   15.80888939  131.40400696    0.88000000    3.01999998
   15.81194496  123.39399719    0.88000000    3.01999998
   15.81527805  129.97900391    0.88000000    3.01999998
   15.81833363  131.64700317    0.88000000    3.01999998
   15.82305527  131.64700317    0.88000000    3.01999998
   15.82722187  145.92300415    0.88000000    3.01999998
   15.83027744  144.37399292    0.88000000    3.01999998
   15.83361053  150.43499756    0.88000000    3.01999998
   15.83666611  138.64900208    0.88000000    3.01999998
   15.84000015  140.36000061    0.88000000    3.01999998
   15.84333324  128.37899780    0.88000000    3.01999998
   15.84638882  156.43200684    0.88000000    3.01999998
   15.84972191  133.94599915    0.88000000    3.01999998
   15.85305595  116.59400177    0.88000000    3.01999998
   15.85611153  131.82000732    0.88000000    3.01999998
   15.85944462  145.60200500    0.88000000    3.01999998
   15.86250019  133.99899292    0.88000000    3.01999998
   15.86583328  147.13900757    0.88000000    3.01999998
   15.86916637  152.99099731    0.88000000    3.01999998
   15.87416649  152.99099731    0.88000000    3.01999998
   15.87833309  153.77499390    0.88000000    3.01999998
   15.88138866  152.69700623    0.88000000    3.01999998
   15.88472176  159.08799744    0.88000000    3.01999998
   15.88805580  171.30200195    0.88000000    3.01999998
   15.89111137  182.49600220    0.88000000    3.01999998
   15.89444447  152.84199524    0.88000000    3.01999998
   15.89777756  175.11199951    0.88000000    3.01999998
   15.90083313  168.58799744    0.88000000    3.01999998
   15.90416622  177.87600708    0.88000000    3.01999998
   15.90749931  186.78999329    0.88000000    3.01999998
   15.91055489  153.33099365    0.88000000    3.01999998
   15.91388893  159.63800049    0.88000000    3.01999998
   15.91694450  172.70300293    0.88000000    3.01999998
   15.92027855  166.73100281    0.88000000    3.01999998
   15.92527771  166.73100281    0.88000000    3.01999998
   15.92944431  142.37800598    0.88000000    3.01999998
   15.93277836  176.43600464    0.88000000    3.01999998
   15.93583298  168.95799255    0.88000000    3.01999998
   15.93916702  171.72300720    0.88000000    3.01999998
   15.94250011  171.79299927    0.88000000    3.01999998
   15.94555569  164.02000427    0.88000000    3.01999998
   15.94888878  170.84899902    0.88000000    3.01999998
   15.95194435  158.49099731    0.88000000    3.01999998
   15.95527744  157.44500732    0.88000000    3.01999998
   15.95861053  162.88800049    0.88000000    3.01999998
   15.96166611  152.89599609    0.88000000    3.01999998
   15.96500015  153.15699768    0.88000000    3.01999998
   15.96833324  169.89199829    0.88000000    3.01999998
   15.97138882  157.10499573    0.88000000    3.01999998
   15.97638798  157.10499573    0.88000000    3.01999998
   15.98055553  151.81399536    0.88000000    3.01999998
   15.98388958  164.10200500    0.88000000    3.01999998
   15.98722267  158.59199524    0.88000000    3.01999998
   15.99027824  182.25399780    0.88000000    3.01999998
   15.99361134  171.77699280    0.88000000    3.01999998
   15.99666691  189.72300720    0.88000000    3.01999998
   16.00000000  182.83599854    0.88000000    3.01999998
   16.00333405  182.56900024    0.88000000    3.01999998
   16.00638962  160.93600464    0.88000000    3.01999998
   16.00972176  182.97399902    0.88000000    3.01999998
   16.01305580  185.46899414    0.88000000    3.01999998
   16.01611137  174.60400391    0.88000000    3.01999998
   16.01944351  180.06599426    0.88000000    3.01999998
   16.02249908  174.99699402    0.88000000    3.01999998
   16.02777672  174.99699402    0.88000000    3.01999998
   16.03194427  178.41499329    0.88000000    3.01999998
   16.03499985  183.54800415    0.88000000    3.01999998
   16.03833199  188.34399414    0.88000000    3.01999998
   16.04138756  181.22099304    0.88000000    3.01999998
   16.04472160  201.00999451    0.88000000    3.01999998
   16.04805565  214.67799377    0.88000000    3.01999998
   16.05111122  208.31799316    0.88000000    3.01999998
   16.05444336  199.50000000    0.88000000    3.01999998
   16.05777740  193.96299744    0.88000000    3.01999998
   16.06083298  206.65299988    0.88000000    3.01999998
   16.06416512  194.65299988    0.88000000    3.01999998
   16.06722260  179.21899414    0.88000000    3.01999998
   16.07055664  189.38800049    0.88000000    3.01999998
   16.07389069  191.67500305    0.88000000    3.01999998
   16.07888985  191.67500305    0.88000000    3.01999998
   16.08305550  209.16700745    0.88000000    3.01999998
   16.08611107  186.86700439    0.88000000    3.01999998
   16.08944511  176.95599365    0.88000000    3.01999998
   16.09277916  186.33700562    0.88000000    3.01999998
   16.09583473  184.40100098    0.88000000    3.01999998
   16.09916687  170.05299377    0.88000000    3.01999998
   16.10250092  179.10899353    0.88000000    3.01999998
   16.10555649  196.74099731    0.88000000    3.01999998
   16.10888863  179.46400452    0.88000000    3.01999998
   16.11194420  184.11399841    0.88000000    3.01999998
   16.11527824  154.74299622    0.88000000    3.01999998
   16.11861038  164.93899536    0.88000000    3.01999998
   16.12166595  172.87199402    0.88000000    3.01999998
   16.12500000  170.48899841    0.88000000    3.01999998
   16.13000107  170.48899841    0.88000000    3.01999998
   16.13416672  173.87199402    0.88000000    3.01999998
   16.13750076  163.03599548    0.88000000    3.01999998
   16.14055634  179.48300171    0.88000000    3.01999998
   16.14388847  191.44700623    0.88000000    3.01999998
   16.14722252  150.83099365    0.88000000    3.01999998
   16.15027809  173.81300354    0.88000000    3.01999998
   16.15361023  173.12699890    0.88000000    3.01999998
   16.15694427  176.44200134    0.88000000    3.01999998
   16.15999985  176.63900757    0.88000000    3.01999998
   16.16333389  183.04699707    0.88000000    3.01999998
   16.16638756  191.07800293    0.88000000    3.01999998
   16.16972160  171.41999817    0.88000000    3.01999998
   16.17305565  156.71400452    0.88000000    3.01999998
   16.19583321  156.71400452    0.88000000    3.01999998
   16.20000076  180.66999817    0.88000000    3.01999998
   16.20305634  161.22300720    0.88000000    3.01999998
   16.20639038  152.67799377    0.88000000    3.01999998
   16.20972252  136.23300171    0.88000000    3.01999998
   16.21277809  147.53799438    0.88000000    3.01999998
   16.21611214  156.87500000    0.88000000    3.01999998
   16.21916771  160.10200500    0.88000000    3.01999998
   16.22249985  150.30900574    0.88000000    3.01999998
   16.22583389  155.95199585    0.88000000    3.01999998
   16.22888947  189.16099548    0.88000000    3.01999998
   16.23222351  168.00199890    0.88000000    3.01999998
   16.23555565  151.43800354    0.88000000    3.01999998
   16.23861122  151.81799316    0.88000000    3.01999998
   16.24194527  139.61000061    0.88000000    3.01999998
   16.24333382  162.28500366    0.88000000    3.01999998
   16.24749947  162.28500366    0.88000000    3.01999998
   16.25166702  160.66999817    0.88000000    3.01999998
   16.25472260  149.19700623    0.88000000    3.01999998
   16.25805473  128.07800293    0.88000000    3.01999998
   16.26111031  149.53799438    0.88000000    3.01999998
   16.26444435  164.20399475    0.88000000    3.01999998
   16.26777840  143.64500427    0.88000000    3.01999998
   16.27083397  157.12899780    0.88000000    3.01999998
   16.27416611  144.07499695    0.88000000    3.01999998
   16.27750015  143.81399536    0.88000000    3.01999998
   16.28055573  164.37600708    0.88000000    3.01999998
   16.28388786  159.94200134    0.88000000    3.01999998
   16.28694344  168.11300659    0.88000000    3.01999998
   16.29027748  157.47300720    0.88000000    3.01999998
   16.29333305  144.85200500    0.88000000    3.01999998
   16.29388809  167.18099976    0.88000000    3.01999998
   16.29861069  167.18099976    0.88000000    3.01999998
   16.30277634  148.99099731    0.88000000    3.01999998
   16.30583191  151.50500488    0.88000000    3.01999998
   16.30916595  133.13099670    0.88000000    3.01999998
   16.31250000  130.72799683    0.88000000    3.01999998
   16.31555557  144.39199829    0.88000000    3.01999998
   16.31888962  165.55299377    0.88000000    3.01999998
   16.32222366  138.89799500    0.88000000    3.01999998
   16.32527924  154.94799805    0.88000000    3.01999998
   16.32861137  168.58099365    0.88000000    3.01999998
   16.33194542  170.60800171    0.88000000    3.01999998
   16.33500099  170.30499268    0.88000000    3.01999998
   16.33833313  168.72700500    0.88000000    3.01999998
   16.34166718  167.19700623    0.88000000    3.01999998
   16.34333420  161.48800659    0.88000000    3.01999998
   16.34500122  168.24699402    0.88000000    3.01999998
   16.34972191  168.24699402    0.88000000    3.01999998
   16.35388947  180.19900513    0.88000000    3.01999998
   16.35722351  180.10299683    0.88000000    3.01999998
   16.36027908  189.43299866    0.88000000    3.01999998
   16.36361122  168.11900330    0.88000000    3.01999998
   16.36666679  178.21099854    0.88000000    3.01999998
   16.37000084  166.95199585    0.88000000    3.01999998
   16.37333298  159.57000732    0.88000000    3.01999998
   16.37638855  159.59199524    0.88000000    3.01999998
   16.37972260  166.81900024    0.88000000    3.01999998
   16.38305473  179.32699585    0.88000000    3.01999998
   16.38611031  191.23199463    0.88000000    3.01999998
   16.38944435  202.02200317    0.88000000    3.01999998
   16.39249992  188.10099792    0.88000000    3.01999998
   16.39333344  201.68800354    0.88000000    3.01999998
   16.39611053  188.30900574    0.88000000    3.01999998
   16.40083313  188.30900574    0.88000000    3.01999998
   16.40499878  212.69700623    0.88000000    3.01999998
   16.40833282  198.71400452    0.88000000    3.01999998
   16.41138840  202.39700317    0.88000000    3.01999998
   16.41472244  210.43699646    0.88000000    3.01999998
   16.41805458  226.14599609    0.88000000    3.01999998
   16.42111015  210.11300659    0.88000000    3.01999998
   16.42444420  234.19299316    0.88000000    3.01999998
   16.42777634  222.66400146    0.88000000    3.01999998
   16.43083191  201.13099670    0.88000000    3.01999998
   16.43416595  236.52900696    0.88000000    3.01999998
   16.43722153  235.08000183    0.88000000    3.01999998
   16.44055557  196.13299561    0.88000000    3.01999998
   16.44333267  242.78300476    0.88000000    3.01999998
   16.44416618  270.97000122    0.88000000    3.01999998
   16.44749832  213.82099915    0.88000000    3.01999998
   16.45222282  213.82099915    0.88000000    3.01999998
   16.45611191  257.10501099    0.88000000    3.01999998
   16.45944595  195.72000122    0.88000000    3.01999998
   16.46277809  212.31500244    0.88000000    3.01999998
   16.46583366  230.14599609    0.88000000    3.01999998
   16.46916771  189.70199585    0.88000000    3.01999998
   16.47249985  175.80599976    0.88000000    3.01999998
   16.47555542  236.31399536    0.88000000    3.01999998
   16.47888947  230.36999512    0.88000000    3.01999998
   16.48194504  221.14700317    0.88000000    3.01999998
   16.48527718  226.09100342    0.88000000    3.01999998
   16.48861122  220.25999451    0.88000000    3.01999998
   16.49166679  230.68600464    0.88000000    3.01999998
   16.49333382  217.29499817    0.88000000    3.01999998
   16.49555588  199.36799622    0.88000000    3.01999998
   16.49861145  184.10800171    0.88000000    3.01999998
   16.50333405  184.10800171    0.88000000    3.01999998
   16.50749969  226.96699524    0.88000000    3.01999998
   16.51055527  199.17300415    0.88000000    3.01999998
   16.51388931  180.93899536    0.88000000    3.01999998
   16.51722145  181.80200195    0.88000000    3.01999998
   16.52027702  172.13000488    0.88000000    3.01999998
   16.52361107  170.21600342    0.88000000    3.01999998
   16.52666664  201.32400513    0.88000000    3.01999998
   16.53000069  215.68400574    0.88000000    3.01999998
   16.53333282  190.18299866    0.88000000    3.01999998
   16.53638840  195.00000000    0.88000000    3.01999998
   16.53972244  223.98800659    0.88000000    3.01999998
   16.54305458  218.61599731    0.88000000    3.01999998
   16.54333305  235.38200378    0.88000000    3.01999998
   16.54638863  198.22599792    0.88000000    3.01999998
   16.54972076  240.69099426    0.88000000    3.01999998
   16.55444336  240.69099426    0.88000000    3.01999998
   16.55861092  238.78399658    0.88000000    3.01999998
   16.56194305  214.08500671    0.88000000    3.01999998
   16.56499863  246.26199341    0.88000000    3.01999998
   16.56833458  232.02900696    0.88000000    3.01999998
   16.57139015  246.80900574    0.88000000    3.01999998
   16.57472229  248.00999451    0.88000000    3.01999998
   16.57805634  210.95500183    0.88000000    3.01999998
   16.58111191  185.24299622    0.88000000    3.01999998
   16.58444595  193.68800354    0.88000000    3.01999998
   16.58777809  160.83599854    0.88000000    3.01999998
   16.59083366  203.24299622    0.88000000    3.01999998
   16.59361267  196.89500427    0.88000000    3.01999998
   16.59444427  194.04299927    0.88000000    3.01999998
   16.59777832  187.13200378    0.88000000    3.01999998
   16.60083389  193.01300049    0.88000000    3.01999998
   16.60555649  193.01300049    0.88000000    3.01999998
   16.60972214  168.90699768    0.88000000    3.01999998
   16.61305618  211.13499451    0.88000000    3.01999998
   16.61611176  168.90499878    0.88000000    3.01999998
   16.61944389  173.11799622    0.88000000    3.01999998
   16.62277794  155.61199951    0.88000000    3.01999998
   16.62583351  179.43800354    0.88000000    3.01999998
   16.62916756  172.20100403    0.88000000    3.01999998
   16.63249969  196.00599670    0.88000000    3.01999998
   16.63555527  182.91000366    0.88000000    3.01999998
   16.63888931  202.00900269    0.88000000    3.01999998
   16.64194489  190.01199341    0.88000000    3.01999998
   16.64361191  205.90499878    0.88000000    3.01999998
   16.64555550  171.00599670    0.88000000    3.01999998
   16.64888954  206.71600342    0.88000000    3.01999998
   16.65194321  180.92599487    0.88000000    3.01999998
   16.65694427  180.92599487    0.88000000    3.01999998
   16.66083336  161.04899597    0.88000000    3.01999998
   16.66416550  183.69200134    0.88000000    3.01999998
   16.66749954  166.30200195    0.88000000    3.01999998
   16.67055511  149.28399658    0.88000000    3.01999998
   16.67388916  186.05000305    0.88000000    3.01999998
   16.67722130  187.04499817    0.88000000    3.01999998
   16.68027687  146.19700623    0.88000000    3.01999998
   16.68361092  175.19999695    0.88000000    3.01999998
   16.68666649  170.94799805    0.88000000    3.01999998
   16.68999863  174.88900757    0.88000000    3.01999998
   16.69333267  180.74200439    0.88000000    3.01999998
   16.69388771  172.15600586    0.88000000    3.01999998
   16.69694328  150.16700745    0.88000000    3.01999998
   16.70027924  153.42999268    0.88000000    3.01999998
   16.70333481  177.23300171    0.88000000    3.01999998
   16.70805550  177.23300171    0.88000000    3.01999998
   16.71222305  173.62600708    0.88000000    3.01999998
   16.71527863  200.54800415    0.88000000    3.01999998
   16.71861076  172.05200195    0.88000000    3.01999998
   16.72194481  160.05900574    0.88000000    3.01999998
   16.72500038  140.02299500    0.88000000    3.01999998
   16.72833443  164.35499573    0.88000000    3.01999998
   16.73139000  170.43899536    0.88000000    3.01999998
   16.73472214  149.78500366    0.88000000    3.01999998
   16.73805618  174.36700439    0.88000000    3.01999998
   16.74111176  157.54899597    0.88000000    3.01999998
   16.74388885  187.17599487    0.88000000    3.01999998
   16.74472237  192.79200745    0.88000000    3.01999998
   16.74805641  146.14399719    0.88000000    3.01999998
   16.75111198  176.13200378    0.88000000    3.01999998
   16.75444412  174.31100464    0.88000000    3.01999998
   16.75916672  174.31100464    0.88000000    3.01999998
   16.76333427  196.36599731    0.88000000    3.01999998
   16.76666641  197.07800293    0.88000000    3.01999998
   16.76972198  186.76100159    0.88000000    3.01999998
   16.77305603  173.87899780    0.88000000    3.01999998
   16.77611160  176.87699890    0.88000000    3.01999998
   16.77944374  205.75100708    0.88000000    3.01999998
   16.78277779  186.94700623    0.88000000    3.01999998
   16.78583336  202.85499573    0.88000000    3.01999998
   16.78916550  182.10800171    0.88000000    3.01999998
   16.79249954  210.58799744    0.88000000    3.01999998
   16.79388809  181.77200317    0.88000000    3.01999998
   16.79583359  150.20799255    0.88000000    3.01999998
   16.79916573  154.29299927    0.88000000    3.01999998
   16.80249977  168.93299866    0.88000000    3.01999998
   16.80555534  176.94599915    0.88000000    3.01999998
   16.81027794  176.94599915    0.88000000    3.01999998
   16.81444359  176.22300720    0.88000000    3.01999998
   16.81777954  179.98100281    0.88000000    3.01999998
   16.82083511  188.69599915    0.88000000    3.01999998
   16.82416725  170.85000610    0.88000000    3.01999998
   16.82750130  180.88999939    0.88000000    3.01999998
   16.83055687  187.91799927    0.88000000    3.01999998
   16.83388901  172.72000122    0.88000000    3.01999998
   16.83722305  188.36700439    0.88000000    3.01999998
   16.84027863  154.16099548    0.88000000    3.01999998
   16.84361267  127.13099670    0.88000000    3.01999998
   16.84416771  122.50599670    0.88000000    3.01999998
   16.84722328  191.21600342    0.88000000    3.01999998
   16.85055542  177.42700195    0.88000000    3.01999998
   16.85388947  160.82400513    0.88000000    3.01999998
   16.85694504  172.38499451    0.88000000    3.01999998
   16.86166763  172.38499451    0.88000000    3.01999998
   16.86555672  168.68699646    0.88000000    3.01999998
   16.86888885  182.77999878    0.88000000    3.01999998
   16.87222290  177.51699829    0.88000000    3.01999998
   16.87527847  179.95100403    0.88000000    3.01999998
   16.87861061  158.08999634    0.88000000    3.01999998
   16.88194466  173.47300720    0.88000000    3.01999998
   16.88500023  141.58500671    0.88000000    3.01999998
   16.88833237  161.43899536    0.88000000    3.01999998
   16.89138794  192.60899353    0.88000000    3.01999998
   16.89416695  172.60899353    0.88000000    3.01999998
   16.89527702  168.49800110    0.88000000    3.01999998
   16.89833260  160.28100586    0.88000000    3.01999998
   16.90166664  170.74899292    0.88000000    3.01999998
   16.90472221  166.24800110    0.88000000    3.01999998
   16.90805435  187.85600281    0.88000000    3.01999998
   16.91277695  187.85600281    0.88000000    3.01999998
   16.91694450  171.28199768    0.88000000    3.01999998
   16.92000008  175.08500671    0.88000000    3.01999998
   16.92333221  145.63600159    0.88000000    3.01999998
   16.92666626  171.22799683    0.88000000    3.01999998
   16.92972183  176.61599731    0.88000000    3.01999998
   16.93305397  176.67500305    0.88000000    3.01999998
   16.93610954  180.51699829    0.88000000    3.01999998
   16.93944359  204.74400330    0.88000000    3.01999998
   16.94277763  147.56500244    0.88000000    3.01999998
   16.94416618  180.40699768    0.88000000    3.01999998
   16.94638824  162.28500366    0.88000000    3.01999998
   16.94944382  180.54600525    0.88000000    3.01999998
   16.95277786  181.44599915    0.88000000    3.01999998
   16.95611191  183.82699585    0.88000000    3.01999998
   16.95916748  157.83200073    0.88000000    3.01999998
   16.96389008  157.83200073    0.88000000    3.01999998
   16.96805573  175.88299561    0.88000000    3.01999998
   16.97138977  185.64799500    0.88000000    3.01999998
   16.97444534  190.94999695    0.88000000    3.01999998
   16.97777748  175.50100708    0.88000000    3.01999998
   16.98083305  151.11900330    0.88000000    3.01999998
   16.98416710  162.43800354    0.88000000    3.01999998
   16.98750114  161.40800476    0.88000000    3.01999998
   16.99055672  157.40699768    0.88000000    3.01999998
   16.99388885  177.07000732    0.88000000    3.01999998
   16.99444389  180.78999329    0.88000000    3.01999998
   16.99749947  195.22700500    0.88000000    3.01999998
   17.00083351  173.62300110    0.88000000    3.01999998
   17.00416756  186.62100220    0.88000000    3.01999998
   17.00722313  179.76499939    0.88000000    3.01999998
   17.01055527  176.11999512    0.88000000    3.01999998
   17.01499939  176.11999512    0.88000000    3.01999998
   17.01916695  166.22200012    0.88000000    3.01999998
   17.02249908  168.40299988    0.88000000    3.01999998
   17.02555466  163.17199707    0.88000000    3.01999998
   17.02888870  169.14500427    0.88000000    3.01999998
   17.03222275  154.94000244    0.88000000    3.01999998
   17.03527641  164.32499695    0.88000000    3.01999998
   17.03861046  169.71099854    0.88000000    3.01999998
   17.04194450  152.53100586    0.88000000    3.01999998
   17.04444313  146.64900208    0.88000000    3.01999998
   17.04583359  128.77699280    0.88000000    3.01999998
   17.04888916  144.09599304    0.88000000    3.01999998
   17.05222130  150.37199402    0.88000000    3.01999998
   17.05527687  161.77699280    0.88000000    3.01999998
   17.05861092  165.73300171    0.88000000    3.01999998
   17.06194305  167.14300537    0.88000000    3.01999998
   17.06638718  167.14300537    0.88000000    3.01999998
   17.07027817  154.61599731    0.88000000    3.01999998
   17.07361221  152.70599365    0.88000000    3.01999998
   17.07694626  126.00199890    0.88000000    3.01999998
   17.08000183  158.94700623    0.88000000    3.01999998
   17.08333397  145.45100403    0.88000000    3.01999998
   17.08666801  147.64100647    0.88000000    3.01999998
   17.08972359  154.24699402    0.88000000    3.01999998
   17.09305573  166.88400269    0.88000000    3.01999998
   17.09444427  146.68400574    0.88000000    3.01999998
   17.09666824  155.57600403    0.88000000    3.01999998
   17.09972191  140.58999634    0.88000000    3.01999998
   17.10305595  155.16799927    0.88000000    3.01999998
   17.10639000  142.96699524    0.88000000    3.01999998
   17.10944557  151.04699707    0.88000000    3.01999998
   17.11277771  134.08299255    0.88000000    3.01999998
   17.11750031  134.08299255    0.88000000    3.01999998
   17.12166595  142.01100159    0.88000000    3.01999998
   17.12500000  123.83499908    0.88000000    3.01999998
   17.12805557  133.03700256    0.88000000    3.01999998
   17.13138962  145.82299805    0.88000000    3.01999998
   17.13472176  140.03500366    0.88000000    3.01999998
   17.13777733  129.83000183    0.88000000    3.01999998
   17.14111137  140.61700439    0.88000000    3.01999998
   17.14416695  145.18699646    0.88000000    3.01999998
   17.14472198  136.55799866    0.88000000    3.01999998
   17.14805603  137.69000244    0.88000000    3.01999998
   17.15138817  140.39999390    0.88000000    3.01999998
   17.15444374  136.16200256    0.88000000    3.01999998
   17.15777779  148.00500488    0.88000000    3.01999998
   17.16083336  168.50500488    0.88000000    3.01999998
   17.16416550  156.78999329    0.88000000    3.01999998
   17.16860962  156.78999329    0.88000000    3.01999998
   17.17277718  160.27099609    0.88000000    3.01999998
   17.17611122  148.47399902    0.88000000    3.01999998
   17.17944336  158.63699341    0.88000000    3.01999998
   17.18249893  177.76899719    0.88000000    3.01999998
   17.18583298  165.00700378    0.88000000    3.01999998
   17.18888855  155.67700195    0.88000000    3.01999998
   17.19222069  158.50000000    0.88000000    3.01999998
   17.20916748  136.66600037    0.88000000    3.01999998
   17.21222305  140.85000610    0.88000000    3.01999998
   17.21555710  141.75300598    0.88000000    3.01999998
   17.22000122  141.75300598    0.88000000    3.01999998
   17.22416687  150.39199829    0.88000000    3.01999998
   17.22750092  151.99299622    0.88000000    3.01999998
   17.23083305  151.13699341    0.88000000    3.01999998
   17.23388863  153.16700745    0.88000000    3.01999998
   17.23722267  167.43299866    0.88000000    3.01999998
   17.24027824  160.34199524    0.88000000    3.01999998
   17.24361229  154.87800598    0.88000000    3.01999998
   17.24694443  144.98300171    0.88000000    3.01999998
   17.25000000  158.64500427    0.88000000    3.01999998
   17.25333405  148.76699829    0.88000000    3.01999998
   17.25666618  145.78100586    0.88000000    3.01999998
   17.25916672  166.60299683    0.88000000    3.01999998
   17.26027870  134.61900330    0.88000000    3.01999998
   17.26333427  150.38900757    0.88000000    3.01999998
   17.26666641  145.62500000    0.88000000    3.01999998
   17.27138901  145.62500000    0.88000000    3.01999998
   17.27555466  169.08799744    0.88000000    3.01999998
   17.27861023  151.69400024    0.88000000    3.01999998
   17.28194427  153.95100403    0.88000000    3.01999998
   17.28527641  160.08999634    0.88000000    3.01999998
   17.28833199  150.05799866    0.88000000    3.01999998
   17.29166603  143.51400757    0.88000000    3.01999998
   17.29500008  160.94500732    0.88000000    3.01999998
   17.29805565  162.87399292    0.88000000    3.01999998
   17.30138779  163.08799744    0.88000000    3.01999998
   17.30444336  153.51499939    0.88000000    3.01999998
   17.30777740  145.86099243    0.88000000    3.01999998
   17.30916595  152.73800659    0.88000000    3.01999998
   17.31138802  147.56599426    0.88000000    3.01999998
   17.31472206  144.46499634    0.88000000    3.01999998
   17.31777954  150.67900085    0.88000000    3.01999998
   17.32250023  150.67900085    0.88000000    3.01999998
   17.32666779  164.03700256    0.88000000    3.01999998
   17.32972336  143.35699463    0.88000000    3.01999998
   17.33305550  152.16999817    0.88000000    3.01999998
   17.33638954  160.17100525    0.88000000    3.01999998
   17.33944511  163.11599731    0.88000000    3.01999998
   17.34277916  160.35200500    0.88000000    3.01999998
   17.34611130  175.87699890    0.88000000    3.01999998
   17.34916687  136.17799377    0.88000000    3.01999998
   17.35250092  171.66799927    0.88000000    3.01999998
   17.35583305  140.34300232    0.88000000    3.01999998
   17.35888863  156.32200623    0.88000000    3.01999998
   17.35944557  158.17399597    0.88000000    3.01999998
   17.36277771  159.79299927    0.88000000    3.01999998
   17.36583328  164.91099548    0.88000000    3.01999998
   17.36916733  165.19500732    0.88000000    3.01999998
   17.37361145  165.19500732    0.88000000    3.01999998
   17.37777710  164.27299500    0.88000000    3.01999998
   17.38111115  161.82699585    0.88000000    3.01999998
   17.38416672  165.46400452    0.88000000    3.01999998
   17.38750076  169.06199646    0.88000000    3.01999998
   17.39055634  175.27400208    0.88000000    3.01999998
   17.39388847  138.99400330    0.88000000    3.01999998
   17.39722252  139.20300293    0.88000000    3.01999998
   17.40027809  158.26300049    0.88000000    3.01999998
   17.40361023  147.57200623    0.88000000    3.01999998
   17.40694427  148.62800598    0.88000000    3.01999998
   17.40944481  143.03399658    0.88000000    3.01999998
   17.41055489  127.82399750    0.88000000    3.01999998
   17.41361046  144.05499268    0.88000000    3.01999998
   17.41694450  151.03700256    0.88000000    3.01999998
   17.42027664  159.63000488    0.88000000    3.01999998
   17.42472076  159.63000488    0.88000000    3.01999998
   17.42888832  160.25399780    0.88000000    3.01999998
   17.43222237  140.41499329    0.88000000    3.01999998
   17.43527603  124.63800049    0.88000000    3.01999998
   17.43861008  133.81500244    0.88000000    3.01999998
   17.44194412  143.21099854    0.88000000    3.01999998
   17.44499969  129.12199402    0.88000000    3.01999998
   17.44833183  153.72099304    0.88000000    3.01999998
   17.45166779  142.81599426    0.88000000    3.01999998
   17.45472336  137.10800171    0.88000000    3.01999998
   17.45805550  126.79000092    0.88000000    3.01999998
   17.45944595  139.94400024    0.88000000    3.01999998
   17.46166801  134.21400452    0.88000000    3.01999998
   17.46472359  156.66600037    0.88000000    3.01999998
   17.46805573  150.62300110    0.88000000    3.01999998
   17.47138977  137.60099792    0.88000000    3.01999998
   17.47611237  137.60099792    0.88000000    3.01999998
   17.48000145  153.63299561    0.88000000    3.01999998
   17.48333359  151.60299683    0.88000000    3.01999998
   17.48666763  127.20500183    0.88000000    3.01999998
   17.48972321  135.22799683    0.88000000    3.01999998
   17.49305534  140.73800659    0.88000000    3.01999998
   17.49638939  155.83900452    0.88000000    3.01999998
   17.49944496  136.77099609    0.88000000    3.01999998
   17.50277710  147.18499756    0.88000000    3.01999998
   17.50583267  155.78999329    0.88000000    3.01999998
   17.50916672  137.53799438    0.88000000    3.01999998
   17.50972176  139.89399719    0.88000000    3.01999998
   17.51305580  134.23100281    0.88000000    3.01999998
   17.51611137  139.09199524    0.88000000    3.01999998
   17.51944351  145.58500671    0.88000000    3.01999998
   17.52277756  141.49899292    0.88000000    3.01999998
   17.52722168  141.49899292    0.88000000    3.01999998
   17.53138924  149.05700684    0.88000000    3.01999998
   17.53444481  135.19099426    0.88000000    3.01999998
   17.53777695   98.91799927    0.88000000    3.01999998
   17.54111099  140.88499451    0.88000000    3.01999998
   17.54416656  142.35899353    0.88000000    3.01999998
   17.54749870  138.76300049    0.88000000    3.01999998
   17.55055428  153.36799622    0.88000000    3.01999998
   17.55388832  134.00500488    0.88000000    3.01999998
   17.55722237  138.85299683    0.88000000    3.01999998
   17.55972099  135.73699951    0.88000000    3.01999998
   17.56083298  145.03399658    0.88000000    3.01999998
   17.56388855  140.92300415    0.88000000    3.01999998
   17.56722260  152.44099426    0.88000000    3.01999998
   17.57055664  148.37699890    0.88000000    3.01999998
   17.57361221  152.34800720    0.88000000    3.01999998
   17.57833481  152.34800720    0.88000000    3.01999998
   17.58250046  128.58799744    0.88000000    3.01999998
   17.58583450  142.17799377    0.88000000    3.01999998
   17.58889008  139.22500610    0.88000000    3.01999998
   17.59222221  139.64300537    0.88000000    3.01999998
   17.59527779  126.95800018    0.88000000    3.01999998
   17.59861183  129.67799377    0.88000000    3.01999998
   17.60194397  130.80799866    0.88000000    3.01999998
   17.60499954  125.83399963    0.88000000    3.01999998
   17.60833359  133.41000366    0.88000000    3.01999998
   17.60972214  126.66999817    0.88000000    3.01999998
   17.61194420  124.77899933    0.88000000    3.01999998
   17.61527824  141.73199463    0.88000000    3.01999998
   17.61833382  134.28599548    0.88000000    3.01999998
   17.62166595  123.47599792    0.88000000    3.01999998
   17.62472153  128.98199463    0.88000000    3.01999998
   17.62944412  128.98199463    0.88000000    3.01999998
   17.63361168  146.29600525    0.88000000    3.01999998
   17.63694382  142.06599426    0.88000000    3.01999998
   17.63999939  143.98300171    0.88000000    3.01999998
   17.64333344  139.75000000    0.88000000    3.01999998
   17.64666748  136.21899414    0.88000000    3.01999998
   17.64972115  134.05900574    0.88000000    3.01999998
   17.65305519  103.21700287    0.88000000    3.01999998
   17.65638924  122.70200348    0.88000000    3.01999998
   17.65944481  124.36399841    0.88000000    3.01999998
   17.65999985  112.36799622    0.88000000    3.01999998
   17.66333389  109.68399811    0.88000000    3.01999998
   17.66638756  127.10500336    0.88000000    3.01999998
   17.66972160  119.84999847    0.88000000    3.01999998
   17.67305565  144.07600403    0.88000000    3.01999998
   17.67611122  126.75800323    0.88000000    3.01999998
   17.68083191  126.75800323    0.88000000    3.01999998
   17.68472099  155.46400452    0.88000000    3.01999998
   17.68805504  155.62100220    0.88000000    3.01999998
   17.69138718  122.06400299    0.88000000    3.01999998
   17.69444275  126.77899933    0.88000000    3.01999998
   17.69777679  136.27799988    0.88000000    3.01999998
   17.70111275  136.27699280    0.88000000    3.01999998
   17.70416832  108.48300171    0.88000000    3.01999998
   17.70750046  137.60200500    0.88000000    3.01999998
   17.71000099  139.08500671    0.88000000    3.01999998
   17.71111107  140.70700073    0.88000000    3.01999998
   17.71444511  132.06700134    0.88000000    3.01999998
   17.71750069  123.42099762    0.88000000    3.01999998
   17.72083473  138.79100037    0.88000000    3.01999998
   17.72389030  144.95199585    0.88000000    3.01999998
   17.72722244  139.17399597    0.88000000    3.01999998
   17.73194504  139.17399597    0.88000000    3.01999998
   17.73611069  131.86799622    0.88000000    3.01999998
   17.73916626  139.22399902    0.88000000    3.01999998
   17.74250031  138.57699585    0.88000000    3.01999998
   17.74583435  146.71299744    0.88000000    3.01999998
   17.74888992  128.52400208    0.88000000    3.01999998
   17.75222206  127.90799713    0.88000000    3.01999998
   17.75527763  121.04499817    0.88000000    3.01999998
   17.75861168  145.07000732    0.88000000    3.01999998
   17.76000023  144.85800171    0.88000000    3.01999998
   17.76222229  153.02799988    0.88000000    3.01999998
   17.76555634  148.65400696    0.88000000    3.01999998
   17.76861000  135.78999329    0.88000000    3.01999998
   17.77194405  134.54800415    0.88000000    3.01999998
   17.77499962  127.18900299    0.88000000    3.01999998
   17.77833366  127.12799835    0.88000000    3.01999998
   17.78305435  127.12799835    0.88000000    3.01999998
   17.78722191  147.37399292    0.88000000    3.01999998
   17.79055595  138.38499451    0.88000000    3.01999998
   17.79361153  130.39799500    0.88000000    3.01999998
   17.79694366  124.25299835    0.88000000    3.01999998
   17.79999924  100.43299866    0.88000000    3.01999998
   17.80333328  102.48799896    0.88000000    3.01999998
   17.80666542  109.15399933    0.88000000    3.01999998
   17.80972099  113.93199921    0.88000000    3.01999998
   17.81027794   84.20490265    0.88000000    3.01999998
