    HOUR (UT)   FLARE FACTOR    SKY TESTER    SUN TESTER
   11.18555546   -1.00000000   -1.00000000   -1.00000000
   11.22083282   80.68859863    4.90999985    2.46000004
   11.22666645   82.58149719    4.90999985    2.46000004
   11.22972202   82.54959869    4.90999985    2.46000004
   11.23305511   86.09819794    4.90999985    2.44000006
   11.23611164   77.99549866    4.90999985    2.48000002
   11.23944473   80.60410309    4.90999985    2.46000004
   11.24277782   79.65419769    4.90999985    2.46000004
   11.24583340   78.84069824    4.90999985    2.48000002
   11.24916649   75.56990051    4.90999985    2.46000004
   11.25222206   77.25820160    4.90999985    2.46000004
   11.25416660   78.27989960    4.90999985    2.46000004
   11.25583363   82.40760040    4.90999985    2.44000006
   11.25916672   80.59120178    4.90999985    2.46000004
   11.26222229   82.10070038    4.90999985    2.46000004
   11.26555538   78.09519958    4.90999985    2.44000006
   11.26888847   81.48100281    4.90999985    2.44000006
   11.27194405   80.40419769    4.90999985    2.44000006
   11.27527714   77.65319824    4.90999985    2.46000004
   11.27833271   79.14019775    4.90999985    2.46000004
   11.28166676   76.68430328    4.90999985    2.46000004
   11.28472233   78.05840302    4.90999985    2.46000004
   11.28750038   80.14399719    4.90999985    2.46000004
   11.28833389   79.09110260    4.90999985    2.46000004
   11.29166698   79.71749878    4.90999985    2.46000004
   11.29472256   79.73190308    4.90999985    2.46000004
   11.29805565   80.00479889    4.90999985    2.46000004
   11.30138874   79.41320038    4.90999985    2.46000004
   11.30444431   81.01679993    4.90999985    2.46000004
   11.30777836   79.34660339    4.90999985    2.46000004
   11.31083393   77.61360168    4.90999985    2.46000004
   11.31416702   79.70240021    4.90999985    2.46000004
   11.31722260   78.73690033    4.90999985    2.48000002
   11.32055569   78.81780243    4.90999985    2.46000004
   11.32111073   80.02570343    4.90999985    2.46000004
   11.32416630   81.11759949    4.90999985    2.46000004
   11.32750034   79.67240143    4.90999985    2.48000002
   11.33083344   77.49130249    4.90999985    2.48000002
   11.33388901   86.05889893    4.90999985    2.48000002
   11.33722210   79.32129669    4.90999985    2.48000002
   11.34027767   76.14679718    4.90999985    2.48000002
   11.34361076   77.32599640    4.90999985    2.50000000
   11.34694386   81.99859619    4.90999985    2.48000002
   11.35000038   84.15619659    4.90999985    2.50000000
   11.35333347   82.29989624    4.90999985    2.50000000
   11.35444450   81.30329895    4.90999985    2.48000002
   11.35694504   81.96690369    4.90999985    2.50000000
   11.36000061   79.94110107    4.90999985    2.50000000
   11.36333370   78.30069733    4.90999985    2.50000000
   11.36638927   82.98449707    4.90999985    2.48000002
   11.36972237   77.54219818    4.90999985    2.48000002
   11.37305546   81.16999817    4.90999985    2.48000002
   11.37611103   76.24449921    4.90999985    2.48000002
   11.37944412   78.10009766    4.90999985    2.48000002
   11.38249969   76.64209747    4.90999985    2.48000002
   11.38583279   77.68740082    4.90999985    2.48000002
   11.38777733   79.03260040    4.90999985    2.50000000
   11.38944435   75.33249664    4.90999985    2.50000000
   11.39249992   75.30950165    4.90999985    2.50000000
   11.39583302   79.78700256    4.90999985    2.50000000
   11.39888859   78.29380035    4.90999985    2.51999998
   11.40222168   77.58789825    4.90999985    2.50000000
   11.40527725   75.87429810    4.90999985    2.51999998
   11.40861034   78.14649963    4.90999985    2.50000000
   11.41194439   80.87750244    4.90999985    2.51999998
   11.41499996   77.94390106    4.90999985    2.51999998
   11.41833401   77.38179779    4.90999985    2.50000000
   11.42111111   77.52050018    4.90999985    2.50000000
   11.42194462   77.40499878    4.90999985    2.50000000
   11.42500019   80.05500031    4.90999985    2.50000000
   11.42833328   80.95829773    4.90999985    2.51999998
   11.43166733   78.36199951    4.90999985    2.48000002
   11.43472195   79.52670288    4.90999985    2.48000002
   11.43805599   78.11579895    4.90999985    2.50000000
   11.44111156   81.39610291    4.90999985    2.50000000
   11.44444466   79.45020294    4.90999985    2.50000000
   11.44750023   80.63430023    4.90999985    2.51999998
   11.45083332   79.85659790    4.90999985    2.48000002
   11.45416641   77.18650055    4.90999985    2.50000000
   11.45472240   81.10729980    4.90999985    2.50000000
   11.45749950   79.78170013    4.90999985    2.50000000
   11.46083355   78.96600342    4.90999985    2.51999998
   11.46388912   79.32769775    4.90999985    2.50000000
   11.46722221   77.98509979    4.90999985    2.50000000
   11.47055531   77.58100128    4.90999985    2.51999998
   11.47361088   77.17769623    4.90999985    2.50000000
   11.47694397   76.60289764    4.90999985    2.51999998
   11.47999954   77.93840027    4.90999985    2.51999998
   11.48333359   79.12069702    4.90999985    2.51999998
   11.48638916   76.91490173    4.90999985    2.51999998
   11.48805618   82.38829803    4.90999985    2.50000000
   11.49000072   76.54290009    4.90999985    2.50000000
   11.49333382   79.05039978    4.90999985    2.50000000
   11.49638939   79.70069885    4.90999985    2.53999996
   11.49972248   84.91999817    4.90999985    2.51999998
   11.50305557   83.02519989    4.90999985    2.51999998
   11.50611115   78.29100037    4.90999985    2.51999998
   11.50944424   78.99990082    4.90999985    2.51999998
   11.51249981   78.59519958    4.90999985    2.51999998
   11.51583290   76.90869904    4.90999985    2.51999998
   11.51916599   82.68959808    4.90999985    2.51999998
   11.52111053   79.27249908    4.90999985    2.50000000
   11.52277756   80.57920074    4.90999985    2.51999998
   11.52611065   77.41010284    4.90999985    2.53999996
   11.52916622   77.20829773    4.90999985    2.53999996
   11.53249931   77.81749725    4.90999985    2.51999998
   11.53555584   80.22830200    4.90999985    2.51999998
   11.53888893   79.59760284    4.90999985    2.53999996
   11.54222298   80.55039978    4.90999985    2.51999998
   11.54527855   81.17209625    4.90999985    2.51999998
   11.54861164   83.00620270    4.90999985    2.53999996
   11.55166721   86.60289764    4.90999985    2.51999998
   11.55472279   77.75659943    4.90999985    2.53999996
   11.55527782   80.98940277    4.90999985    2.53999996
   11.55861092   77.06749725    4.90999985    2.53999996
   11.56166649   78.79689789    4.90999985    2.51999998
   11.56500053   81.13089752    4.90999985    2.53999996
   11.56833363   74.98650360    4.90999985    2.51999998
   11.57138920   77.32499695    4.90999985    2.51999998
   11.57472229   78.71189880    4.90999985    2.51999998
   11.57777786   81.52590179    4.90999985    2.53999996
   11.58111095   77.11769867    4.90999985    2.53999996
   11.58416653   77.69650269    4.90999985    2.53999996
   11.58749962   79.57350159    4.90999985    2.55999994
   11.58805561   80.39129639    4.90999985    2.55999994
   11.59111118   80.04190063    4.90999985    2.53999996
   11.59416676   78.04029846    4.90999985    2.53999996
   11.59749985   81.61260223    4.90999985    2.55999994
   11.60055637   76.43920135    4.90999985    2.53999996
   11.60388947   79.29389954    4.90999985    2.55999994
   11.60694504   80.02719879    4.90999985    2.57999992
   11.61027813   75.27709961    4.90999985    2.55999994
   11.61361122   78.09829712    4.90999985    2.53999996
   11.61666679   75.60299683    4.90999985    2.55999994
   11.61999989   76.44909668    4.90999985    2.55999994
   11.62138939   74.74780273    4.90999985    2.55999994
   11.62361145   76.10859680    4.90999985    2.53999996
   11.62666702   78.72029877    4.90999985    2.55999994
   11.63000011   78.85679626    4.90999985    2.53999996
   11.63333321   81.92199707    4.90999985    2.55999994
   11.63638878   76.83679962    4.90999985    2.55999994
   11.63972187   81.00610352    4.90999985    2.55999994
   11.64277744   76.76239777    4.90999985    2.53999996
   11.64611053   77.61710358    4.90999985    2.55999994
   11.64944458   76.93530273    4.90999985    2.55999994
   11.65249920   81.58149719    4.90999985    2.55999994
   11.65472221   77.20839691    4.90999985    2.53999996
   11.65611076   79.63990021    4.90999985    2.53999996
   11.65916634   80.13549805    4.90999985    2.53999996
   11.66249943   83.28450012    4.90999985    2.53999996
   11.66583252   79.31410217    4.90999985    2.53999996
   11.66888905   82.22910309    4.90999985    2.55999994
   11.67222214   78.67479706    4.90999985    2.55999994
   11.67527771   81.87930298    4.90999985    2.55999994
   11.67861176   82.81639862    4.90999985    2.55999994
   11.68194485   80.84780121    4.90999985    2.55999994
   11.68500042   76.56169891    4.90999985    2.55999994
   11.68805599   82.13459778    4.90999985    2.55999994
   11.68861103   80.22039795    4.90999985    2.55999994
   11.69166660   78.72689819    4.90999985    2.55999994
   11.69499969   79.18060303    4.90999985    2.57999992
   11.69833374   79.80120087    4.90999985    2.55999994
   11.70138836   77.50800323    4.90999985    2.55999994
   11.70472240   77.76869965    4.90999985    2.57999992
   11.70805550   82.20149994    4.90999985    2.53999996
   11.71111107   83.37799835    4.90999985    2.55999994
   11.71444416   80.17829895    4.90999985    2.57999992
   11.71749973   77.78510284    4.90999985    2.57999992
   11.72083282   78.56639862    4.90999985    2.55999994
   11.72138882   82.67890167    4.90999985    2.55999994
   11.72444439   79.29570007    4.90999985    2.55999994
   11.72749996   78.40249634    4.90999985    2.57999992
   11.73083305   80.52829742    4.90999985    2.57999992
   11.73416710   79.26879883    4.90999985    2.57999992
   11.73722267   80.14720154    4.90999985    2.57999992
   11.74055576   79.89900208    4.90999985    2.57999992
   11.74361134   80.12449646    4.90999985    2.57999992
   11.74694443   79.03220367    4.90999985    2.55999994
   11.75027752   76.13439941    4.90999985    2.57999992
   11.75333309   78.65920258    4.90999985    2.57999992
   11.75472260   79.62149811    4.90999985    2.57999992
   11.75694466   76.72820282    4.90999985    2.57999992
   11.76000023   79.80449677    4.90999985    2.57999992
   11.76333332   76.07019806    4.90999985    2.57999992
   11.76666641   82.49929810    4.90999985    2.57999992
   11.76972198   77.83059692    4.90999985    2.57999992
   11.77305508   82.19979858    4.90999985    2.57999992
   11.77611065   80.82900238    4.90999985    2.57999992
   11.77944374   76.89179993    4.90999985    2.57999992
   11.78249931   77.47419739    4.90999985    2.57999992
   11.78583336   77.01280212    4.90999985    2.57999992
   11.78805637   77.77140045    4.90999985    2.59999990
   11.78944492   78.02500153    4.90999985    2.57999992
   11.79277802   77.96959686    4.90999985    2.57999992
   11.79583359   81.09069824    4.90999985    2.57999992
   11.79916668   77.63950348    4.90999985    2.57999992
   11.80222225   80.74590302    4.90999985    2.59999990
   11.80555534   77.09140015    4.90999985    2.59999990
   11.80861092   78.25920105    4.90999985    2.57999992
   11.81194496   78.95320129    4.90999985    2.57999992
   11.81527805   79.15139771    4.90999985    2.59999990
   11.81833363   74.52110291    4.90999985    2.57999992
   11.82138920   77.27600098    4.90999985    2.59999990
   11.82194424   76.39929962    4.90999985    2.59999990
   11.82527733   81.11620331    4.90999985    2.59999990
   11.82833290   77.15450287    4.90999985    2.59999990
   11.83166695   77.83910370    4.90999985    2.59999990
   11.83472157   75.76529694    4.90999985    2.57999992
   11.83805561   76.46949768    4.90999985    2.59999990
   11.84111118   76.79039764    4.90999985    2.59999990
   11.84444427   77.40219879    4.90999985    2.59999990
   11.84777737   76.47989655    4.90999985    2.59999990
   11.85083389   79.63760376    4.90999985    2.59999990
   11.85416698   80.56140137    4.90999985    2.59999990
   11.85472298   77.93450165    4.90999985    2.59999990
   11.85777855   78.88320160    4.90999985    2.59999990
   11.86083412   76.53790283    4.90999985    2.59999990
   11.86416721   76.10939789    4.90999985    2.59999990
   11.86750031   74.91000366    4.90999985    2.59999990
   11.87055588   79.40579987    4.90999985    2.59999990
   11.87388897   74.67250061    4.90999985    2.59999990
   11.87694454   75.76540375    4.90999985    2.59999990
   11.88027763   77.12809753    4.90999985    2.61999989
   11.88333321   76.56459808    4.90999985    2.61999989
   11.88666630   74.02089691    4.90999985    2.61999989
   11.88805580   76.25859833    4.90999985    2.59999990
   11.89027786   74.20970154    4.90999985    2.61999989
   11.89333344   75.00430298    4.90999985    2.61999989
   11.89666653   80.56069946    4.90999985    2.61999989
   11.89999962   77.30629730    4.90999985    2.61999989
   11.90305519   77.09420013    4.90999985    2.59999990
   11.90638828   76.44899750    4.90999985    2.61999989
   11.90944386   77.77529907    4.90999985    2.59999990
   11.91277695   75.26709747    4.90999985    2.61999989
   11.91611099   75.83630371    4.90999985    2.59999990
   11.91916656   75.02390289    4.90999985    2.61999989
   11.92138958   74.42099762    4.90999985    2.61999989
   11.92277813   72.75450134    4.90999985    2.59999990
   11.92583370   79.86309814    4.90999985    2.61999989
   11.92916679   78.06179810    4.90999985    2.61999989
   11.93249989   79.98220062    4.90999985    2.61999989
   11.93555546   79.21140289    4.90999985    2.61999989
   11.93888855   77.88379669    4.90999985    2.61999989
   11.94194412   77.75869751    4.90999985    2.61999989
   11.94527817   76.30930328    4.90999985    2.61999989
   11.94833374   76.29429626    4.90999985    2.61999989
   11.95166683   74.93450165    4.90999985    2.64000010
   11.95472240   77.29759979    4.90999985    2.61999989
   11.95527744   75.15679932    4.90999985    2.61999989
   11.95861053   77.34220123    4.90999985    2.64000010
   11.96166611   76.37590027    4.90999985    2.61999989
   11.96500015   76.26959991    4.90999985    2.64000010
   11.96805477   73.35990143    4.90999985    2.61999989
   11.97138882   78.50070190    4.90999985    2.64000010
   11.97444439   76.73650360    4.90999985    2.61999989
   11.97777748   76.79599762    4.90999985    2.61999989
   11.98111057   77.05110168    4.90999985    2.61999989
   11.98416710   75.43219757    4.90999985    2.61999989
   11.98750019   74.24379730    4.90999985    2.61999989
   11.98805618   76.66049957    4.90999985    2.61999989
   11.99111176   77.48429871    4.90999985    2.61999989
   11.99444485   78.37629700    4.90999985    2.61999989
   11.99750042   79.92310333    4.90999985    2.59999990
   12.00083351   75.63169861    4.90999985    2.59999990
   12.00388908   77.72480011    4.90999985    2.61999989
   12.00722218   78.05870056    4.90999985    2.59999990
   12.01027775   76.05480194    4.90999985    2.61999989
   12.01361084   76.48000336    4.90999985    2.61999989
   12.01666641   77.02140045    4.90999985    2.61999989
   12.01999950   78.45680237    4.90999985    2.64000010
   12.02138901   74.04190063    4.90999985    2.59999990
   12.02361107   75.73629761    4.90999985    2.61999989
   12.02694416   79.34549713    4.90999985    2.61999989
   12.02999973   78.36090088    4.90999985    2.61999989
   12.03333378   76.76470184    4.90999985    2.61999989
   12.03638935   76.71589661    4.90999985    2.64000010
   12.03972244   74.60700226    4.90999985    2.61999989
   12.04305553   76.39759827    4.90999985    2.61999989
   12.04611111   77.61519623    4.90999985    2.61999989
   12.04944515   76.59359741    4.90999985    2.61999989
   12.05249977   77.28579712    4.90999985    2.64000010
   12.05472279   80.38899994    4.90999985    2.64000010
   12.05611134   74.04730225    4.90999985    2.64000010
   12.05944443   76.44259644    4.90999985    2.64000010
   12.06250000   77.00319672    4.90999985    2.64000010
   12.06583309   77.54599762    4.90999985    2.64000010
   12.06888866   76.00669861    4.90999985    2.64000010
   12.07222176   75.43509674    4.90999985    2.64000010
   12.07555580   77.49199677    4.90999985    2.64000010
   12.07861137   74.27130127    4.90999985    2.64000010
   12.08194447   77.58149719    4.90999985    2.61999989
   12.08500004   76.06620026    4.90999985    2.64000010
   12.08805561   75.87159729    4.90999985    2.64000010
   12.08861065   75.85359955    4.90999985    2.64000010
   12.09194374   68.87449646    4.90999985    2.64000010
   12.09499931   76.06559753    4.90999985    2.64000010
   12.09833336   78.25910187    4.90999985    2.64000010
   12.10138893   77.40699768    4.90999985    2.64000010
   12.10472298   78.31580353    4.90999985    2.64000010
   12.10805607   78.54440308    4.90999985    2.64000010
   12.11111164   79.17739868    4.90999985    2.66000009
   12.11444473   76.36329651    4.90999985    2.64000010
   12.11750031   79.78919983    4.90999985    2.64000010
   12.12083340   74.75759888    4.90999985    2.64000010
   12.12138939   78.65000153    4.90999985    2.61999989
   12.12444496   81.62709808    4.90999985    2.64000010
   12.12777805   79.36289978    4.90999985    2.61999989
   12.13083363   77.80760193    4.90999985    2.64000010
   12.13416672   81.41300201    4.90999985    2.66000009
   12.13722229   76.82530212    4.90999985    2.64000010
   12.14055538   80.54290009    4.90999985    2.66000009
   12.14388847   74.18630219    4.90999985    2.64000010
   12.14694405   75.62030029    4.90999985    2.64000010
   12.15027714   77.10389709    4.90999985    2.64000010
   12.15333271   79.09960175    4.90999985    2.64000010
   12.15472221   77.90489960    4.90999985    2.66000009
   12.15694427   77.44000244    4.90999985    2.66000009
   12.16027737   78.90660095    4.90999985    2.66000009
   12.16333294   82.91670227    4.90999985    2.66000009
   12.16666698   77.83760071    4.90999985    2.64000010
   12.16972256   77.60749817    4.90999985    2.64000010
   12.17305565   78.46230316    4.90999985    2.67000008
   12.17611122   78.51380157    4.90999985    2.67000008
   12.17944431   80.25930023    4.90999985    2.64000010
   12.18277836   79.60980225    4.90999985    2.66000009
   12.18583298   77.09549713    4.90999985    2.66000009
   12.18833351   76.67800140    4.90999985    2.66000009
   12.18944454   76.41940308    4.90999985    2.64000010
   12.19277763   78.95030212    4.90999985    2.66000009
   12.19583321   78.42400360    4.90999985    2.66000009
   12.19916630   78.53150177    4.90999985    2.67000008
   12.20222187   77.33049774    4.90999985    2.66000009
   12.20555496   80.25260162    4.90999985    2.66000009
   12.20888901   77.25060272    4.90999985    2.67000008
   12.21194458   78.45169830    4.90999985    2.67000008
   12.21527767   78.66539764    4.90999985    2.66000009
   12.21833324   75.32939911    4.90999985    2.67000008
   12.23750019   75.67720032    4.90999985    2.67000008
   12.23805618   73.94869995    4.90999985    2.67000008
   12.24138927   74.90550232    4.90999985    2.67000008
   12.24444485   76.24590302    4.90999985    2.67000008
   12.24777794   78.76779938    4.90999985    2.66000009
   12.25111103   80.80760193    4.90999985    2.67000008
   12.25416660   78.13649750    4.90999985    2.66000009
   12.25749969   78.61239624    4.90999985    2.66000009
   12.26055527   77.56079865    4.90999985    2.67000008
   12.26388931   79.19080353    4.90999985    2.66000009
   12.26722240   77.12100220    4.90999985    2.66000009
   12.27027798   76.94539642    4.90999985    2.66000009
   12.27083302   79.93859863    4.90999985    2.66000009
   12.27416611   78.04910278    4.90999985    2.66000009
   12.27722168   74.98619843    4.90999985    2.67000008
   12.28055573   77.50839996    4.90999985    2.67000008
   12.28361130   78.99939728    4.90999985    2.66000009
   12.28694534   76.48229980    4.90999985    2.66000009
   12.29000092   77.52799988    4.90999985    2.66000009
   12.29333401   79.63500214    4.90999985    2.67000008
   12.29666710   76.09320068    4.90999985    2.66000009
   12.29972267   75.67870331    4.90999985    2.67000008
   12.30305576   80.16010284    4.90999985    2.67000008
   12.30416679   78.13849640    4.90999985    2.66000009
   12.30666733   77.22859955    4.90999985    2.67000008
   12.30972195   76.20300293    4.90999985    2.67000008
   12.31305599   75.97319794    4.90999985    2.67000008
   12.31638908   75.31670380    4.90999985    2.67000008
   12.31944466   77.71260071    4.90999985    2.67000008
   12.32277775   80.51110077    4.90999985    2.67000008
   12.32583332   77.58070374    4.90999985    2.67000008
   12.32916641   78.78019714    4.90999985    2.67000008
   12.33249950   81.97219849    4.90999985    2.67000008
   12.33555508   78.49069977    4.90999985    2.67000008
   12.33749962   76.99160004    4.90999985    2.67000008
   12.33916664   80.53720093    4.90999985    2.69000006
   12.34222221   82.30400085    4.90999985    2.67000008
   12.34555531   79.69010162    4.90999985    2.67000008
   12.34888840   79.84470367    4.90999985    2.67000008
   12.35194492   78.73809814    4.90999985    2.67000008
   12.35527802   81.42849731    4.90999985    2.67000008
   12.35833359   79.07769775    4.90999985    2.67000008
   12.36166668   80.89790344    4.90999985    2.67000008
   12.36472225   77.85910034    4.90999985    2.67000008
   12.36805534   78.34639740    4.90999985    2.67000008
   12.37083340   77.46569824    4.90999985    2.67000008
   12.37166691   78.29750061    4.90999985    2.67000008
   12.37500000   80.05989838    4.90999985    2.67000008
   12.37805557   85.39489746    4.90999985    2.67000008
   12.38138866   78.72209930    4.90999985    2.69000006
   12.38444424   80.47989655    4.90999985    2.69000006
   12.38777733   76.81089783    4.90999985    2.69000006
   12.39083290   77.21769714    4.90999985    2.67000008
   12.39416695   77.71410370    4.90999985    2.67000008
   12.39750004   77.66580200    4.90999985    2.69000006
   12.40055561   75.21469879    4.90999985    2.69000006
   12.40388870   78.89569855    4.90999985    2.69000006
   12.40444374   76.43630219    4.90999985    2.69000006
   12.40722179   75.06520081    4.90999985    2.67000008
   12.41055489   75.24790192    4.90999985    2.67000008
   12.41361046   75.29660034    4.90999985    2.67000008
   12.41694450   73.18569946    4.90999985    2.67000008
   12.42027855   72.42079926    4.90999985    2.67000008
   12.42333412   77.30509949    4.90999985    2.69000006
   12.42666721   78.56410217    4.90999985    2.69000006
   12.42972279   74.42220306    4.90999985    2.69000006
   12.43305588   80.39910126    4.90999985    2.69000006
   12.43611145   77.78209686    4.90999985    2.69000006
   12.43777752   77.51380157    4.90999985    2.69000006
   12.43972206   75.16349792    4.90999985    2.69000006
   12.44305515   77.52140045    4.90999985    2.69000006
   12.44611073   76.47450256    4.90999985    2.67000008
   12.44944477   77.36489868    4.90999985    2.69000006
   12.45249939   75.84359741    4.90999985    2.69000006
   12.45583344   79.20240021    4.90999985    2.69000006
   12.45916653   76.76550293    4.90999985    2.67000008
   12.46222210   78.34850311    4.90999985    2.69000006
   12.46555519   77.79229736    4.90999985    2.69000006
   12.46861076   75.04759979    4.90999985    2.69000006
   12.47111034   77.91210175    4.90999985    2.69000006
   12.47222137   81.38690186    4.90999985    2.69000006
   12.47555542   75.51309967    4.90999985    2.69000006
   12.47888851   77.75129700    4.90999985    2.69000006
   12.48194408   77.69390106    4.90999985    2.69000006
   12.48527813   79.19239807    4.90999985    2.69000006
   12.48833370   73.75859833    4.90999985    2.69000006
   12.49166679   76.88529968    4.90999985    2.71000004
   12.49472237   74.25779724    4.90999985    2.69000006
   12.49805546   75.32869720    4.90999985    2.71000004
   12.50138855   80.17620087    4.90999985    2.69000006
   12.50444412   76.76760101    4.90999985    2.69000006
   12.50472260   73.96350098    4.90999985    2.69000006
   12.50805569   77.18119812    4.90999985    2.69000006
   12.51138878   84.11779785    4.90999985    2.69000006
   12.51444435   82.88130188    4.90999985    2.69000006
   12.51777744   81.63870239    4.90999985    2.69000006
   12.52083302   75.32640076    4.90999985    2.71000004
   12.52416611   75.21279907    4.90999985    2.71000004
   12.52722168   76.33950043    4.90999985    2.71000004
   12.53055573   78.77290344    4.90999985    2.69000006
   12.53388977   75.67749786    4.90999985    2.69000006
   12.53694534   82.83860016    4.90999985    2.71000004
   12.53777790   80.36090088    4.90999985    2.71000004
   12.54055595   75.82170105    4.90999985    2.71000004
   12.54388905   76.11930084    4.90999985    2.69000006
   12.54722309   75.68009949    4.90999985    2.71000004
   12.55027771   75.17559814    4.90999985    2.71000004
   12.55361176   76.75420380    4.90999985    2.71000004
   12.55666733   78.36560059    4.90999985    2.71000004
   12.56000042   78.86270142    4.90999985    2.73000002
   12.56305599   76.16130066    4.90999985    2.71000004
   12.56638908   76.96369934    4.90999985    2.71000004
   12.56972218   76.46810150    4.90999985    2.71000004
   12.57111073   76.90740204    4.90999985    2.71000004
   12.57305527   74.06620026    4.90999985    2.71000004
   12.57638836   75.39710236    4.90999985    2.71000004
   12.57972240   80.61840057    4.90999985    2.71000004
   12.58277798   78.03130341    4.90999985    2.71000004
   12.58611107   79.98179626    4.90999985    2.71000004
   12.58916664   77.86550140    4.90999985    2.71000004
   12.59249973   81.69470215    4.90999985    2.71000004
   12.59555531   75.50520325    4.90999985    2.71000004
   12.59888840   74.98390198    4.90999985    2.71000004
   12.60222244   79.14270020    4.90999985    2.71000004
   12.60444450   73.47389984    4.90999985    2.71000004
   12.60555553   76.49949646    4.90999985    2.69000006
   12.60888958   81.12159729    4.90999985    2.71000004
   12.61222267   75.59329987    4.90999985    2.71000004
   12.61527824   88.00399780    4.90999985    2.69000006
   12.61861134   77.72280121    4.90999985    2.71000004
   12.62166691   78.00420380    4.90999985    2.71000004
   12.62500000   80.41600037    4.90999985    2.71000004
   12.62833309   75.35520172    4.90999985    2.71000004
   12.63138866   76.49469757    4.90999985    2.71000004
   12.63472176   76.13770294    4.90999985    2.71000004
   12.63777733   79.36820221    4.90999985    2.71000004
   12.63833332   73.60610199    4.90999985    2.71000004
   12.64166641   74.11979675    4.90999985    2.71000004
   12.64472198   81.51529694    4.90999985    2.73000002
   12.64805508   81.66510010    4.90999985    2.71000004
   12.65111065   78.69059753    4.90999985    2.73000002
   12.65444374   75.95659637    4.90999985    2.73000002
   12.65749931   80.34609985    4.90999985    2.73000002
   12.66083336   80.17739868    4.90999985    2.73000002
   12.66388893   77.05899811    4.90999985    2.73000002
   12.66722298   81.20780182    4.90999985    2.71000004
   12.67055607   83.50869751    4.90999985    2.73000002
   12.67111111   81.58070374    4.90999985    2.73000002
   12.67388916   76.04820251    4.90999985    2.71000004
   12.67722225   76.37760162    4.90999985    2.71000004
   12.68055630   75.71330261    4.90999985    2.71000004
   12.68361092   74.36889648    4.90999985    2.73000002
   12.68694496   73.73159790    4.90999985    2.73000002
   12.69000053   75.51679993    4.90999985    2.73000002
   12.69333363   77.23249817    4.90999985    2.71000004
   12.69638920   78.45860291    4.90999985    2.73000002
   12.69972229   75.32039642    4.90999985    2.71000004
   12.70305538   79.89040375    4.90999985    2.73000002
   12.70444393   78.18039703    4.90999985    2.73000002
   12.70638847   77.64399719    4.90999985    2.73000002
   12.70972157   78.03109741    4.90999985    2.73000002
   12.71305561   75.37920380    4.90999985    2.71000004
   12.71611118   75.18280029    4.90999985    2.73000002
   12.71944427   76.71499634    4.90999985    2.71000004
   12.72249985   75.66239929    4.90999985    2.73000002
   12.72583294   76.99720001    4.90999985    2.71000004
   12.72916603   73.96510315    4.90999985    2.73000002
   12.73222160   77.27950287    4.90999985    2.71000004
   12.73555565   76.76219940    4.90999985    2.71000004
   12.73777771   76.54540253    4.90999985    2.75000000
   12.73916721   73.88870239    4.90999985    2.73000002
   12.74222279   74.00540161    4.90999985    2.73000002
   12.74555588   75.40859985    4.90999985    2.73000002
   12.74861145   74.61920166    4.90999985    2.73000002
   12.75194454   75.01869965    4.90999985    2.73000002
   12.75500011   80.11879730    4.90999985    2.73000002
   12.75833321   75.06020355    4.90999985    2.73000002
   12.76138878   80.42459869    4.90999985    2.73000002
   12.76472187   77.19619751    4.90999985    2.75000000
   12.76805496   83.28060150    4.90999985    2.73000002
   12.77111053   75.71050262    4.90999985    2.73000002
   12.77166653   76.50879669    4.90999985    2.75000000
   12.77472210   75.89820099    4.90999985    2.73000002
   12.77805519   77.17720032    4.90999985    2.71000004
   12.78111076   74.65440369    4.90999985    2.73000002
   12.78444481   78.76540375    4.90999985    2.73000002
   12.78750038   76.73000336    4.90999985    2.73000002
   12.79083347   80.10340118    4.90999985    2.73000002
   12.79416752   79.85240173    4.90999985    2.73000002
   12.79722309   76.12339783    4.90999985    2.75000000
   12.80055618   78.58760071    4.90999985    2.73000002
   12.80361176   78.40409851    4.90999985    2.73000002
   12.80444431   74.14969635    4.90999985    2.73000002
   12.80749989   77.20349884    4.90999985    2.73000002
   12.81055546   75.62920380    4.90999985    2.73000002
   12.81388950   78.90940094    4.90999985    2.73000002
   12.81694412   74.57489777    4.90999985    2.73000002
   12.82027817   77.31719971    4.90999985    2.73000002
   12.82333374   79.75959778    4.90999985    2.73000002
   12.82666683   74.04959869    4.90999985    2.73000002
   12.82999992   74.89160156    4.90999985    2.73000002
   12.83305550   74.98030090    4.90999985    2.71000004
   12.83638859   75.33190155    4.90999985    2.73000002
   12.83777714   73.51750183    4.90999985    2.73000002
   12.84000015   74.36280060    4.90999985    2.73000002
   12.84305477   75.24729919    4.90999985    2.73000002
   12.84638882   74.07260132    4.90999985    2.73000002
   12.84944439   74.82540131    4.90999985    2.73000002
   12.85277843   74.92849731    4.90999985    2.73000002
   12.85583401   78.57389832    4.90999985    2.73000002
   12.85916710   75.63410187    4.90999985    2.73000002
   12.98083305   -1.00000000   -1.00000000   -1.00000000
   13.07750034   -1.00000000   -1.00000000   -1.00000000
   13.17722225   -1.00000000   -1.00000000   -1.00000000
   13.21111107   65.65380096    4.90999985    2.75000000
   13.21416664  100.17299652    4.90999985    2.76999998
   13.21749973  106.08300018    4.90999985    2.76999998
   13.22083282   94.50489807    4.90999985    2.75000000
   13.22388840  105.69200134    4.90999985    2.76999998
   13.22722149  111.26499939    4.90999985    2.76999998
   13.23138809  111.26499939    4.90999985    2.76999998
   13.23527813  105.98699951    4.90999985    2.76999998
   13.23861122   94.20279694    4.90999985    2.75000000
   13.24194431  107.99700165    4.90999985    2.76999998
   13.24444485  107.21299744    4.90999985    2.75000000
   13.24527836   96.94930267    4.90999985    2.76999998
   13.24861145   97.24829865    4.90999985    2.76999998
   13.25166702  114.86000061    4.90999985    2.76999998
   13.25500011  112.40100098    4.90999985    2.75000000
   13.25805569  118.05699921    4.90999985    2.76999998
   13.26138878  104.11699677    4.90999985    2.75000000
   13.26472187  113.80799866    4.90999985    2.75000000
   13.26777744  124.72000122    4.90999985    2.76999998
   13.27416611  124.72000122    4.90999985    2.76999998
   13.27833271  119.03099823    4.90999985    2.76999998
   13.28138828  120.42600250    4.90999985    2.76999998
   13.28472233  123.94599915    4.90999985    2.76999998
   13.28777790  112.30400085    4.90999985    2.76999998
   13.29111195  125.66500092    4.90999985    2.78999996
   13.29444504  123.38400269    4.90999985    2.76999998
   13.29750061  105.36100006    4.90999985    2.76999998
   13.30083370  114.79299927    4.90999985    2.76999998
   13.30388927  140.22700500    4.90999985    2.76999998
   13.30722237  138.91799927    4.90999985    2.75000000
   13.31027794  126.75900269    4.90999985    2.76999998
   13.31111145  123.28399658    4.90999985    2.76999998
   13.31694412  123.28399658    4.90999985    2.78999996
   13.32111073  130.90400696    4.90999985    2.76999998
   13.32416630  134.16499329    4.90999985    2.75000000
   13.32750034  116.85399628    4.90999985    2.76999998
   13.33083344  133.52099609    4.90999985    2.76999998
   13.33388901  120.25800323    4.90999985    2.76999998
   13.33722210  129.48899841    4.90999985    2.75000000
   13.34027767  143.50399780    4.90999985    2.76999998
   13.34361076  145.16900635    4.90999985    2.76999998
   13.34444427  171.23599243    4.90999985    2.76999998
   13.34722233  151.39999390    4.90999985    2.75000000
   13.35055637  140.67500305    4.90999985    2.76999998
   13.35361195  138.70300293    4.90999985    2.75000000
   13.35972214  138.70300293    4.90999985    2.78999996
   13.36388969  137.57800293    4.90999985    2.78999996
   13.36722279  133.72500610    4.90999985    2.78999996
   13.37027836  125.61699677    4.90999985    2.76999998
   13.37361145  147.00799561    4.90999985    2.76999998
   13.37666702  156.85699463    4.90999985    2.76999998
   13.37777805  140.83000183    4.90999985    2.76999998
   13.38027763  164.17999268    4.90999985    2.76999998
   13.38361073  139.47399902    4.90999985    2.76999998
   13.38694477  163.52600098    4.90999985    2.76999998
   13.39000034  163.75599670    4.90999985    2.76999998
   13.39333344  167.87899780    4.90999985    2.78999996
   13.39638901  162.80799866    4.90999985    2.76999998
   13.40277767  162.80799866    4.90999985    2.76999998
   13.40666676  145.71699524    4.90999985    2.76999998
   13.40999985  140.17300415    4.90999985    2.76999998
   13.41111088  140.44999695    4.90999985    2.76999998
   13.41361046  151.71200562    4.90999985    2.76999998
   13.41694450  132.59300232    4.90999985    2.76999998
   13.42000008  160.21299744    4.90999985    2.76999998
   13.42333412  166.78900146    4.90999985    2.76999998
   13.42666721  150.21899414    4.90999985    2.76999998
   13.42972279  168.91200256    4.90999985    2.76999998
   13.43305588  143.26800537    4.90999985    2.76999998
   13.43611145  167.72700500    4.90999985    2.76999998
   13.43944454  162.35299683    4.90999985    2.76999998
   13.44555569  162.35299683    4.90999985    2.78999996
   13.44972229  150.66000366    4.90999985    2.76999998
   13.45277786  173.94700623    4.90999985    2.76999998
   13.45611095  157.08099365    4.90999985    2.78999996
   13.45916653  145.06700134    4.90999985    2.76999998
   13.46249962  142.24000549    4.90999985    2.78999996
   13.46555519  139.46899414    4.90999985    2.76999998
   13.46888828  149.43600464    4.90999985    2.78999996
   13.47222137  131.94799805    4.90999985    2.78999996
   13.47527695  166.38099670    4.90999985    2.76999998
   13.47777748  150.40800476    4.90999985    2.76999998
   13.47888851  142.99299622    4.90999985    2.76999998
   13.48222160  164.61500549    4.90999985    2.78999996
   13.48833370  164.61500549    4.90999985    2.76999998
   13.49250031  139.83599854    4.90999985    2.78999996
   13.49555588  134.11099243    4.90999985    2.78999996
   13.49888897  148.29299927    4.90999985    2.78999996
   13.50222206  164.89300537    4.90999985    2.78999996
   13.50527763  140.32800293    4.90999985    2.78999996
   13.50861073  140.14900208    4.90999985    2.80999994
   13.51111126  144.84599304    4.90999985    2.78999996
   13.51194477  170.14399719    4.90999985    2.78999996
   13.51527786  151.36399841    4.90999985    2.78999996
   13.51861095  144.00199890    4.90999985    2.78999996
   13.52166653  152.66999817    4.90999985    2.76999998
   13.52499962  157.36599731    4.90999985    2.76999998
   13.53111076  157.36599731    4.90999985    2.78999996
   13.53527832  126.39099884    4.90999985    2.76999998
   13.53861141  154.93800354    4.90999985    2.78999996
   13.54166698  147.62199402    4.90999985    2.78999996
   13.54444504  150.85499573    4.90999985    2.78999996
   13.54527855  139.49699402    4.90999985    2.78999996
   13.54861164  161.27400208    4.90999985    2.78999996
   13.55194473  161.64799500    4.90999985    2.80999994
   13.55500031  172.15499878    4.90999985    2.78999996
   13.55833340  158.18400574    4.90999985    2.80999994
   13.56138897  164.48599243    4.90999985    2.78999996
   13.56472206  176.70300293    4.90999985    2.78999996
   13.56777763  152.73899841    4.90999985    2.78999996
   13.57416630  152.73899841    4.90999985    2.78999996
   13.57805538  162.99000549    4.90999985    2.78999996
   13.58138847  171.27200317    4.90999985    2.78999996
   13.58472157  146.52999878    4.90999985    2.78999996
   13.58777714  162.13800049    4.90999985    2.78999996
   13.59111118  172.94700623    4.90999985    2.78999996
   13.59416676  153.51199341    4.90999985    2.78999996
   13.59749985  164.91200256    4.90999985    2.76999998
   13.60055637  177.98699951    4.90999985    2.78999996
   13.60388947  175.04100037    4.90999985    2.78999996
   13.60722256  153.27200317    4.90999985    2.78999996
   13.61027813  155.22200012    4.90999985    2.78999996
   13.61111164  143.63999939    4.90999985    2.78999996
   13.61694431  143.63999939    4.90999985    2.78999996
   13.62111092  157.36700439    4.90999985    2.80999994
   13.62416649  165.62199402    4.90999985    2.78999996
   13.62750053  170.67900085    4.90999985    2.78999996
   13.63055611  168.25700378    4.90999985    2.80999994
   13.63388920  161.89999390    4.90999985    2.78999996
   13.63722229  186.81900024    4.90999985    2.78999996
   13.64027786  160.67100525    4.90999985    2.78999996
   13.64361095  150.70599365    4.90999985    2.78999996
   13.64444447  148.03700256    4.90999985    2.80999994
   13.64694405  171.41600037    4.90999985    2.78999996
   13.65027714  176.66299438    4.90999985    2.80999994
   13.65361118  153.16400146    4.90999985    2.76999998
   13.65972137  153.16400146    4.90999985    2.80999994
   13.66388893  162.04800415    4.90999985    2.78999996
   13.66694450  167.86000061    4.90999985    2.78999996
   13.67027855  162.69799805    4.90999985    2.78999996
   13.67361164  161.38299561    4.90999985    2.80999994
   13.67666721  168.29899597    4.90999985    2.78999996
   13.67777824  177.29100037    4.90999985    2.78999996
   13.68027782  175.55700684    4.90999985    2.80999994
   13.68361092  177.47099304    4.90999985    2.80999994
   13.68694496  182.95300293    4.90999985    2.80999994
   13.69000053  159.66900635    4.90999985    2.80999994
   13.69333363  158.08799744    4.90999985    2.80999994
   13.69638920  150.72200012    4.90999985    2.80999994
   13.70249939  150.72200012    4.90999985    2.78999996
   13.70666695  159.70300293    4.90999985    2.78999996
   13.71000004  167.03399658    4.90999985    2.78999996
   13.71111107  153.96600342    4.90999985    2.80999994
   13.71333313  164.78100586    4.90999985    2.78999996
   13.71666622  144.80900574    4.90999985    2.78999996
   13.71999931  162.30999756    4.90999985    2.78999996
   13.72305489  177.27999878    4.90999985    2.78999996
   13.72638798  163.16299438    4.90999985    2.80999994
   13.72944355  158.72300720    4.90999985    2.80999994
   13.73277760  170.84300232    4.90999985    2.78999996
   13.73583317  149.73699951    4.90999985    2.78999996
   13.73916721  155.66099548    4.90999985    2.78999996
   13.74555588  155.66099548    4.90999985    2.80999994
   13.74944496  150.32800293    4.90999985    2.80999994
   13.75277805  138.65600586    4.90999985    2.80999994
   13.75611115  145.21000671    4.90999985    2.80999994
   13.75916672  141.39999390    4.90999985    2.78999996
   13.76249981  128.36599731    4.90999985    2.80999994
   13.76555538  142.71699524    4.90999985    2.78999996
   13.76888847  129.29800415    4.90999985    2.78999996
   13.77194405  145.44299316    4.90999985    2.80999994
   13.77527714  158.67500305    4.90999985    2.80999994
   13.77777767  166.41499329    4.90999985    2.78999996
   13.77888870  166.09800720    4.90999985    2.80999994
   13.78222179  163.57200623    4.90999985    2.80999994
   13.78833389  163.57200623    4.90999985    2.80999994
   13.79250050  154.70599365    4.90999985    2.80999994
   13.79555607  151.45199585    4.90999985    2.80999994
   13.79888916  145.94200134    4.90999985    2.80999994
   13.80194473  167.42199707    4.90999985    2.80999994
   13.80527782  150.72200012    4.90999985    2.78999996
   13.80861092  150.65899658    4.90999985    2.80999994
   13.81111145  139.93099976    4.90999985    2.80999994
   13.81194496  135.22300720    4.90999985    2.80999994
   13.81527805  144.70799255    4.90999985    2.78999996
   13.81861115  127.58899689    4.90999985    2.80999994
   13.82166672  115.32700348    4.90999985    2.80999994
   13.82499981  134.83599854    4.90999985    2.80999994
   13.83111095  134.83599854    4.90999985    2.78999996
   13.83527756  127.41699982    4.90999985    2.80999994
   13.83833313  141.16099548    4.90999985    2.78999996
   13.84166622  138.41200256    4.90999985    2.80999994
   13.84444427  142.19299316    4.90999985    2.80999994
   13.84527779  138.63499451    4.90999985    2.78999996
   13.84861088  150.94999695    4.90999985    2.78999996
   13.85194492  152.87100220    4.90999985    2.78999996
   13.85500050  145.29600525    4.90999985    2.78999996
   13.85833359  153.66600037    4.90999985    2.80999994
   13.86138916  150.60099792    4.90999985    2.78999996
   13.86472225  148.94599915    4.90999985    2.80999994
   13.86777782  175.15100098    4.90999985    2.78999996
   13.87388897  175.15100098    4.90999985    2.80999994
   13.87805557  148.00300598    4.90999985    2.80999994
   13.88138866  126.54499817    4.90999985    2.82999992
   13.88444424  137.24899292    4.90999985    2.78999996
   13.88777733  136.00000000    4.90999985    2.80999994
   13.89083290  142.81700134    4.90999985    2.80999994
   13.89416695  134.85000610    4.90999985    2.80999994
   13.89750004  118.29599762    4.90999985    2.80999994
   13.90055561  104.04100037    4.90999985    2.80999994
   13.90388870  126.71399689    4.90999985    2.82999992
   13.90694427  105.53500366    4.90999985    2.80999994
   13.91027737  103.26599884    4.90999985    2.82999992
   13.91111088  120.79699707    4.90999985    2.80999994
   13.91694450  120.79699707    4.90999985    2.80999994
   13.92083359  112.00299835    4.90999985    2.80999994
   13.92416668  131.77900696    4.90999985    2.80999994
   13.92750072  112.11100006    4.90999985    2.80999994
   13.93055630  127.68499756    4.90999985    2.80999994
   13.93388939  112.63999939    4.90999985    2.80999994
   13.93694496  143.02600098    4.90999985    2.80999994
   13.94027805  123.96900177    4.90999985    2.80999994
   13.94333363  122.13800049    4.90999985    2.78999996
   13.94444466  124.88899994    4.90999985    2.80999994
   13.94694424  124.84100342    4.90999985    2.80999994
   13.95027733  129.49400330    4.90999985    2.80999994
   13.95361137  132.58799744    4.90999985    2.80999994
   13.95972157  132.58799744    4.90999985    2.80999994
   13.96388912  126.19000244    4.90999985    2.80999994
   13.96694374  127.28199768    4.90999985    2.80999994
   13.97027779  117.06199646    4.90999985    2.78999996
   13.97333336  121.34700012    4.90999985    2.80999994
   13.97666645  113.90100098    4.90999985    2.82999992
   13.97777748  118.47899628    4.90999985    2.80999994
   13.98027706  128.84599304    4.90999985    2.80999994
   13.98361111  125.25700378    4.90999985    2.80999994
   13.98694515  130.37199402    4.90999985    2.80999994
   13.99000072  116.81999969    4.90999985    2.80999994
   13.99333382  111.29399872    4.90999985    2.80999994
   13.99638939  113.26599884    4.90999985    2.80999994
   14.00249958  113.26599884    4.90999985    2.78999996
   14.00666714  118.32599640    4.90999985    2.78999996
   14.01000023  123.97899628    4.90999985    2.80999994
   14.01111126  125.11699677    4.90999985    2.80999994
   14.01361084  116.82599640    4.90999985    2.80999994
   14.01666641  112.20899963    4.90999985    2.80999994
   14.01999950  128.86399841    4.90999985    2.80999994
   14.02305508  118.81600189    4.90999985    2.80999994
   14.02638817  107.96900177    4.90999985    2.80999994
   14.02944374  117.77400208    4.90999985    2.82999992
   14.03277779  119.95700073    4.90999985    2.82999992
   14.03583336  133.72399902    4.90999985    2.80999994
   14.03916740  112.71600342    4.90999985    2.82999992
   14.04527855  112.71600342    4.90999985    2.80999994
   14.04944515  123.20700073    4.90999985    2.78999996
   14.05277824  121.22000122    4.90999985    2.80999994
   14.05583382  102.14800262    4.90999985    2.80999994
   14.05916691  124.08799744    4.90999985    2.80999994
   14.06250000  133.86999512    4.90999985    2.80999994
   14.06555557  121.76499939    4.90999985    2.82999992
   14.06888866  122.59799957    4.90999985    2.80999994
   14.07194424  118.75199890    4.90999985    2.80999994
   14.07527733  133.78500366    4.90999985    2.80999994
   14.07777786  129.58399963    4.90999985    2.80999994
   14.07888889  117.80100250    4.90999985    2.82999992
   14.08194447  132.84800720    4.90999985    2.80999994
   14.08833313  132.84800720    4.90999985    2.82999992
   14.09222221  107.30699921    4.90999985    2.82999992
   14.09555531  115.46399689    4.90999985    2.80999994
   14.09888840  116.00299835    4.90999985    2.82999992
   14.10194492  113.59400177    4.90999985    2.80999994
   14.10527802  111.50900269    4.90999985    2.80999994
   14.10833359  112.06199646    4.90999985    2.80999994
   14.11111164  150.36000061    4.90999985    2.82999992
   14.11222267  109.94100189    4.90999985    2.82999992
   14.11527824   97.32299805    4.90999985    2.80999994
   14.11861134  126.06300354    4.90999985    2.80999994
   14.12166691  107.18199921    4.90999985    2.82999992
   14.12500000  105.76599884    4.90999985    2.80999994
   14.13111115  105.76599884    4.90999985    2.80999994
   14.13527775  103.64499664    4.90999985    2.80999994
   14.13833332  108.34600067    4.90999985    2.82999992
   14.14166641  104.31700134    4.90999985    2.80999994
   14.14444447  100.76499939    4.90999985    2.82999992
   14.14527798  108.30599976    4.90999985    2.80999994
   14.14833355  106.78199768    4.90999985    2.80999994
   14.15166664  115.97200012    4.90999985    2.82999992
   14.15472221  109.03099823    4.90999985    2.80999994
   14.15805531  114.76899719    4.90999985    2.82999992
   14.16111088  103.17700195    4.90999985    2.80999994
   14.16444397   99.46009827    4.90999985    2.82999992
   14.16777802  116.56900024    4.90999985    2.82999992
   14.17388916  116.56900024    4.90999985    2.80999994
   14.17805576  106.13500214    4.90999985    2.80999994
   14.18138885  106.50900269    4.90999985    2.80999994
   14.18444443  111.50599670    4.90999985    2.82999992
   14.18777752  124.16000366    4.90999985    2.82999992
   14.19083309  123.23500061    4.90999985    2.80999994
   14.19416714  124.53800201    4.90999985    2.80999994
   14.19722271  135.89799500    4.90999985    2.82999992
   14.20055580  119.70200348    4.90999985    2.82999992
   14.20388889  113.24600220    4.90999985    2.80999994
   14.20694447  130.69700623    4.90999985    2.82999992
   14.21027756  102.06099701    4.90999985    2.80999994
   14.21111107  119.06800079    4.90999985    2.80999994
   14.23194408  119.06800079    4.90999985    2.82999992
   14.23611164  106.84100342    4.90999985    2.82999992
   14.23916721  110.34999847    4.90999985    2.84999990
   14.24250031  104.63899994    4.90999985    2.80999994
   14.24444485  101.17900085    4.90999985    2.80999994
   14.24611092  113.25399780    4.90999985    2.82999992
   14.24916649   99.99250031    4.90999985    2.80999994
   14.25249958  102.79100037    4.90999985    2.82999992
   14.25555515  108.56600189    4.90999985    2.80999994
   14.25888920  102.52200317    4.90999985    2.80999994
   14.26222229   96.70020294    4.90999985    2.80999994
   14.26527786  119.07900238    4.90999985    2.80999994
   14.26861095  113.77100372    4.90999985    2.82999992
   14.27472210  113.77100372    4.90999985    2.80999994
   14.27888870  108.84500122    4.90999985    2.80999994
   14.28194427  103.12200165    4.90999985    2.84999990
   14.28527832   91.15180206    4.90999985    2.80999994
   14.28833389  103.35299683    4.90999985    2.80999994
   14.29166698   91.17070007    4.90999985    2.82999992
   14.29472256  104.00599670    4.90999985    2.82999992
   14.29805565   96.26229858    4.90999985    2.80999994
   14.30138874   93.91400146    4.90999985    2.80999994
   14.30444431  105.20400238    4.90999985    2.82999992
   14.30777836   89.30709839    4.90999985    2.80999994
   14.31083393  107.58599854    4.90999985    2.80999994
   14.31138897  113.68599701    4.90999985    2.82999992
   14.31750011  113.68599701    4.90999985    2.80999994
   14.32166672  102.89399719    4.90999985    2.80999994
   14.32472229  102.94799805    4.90999985    2.78999996
   14.32805538  104.96700287    4.90999985    2.80999994
   14.33138847  117.42199707    4.90999985    2.80999994
   14.33444405  115.98000336    4.90999985    2.80999994
   14.33777714  112.70800018    4.90999985    2.80999994
   14.34083271   99.46739960    4.90999985    2.82999992
   14.34416676  110.94799805    4.90999985    2.80999994
   14.34472179  112.29199982    4.90999985    2.80999994
   14.34777737  128.70399475    4.90999985    2.78999996
   14.35083389  112.02200317    4.90999985    2.80999994
   14.35416698  109.86599731    4.90999985    2.82999992
   14.36027813  109.86599731    4.90999985    2.82999992
   14.36444473  101.82900238    4.90999985    2.80999994
   14.36777782  105.46499634    4.90999985    2.80999994
   14.37083340  113.82700348    4.90999985    2.80999994
   14.37416649  116.89399719    4.90999985    2.78999996
   14.37722206  111.00599670    4.90999985    2.80999994
   14.37805557  119.17700195    4.90999985    2.78999996
   14.38111115  114.22599792    4.90999985    2.82999992
   14.38416672  118.40200043    4.90999985    2.80999994
   14.38749981  106.16799927    4.90999985    2.80999994
   14.39083290  121.67199707    4.90999985    2.80999994
   14.39388847  116.75499725    4.90999985    2.80999994
   14.39722252  107.31300354    4.90999985    2.80999994
   14.40305519  107.31300354    4.90999985    2.82999992
   14.40722179  118.61900330    4.90999985    2.82999992
   14.41055489  114.13300323    4.90999985    2.80999994
   14.41138840  108.13899994    4.90999985    2.80999994
   14.41416645  103.08899689    4.90999985    2.82999992
   14.41722298  115.68499756    4.90999985    2.82999992
   14.42055607  108.39600372    4.90999985    2.80999994
   14.42388916  108.83499908    4.90999985    2.80999994
   14.42694473  119.89299774    4.90999985    2.82999992
   14.43027782  107.32499695    4.90999985    2.82999992
   14.43333340  107.57099915    4.90999985    2.80999994
   14.43666649  117.31199646    4.90999985    2.80999994
   14.43972206  107.77400208    4.90999985    2.82999992
   14.44611073  107.77400208    4.90999985    2.82999992
   14.45027733  116.09999847    4.90999985    2.80999994
   14.45333290  107.32599640    4.90999985    2.80999994
   14.45666695  109.14900208    4.90999985    2.82999992
   14.45972157  109.17600250    4.90999985    2.80999994
   14.46305561  104.51899719    4.90999985    2.80999994
   14.46611118  107.76499939    4.90999985    2.82999992
   14.46944427  109.01999664    4.90999985    2.82999992
   14.47277737  111.88200378    4.90999985    2.82999992
   14.47583294  103.19499969    4.90999985    2.82999992
   14.47805500  104.68900299    4.90999985    2.82999992
   14.47944355  105.10500336    4.90999985    2.82999992
   14.48249912  106.92500305    4.90999985    2.82999992
   14.48888874  106.92500305    4.90999985    2.82999992
   14.49305534  110.11000061    4.90999985    2.82999992
   14.49611092  121.18900299    4.90999985    2.84999990
   14.49944496  107.89099884    4.90999985    2.80999994
   14.50249958  115.38800049    4.90999985    2.82999992
   14.50583363  111.18299866    4.90999985    2.82999992
   14.50916672  111.12999725    4.90999985    2.82999992
   14.51138878  113.59799957    4.90999985    2.80999994
   14.51277733  110.83100128    4.90999985    2.80999994
   14.51583290  108.54699707    4.90999985    2.80999994
   14.51916599  110.36900330    4.90999985    2.82999992
   14.52250004  105.69899750    4.90999985    2.80999994
   14.52555561   95.09639740    4.90999985    2.80999994
   14.53166676   95.09639740    4.90999985    2.82999992
   14.53583336   98.80829620    4.90999985    2.82999992
   14.53916740   98.43370056    4.90999985    2.82999992
   14.54222298   89.12640381    4.90999985    2.80999994
   14.54472256   92.69300079    4.90999985    2.80999994
   14.54583359   95.31259918    4.90999985    2.80999994
   14.54888916   93.63349915    4.90999985    2.80999994
   14.55222225   99.57890320    4.90999985    2.80999994
   14.55555534   95.26820374    4.90999985    2.80999994
   14.55861092  101.69300079    4.90999985    2.82999992
   14.56194496   95.06120300    4.90999985    2.82999992
   14.56527805  102.12000275    4.90999985    2.80999994
   14.56833363   99.82859802    4.90999985    2.80999994
   14.57472229   99.82859802    4.90999985    2.80999994
   14.57861137   98.23729706    4.90999985    2.80999994
   14.58194447   93.88390350    4.90999985    2.80999994
   14.58527756   89.57209778    4.90999985    2.80999994
   14.58833313   92.68419647    4.90999985    2.82999992
   14.59166622   91.87200165    4.90999985    2.80999994
   14.59472179   88.29499817    4.90999985    2.80999994
   14.59805489   79.22149658    4.90999985    2.80999994
   14.60111141   90.75589752    4.90999985    2.80999994
   14.60444450   95.47219849    4.90999985    2.80999994
   14.60777855  101.63099670    4.90999985    2.80999994
   14.61083412   91.82080078    4.90999985    2.82999992
   14.61194515   94.93569946    4.90999985    2.80999994
   14.61750031   94.93569946    4.90999985    2.80999994
   14.62166691   80.36160278    4.90999985    2.80999994
   14.62472248   87.99639893    4.90999985    2.82999992
   14.62805557   87.95829773    4.90999985    2.80999994
   14.63111115   96.04149628    4.90999985    2.82999992
   14.63444424   87.53700256    4.90999985    2.82999992
   14.63749981   88.59839630    4.90999985    2.80999994
   14.64083290   84.21749878    4.90999985    2.82999992
   14.64416695   76.22329712    4.90999985    2.80999994
   14.64499950   80.16349792    4.90999985    2.80999994
   14.64777756   80.87750244    4.90999985    2.82999992
   14.65111065   85.59709930    4.90999985    2.80999994
   14.65416622   85.59159851    4.90999985    2.80999994
   14.66027737   85.59159851    4.90999985    2.80999994
   14.66444397   92.75740051    4.90999985    2.82999992
   14.66750050   84.53669739    4.90999985    2.80999994
   14.67083359   84.68859863    4.90999985    2.80999994
   14.67416668   80.91459656    4.90999985    2.80999994
   14.67722225   84.93679810    4.90999985    2.80999994
   14.67833328   83.47399902    4.90999985    2.80999994
   14.68083382   86.19429779    4.90999985    2.80999994
   14.68416691   87.53540039    4.90999985    2.80999994
   14.68722248   83.01809692    4.90999985    2.82999992
   14.69055557   84.96929932    4.90999985    2.80999994
   14.69361115   87.98750305    4.90999985    2.80999994
   14.69694424   80.39499664    4.90999985    2.80999994
   14.70305538   80.39499664    4.90999985    2.80999994
   14.70722198   87.00569916    4.90999985    2.80999994
   14.71055508   84.10870361    4.90999985    2.80999994
   14.71166611   81.56130219    4.90999985    2.80999994
   14.71388912   84.46779633    4.90999985    2.80999994
   14.71722221   85.36009979    4.90999985    2.80999994
   14.72027779   85.97830200    4.90999985    2.82999992
   14.72361088   92.24120331    4.90999985    2.80999994
   14.72666645   78.06159973    4.90999985    2.80999994
   14.72999954   85.61209869    4.90999985    2.82999992
   14.73333359   87.02149963    4.90999985    2.78999996
   14.73638916   85.57669830    4.90999985    2.80999994
   14.73972225   83.81479645    4.90999985    2.80999994
   14.74583340   83.81479645    4.90999985    2.80999994
   14.75000000   82.39720154    4.90999985    2.80999994
   14.75333309   93.90139771    4.90999985    2.80999994
   14.75638866   97.36959839    4.90999985    2.80999994
   14.75972176   98.13459778    4.90999985    2.80999994
   14.76305580   97.48600006    4.90999985    2.80999994
   14.76611137  103.64800262    4.90999985    2.78999996
   14.76944447  103.36000061    4.90999985    2.78999996
   14.77250004  100.23699951    4.90999985    2.80999994
   14.77583313  103.39800262    4.90999985    2.80999994
   14.77833271  109.46099854    4.90999985    2.78999996
   14.77944374   93.61309814    4.90999985    2.80999994
   14.78277779  105.24700165    4.90999985    2.80999994
   14.78888893  105.24700165    4.90999985    2.82999992
   14.79305553  102.25399780    4.90999985    2.80999994
   14.79611111  110.41999817    4.90999985    2.78999996
   14.79944515   98.17659760    4.90999985    2.80999994
   14.80249977   97.11129761    4.90999985    2.80999994
   14.80583382  108.45500183    4.90999985    2.80999994
   14.80888939   88.70680237    4.90999985    2.78999996
   14.81166649   99.64309692    4.90999985    2.80999994
   14.81250000   92.60109711    4.90999985    2.80999994
   14.81583309   94.27690125    4.90999985    2.80999994
   14.81888866   97.41470337    4.90999985    2.80999994
   14.82222176  102.43599701    4.90999985    2.80999994
   14.82527733  104.63200378    4.90999985    2.82999992
   14.83166695  104.63200378    4.90999985    2.80999994
   14.83583260   95.26349640    4.90999985    2.80999994
   14.83888817   98.32309723    4.90999985    2.80999994
   14.84222221  110.42700195    4.90999985    2.80999994
   14.84499931  108.86499786    4.90999985    2.80999994
   14.84583282   97.80690002    4.90999985    2.80999994
   14.84916592  108.35299683    4.90999985    2.80999994
   14.85222244   97.19229889    4.90999985    2.80999994
   14.85555553  111.69599915    4.90999985    2.80999994
   14.85861111  114.99500275    4.90999985    2.82999992
   14.86194515  106.14199829    4.90999985    2.80999994
   14.86527824  109.45099640    4.90999985    2.80999994
   14.86833382   92.91809845    4.90999985    2.80999994
   14.87444496   92.91809845    4.90999985    2.80999994
   14.87861156   90.46430206    4.90999985    2.80999994
   14.88194466  106.45700073    4.90999985    2.80999994
   14.88500023   96.52069855    4.90999985    2.80999994
   14.88833332   98.70729828    4.90999985    2.80999994
   14.89138889   84.23840332    4.90999985    2.80999994
   14.89472198   74.44629669    4.90999985    2.80999994
   14.89777756   92.80039978    4.90999985    2.80999994
   14.90111065   96.21530151    4.90999985    2.80999994
   14.90444374   96.43689728    4.90999985    2.80999994
   14.90749931   98.51969910    4.90999985    2.80999994
   14.91083336   91.47730255    4.90999985    2.80999994
   14.91166592   92.81629944    4.90999985    2.80999994
   14.91722298   92.81629944    4.90999985    2.80999994
   14.92138958  100.41799927    4.90999985    2.80999994
   14.92472267   97.18289948    4.90999985    2.80999994
   14.92777824  104.39199829    4.90999985    2.80999994
   14.93111134  101.75000000    4.90999985    2.80999994
   14.93444443   94.05310059    4.90999985    2.80999994
   14.93750000   93.56079865    4.90999985    2.80999994
   14.94083309  105.95200348    4.90999985    2.80999994
   14.94388866   99.13510132    4.90999985    2.80999994
   14.94499969  101.47000122    4.90999985    2.80999994
   14.94750023  104.52799988    4.90999985    2.80999994
   14.95083332  110.21800232    4.90999985    2.80999994
   14.95388889  106.34300232    4.90999985    2.80999994
   14.96027756  106.34300232    4.90999985    2.80999994
   14.96444416   91.14700317    4.90999985    2.80999994
   14.96749973   96.75859833    4.90999985    2.80999994
   14.97083282   84.84899902    4.90999985    2.80999994
   14.97388840   94.90409851    4.90999985    2.80999994
   14.97722149   98.44339752    4.90999985    2.80999994
   14.97833252   92.45059967    4.90999985    2.80999994
   14.98055553   92.83470154    4.90999985    2.80999994
   14.98388958   87.70269775    4.90999985    2.80999994
   14.98694515   92.31600189    4.90999985    2.80999994
   14.99027824   98.08920288    4.90999985    2.80999994
   14.99361134   85.64769745    4.90999985    2.80999994
   14.99666691   89.50129700    4.90999985    2.80999994
   15.00305557   89.50129700    4.90999985    2.80999994
   15.00722218   76.32649994    4.90999985    2.80999994
   15.01027775   86.67089844    4.90999985    2.80999994
   15.01166630   81.56549835    4.90999985    2.80999994
   15.01388931   80.16739655    4.90999985    2.80999994
   15.01722240   75.34500122    4.90999985    2.80999994
   15.02027798   77.12590027    4.90999985    2.80999994
   15.02361107   79.37640381    4.90999985    2.80999994
   15.02694416   79.77469635    4.90999985    2.80999994
   15.02999973   80.16210175    4.90999985    2.80999994
   15.03333378   85.15380096    4.90999985    2.80999994
   15.03638935   81.95749664    4.90999985    2.80999994
   15.03972244   83.72470093    4.90999985    2.80999994
   15.04583359   83.72470093    4.90999985    2.80999994
   15.05000019   87.42569733    4.90999985    2.80999994
   15.05333328   94.02269745    4.90999985    2.80999994
   15.05638885   83.89920044    4.90999985    2.80999994
   15.05972195   86.86119843    4.90999985    2.80999994
   15.06277752   93.04090118    4.90999985    2.80999994
   15.06611156   85.21189880    4.90999985    2.80999994
   15.06944466   80.61949921    4.90999985    2.80999994
   15.07250023   73.27050018    4.90999985    2.80999994
   15.07583332   91.41439819    4.90999985    2.80999994
   15.07833290   83.43609619    4.90999985    2.80999994
   15.07916641   78.61830139    4.90999985    2.80999994
   15.08249950   82.79149628    4.90999985    2.80999994
   15.08861065   82.79149628    4.90999985    2.80999994
