    HOUR (UT)   FLARE FACTOR    SKY TESTER    SUN TESTER
   11.43833351   -1.00000000   -1.00000000   -1.00000000
   11.48750019  135.88800049    2.84999990    2.48000002
   11.49083328  125.84500122    2.84999990    2.50000000
   11.49388885  121.44200134    2.84999990    2.48000002
   11.49722290  107.43000031    2.82999992    2.50000000
   11.50055599  130.65400696    2.82999992    2.50000000
   11.50361156  113.74700165    2.82999992    2.50000000
   11.50777817  113.74700165    2.84999990    2.50000000
   11.51194477  119.19699860    2.82999992    2.50000000
   11.51527786  103.69899750    2.82999992    2.50000000
   11.51833344  115.66300201    2.80999994    2.50000000
   11.52083302  116.09799957    2.80999994    2.48000002
   11.52222157  122.46199799    2.80999994    2.50000000
   11.52527714  130.77699280    2.80999994    2.51999998
   11.52861118  125.67099762    2.80999994    2.51999998
   11.53166676  127.82099915    2.80999994    2.50000000
   11.53500080  120.46199799    2.78999996    2.50000000
   11.53833389  114.92500305    2.80999994    2.50000000
   11.54138947  109.93499756    2.78999996    2.50000000
   11.54472256  122.04199982    2.78999996    2.50000000
   11.55055618  122.04199982    2.78999996    2.50000000
   11.55472279  105.31600189    2.78999996    2.50000000
   11.55805588  111.53500366    2.76999998    2.50000000
   11.56111145  106.05000305    2.76999998    2.50000000
   11.56444454  119.26899719    2.76999998    2.51999998
   11.56777763  120.51599884    2.76999998    2.51999998
   11.57083321  125.96099854    2.75000000    2.51999998
   11.57416630  125.52400208    2.75000000    2.51999998
   11.57750034  112.56600189    2.75000000    2.53999996
   11.58055592  120.14900208    2.73000002    2.51999998
   11.58388901   98.22689819    2.73000002    2.51999998
   11.58694458  119.18099976    2.73000002    2.51999998
   11.58749962  124.78099823    2.73000002    2.51999998
   11.59361076  124.78099823    2.73000002    2.51999998
   11.59749985  109.85800171    2.73000002    2.53999996
   11.60083389  113.99099731    2.71000004    2.53999996
   11.60416698  122.17199707    2.71000004    2.53999996
   11.60722256  131.31799316    2.71000004    2.51999998
   11.61055565  112.20099640    2.71000004    2.53999996
   11.61388969  130.02999878    2.71000004    2.51999998
   11.61694431  129.54200745    2.71000004    2.53999996
   11.62027836  114.45700073    2.69000006    2.51999998
   11.62083340  107.72499847    2.71000004    2.51999998
   11.62388897  120.22799683    2.69000006    2.51999998
   11.62750053  118.42199707    2.69000006    2.51999998
   11.63083363  104.71499634    2.69000006    2.51999998
   11.63638878  104.71499634    2.69000006    2.53999996
   11.64055538  114.37100220    2.69000006    2.53999996
   11.64361095  102.86599731    2.69000006    2.51999998
   11.64694405  111.17500305    2.69000006    2.51999998
   11.65027714  108.37799835    2.69000006    2.53999996
   11.65333271  104.46800232    2.69000006    2.53999996
   11.65416622  110.63500214    2.69000006    2.53999996
   11.65694427  111.92700195    2.71000004    2.53999996
   11.66027737  110.33200073    2.69000006    2.53999996
   11.66333294   99.45890045    2.69000006    2.53999996
   11.66666698   96.26760101    2.71000004    2.53999996
   11.67000008  101.88999939    2.71000004    2.53999996
   11.67305565  104.39399719    2.69000006    2.53999996
   11.67916679  104.39399719    2.71000004    2.53999996
   11.68333340  102.55500031    2.71000004    2.53999996
   11.68666649   89.08460236    2.69000006    2.53999996
   11.68750000   89.46410370    2.69000006    2.53999996
   11.69027805   96.78730011    2.69000006    2.53999996
   11.69361115   97.05120087    2.69000006    2.53999996
   11.69666672   97.08370209    2.69000006    2.53999996
   11.69999981   92.90589905    2.69000006    2.55999994
   11.70333290  106.52100372    2.69000006    2.53999996
   11.70638847  108.18299866    2.69000006    2.55999994
   11.70972157  104.00800323    2.69000006    2.53999996
   11.71277714   92.89129639    2.69000006    2.55999994
   11.71611118   99.51290131    2.69000006    2.53999996
   11.72194386   99.51290131    2.69000006    2.55999994
   11.72611046   99.72440338    2.69000006    2.53999996
   11.72944355   82.72930145    2.67000008    2.55999994
   11.73249912  111.57599640    2.67000008    2.53999996
   11.73583317  116.04199982    2.67000008    2.55999994
   11.73916721  100.12200165    2.67000008    2.55999994
   11.74222279  109.59799957    2.67000008    2.53999996
   11.74555588  123.03500366    2.67000008    2.57999992
   11.74888897  103.93099976    2.66000009    2.55999994
   11.75194454  120.97499847    2.66000009    2.55999994
   11.75416660  137.25599670    2.66000009    2.57999992
   11.75555515  111.28199768    2.66000009    2.57999992
   11.75888920  108.40399933    2.64000010    2.55999994
   11.76500034  108.40399933    2.64000010    2.55999994
   11.76888847  110.41300201    2.64000010    2.55999994
   11.77222157  113.23999786    2.61999989    2.55999994
   11.77555561  109.56300354    2.61999989    2.55999994
   11.77861118  106.43000031    2.64000010    2.55999994
   11.78194427  119.99800110    2.64000010    2.55999994
   11.78527832   98.89170074    2.64000010    2.55999994
   11.78750038  107.98000336    2.64000010    2.55999994
   11.78888893   88.97789764    2.64000010    2.55999994
   11.79222298   97.46510315    2.64000010    2.55999994
   11.79527855   90.13629913    2.61999989    2.55999994
   11.79861164   98.40160370    2.61999989    2.55999994
   11.80194473   86.11209869    2.61999989    2.55999994
   11.80777836   86.11209869    2.61999989    2.55999994
   11.81194496   92.38700104    2.61999989    2.55999994
   11.81500053   97.96900177    2.61999989    2.57999992
   11.81833363  108.07599640    2.59999990    2.57999992
   11.82083321   97.99929810    2.59999990    2.57999992
   11.82194424   95.27279663    2.59999990    2.57999992
   11.82527733   93.59819794    2.57999992    2.57999992
   11.82833290   96.29170227    2.57999992    2.57999992
   11.83166695   99.40450287    2.57999992    2.57999992
   11.83500004   98.04109955    2.55999994    2.57999992
   11.83805561   98.29409790    2.55999994    2.57999992
   11.84138870   95.85040283    2.55999994    2.57999992
   11.84444427   88.19799805    2.55999994    2.59999990
   11.85055637   88.19799805    2.55999994    2.59999990
   11.85472298   93.50409698    2.53999996    2.57999992
   11.85805607  114.52200317    2.53999996    2.57999992
   11.86111164  100.25900269    2.51999998    2.57999992
   11.86444473   97.92759705    2.51999998    2.57999992
   11.86750031   86.03230286    2.51999998    2.57999992
   11.87083340   97.20020294    2.53999996    2.59999990
   11.87416649   87.78299713    2.51999998    2.57999992
   11.87722206   91.71009827    2.53999996    2.57999992
   11.88055611  106.56700134    2.51999998    2.57999992
   11.88388920   87.00409698    2.53999996    2.59999990
   11.88694477   93.25710297    2.51999998    2.59999990
   11.88749981   89.78769684    2.53999996    2.59999990
   11.89333344   89.78769684    2.53999996    2.57999992
   11.89750004   88.15090179    2.51999998    2.57999992
   11.90083313   85.23979950    2.51999998    2.57999992
   11.90388870   88.49610138    2.50000000    2.57999992
   11.90722179   91.01889801    2.50000000    2.57999992
   11.91055489   88.55500031    2.50000000    2.57999992
   11.91388893   89.04019928    2.50000000    2.57999992
   11.91694450   92.25630188    2.50000000    2.59999990
   11.92027855   94.29260254    2.50000000    2.57999992
   11.92083359   94.43769836    2.50000000    2.59999990
   11.92388916   93.57240295    2.50000000    2.59999990
   11.92722225   95.46779633    2.50000000    2.59999990
   11.93027782   94.34570313    2.50000000    2.57999992
   11.93638897   94.34570313    2.50000000    2.59999990
   11.94027805   87.83589935    2.50000000    2.59999990
   11.94361115   93.04989624    2.50000000    2.59999990
   11.94694424   87.88770294    2.50000000    2.59999990
   11.94999981   88.65450287    2.50000000    2.59999990
   11.95333290   86.79029846    2.50000000    2.59999990
   11.95444393   85.36370087    2.50000000    2.57999992
   11.95694447   83.98359680    2.50000000    2.59999990
   11.96027756   95.38790131    2.50000000    2.59999990
   11.96333313   91.40589905    2.50000000    2.59999990
   11.96666622   90.55370331    2.48000002    2.61999989
   11.96999931   86.99440002    2.48000002    2.59999990
   11.97305489   86.81649780    2.48000002    2.59999990
   11.97916603   86.81649780    2.48000002    2.59999990
   11.98333359   89.71690369    2.46000004    2.59999990
   11.98638916   91.06900024    2.46000004    2.61999989
   11.98777771   89.67559814    2.46000004    2.61999989
   11.99000072   86.63970184    2.44000006    2.61999989
   11.99333382   92.10070038    2.42000008    2.64000010
   11.99638939   91.73200226    2.42000008    2.61999989
   11.99972248   93.96440125    2.42000008    2.61999989
   12.00305557   93.31739807    2.42000008    2.61999989
   12.00611115   93.28250122    2.40000010    2.61999989
   12.00944424   88.98500061    2.42000008    2.61999989
   12.01277733   86.28050232    2.42000008    2.61999989
   12.01583290   90.28649902    2.42000008    2.61999989
   12.02194405   90.28649902    2.42000008    2.61999989
   12.02611065   84.50559998    2.42000008    2.61999989
   12.02944374   90.68779755    2.44000006    2.61999989
   12.03249931   93.77770233    2.46000004    2.61999989
   12.03583336   92.84439850    2.46000004    2.61999989
   12.03888893   93.47480011    2.46000004    2.61999989
   12.04222298   87.71089935    2.48000002    2.59999990
   12.04555607   87.86569977    2.48000002    2.61999989
   12.04861164   85.59919739    2.48000002    2.61999989
   12.05194473   87.50930023    2.50000000    2.61999989
   12.05444431   82.81890106    2.50000000    2.59999990
   12.05555534   94.53820038    2.50000000    2.61999989
   12.05888939   91.40859985    2.50000000    2.61999989
   12.06472206   91.40859985    2.48000002    2.61999989
   12.06888866   87.54229736    2.48000002    2.61999989
   12.07222176   85.69860077    2.46000004    2.61999989
   12.07527733   82.97290039    2.44000006    2.61999989
   12.07861137   79.90769958    2.42000008    2.64000010
   12.08194447   85.69570160    2.40000010    2.61999989
   12.08500004   85.05010223    2.36999989    2.61999989
   12.08777714   86.41069794    2.36999989    2.61999989
   12.08861065   85.31800079    2.36999989    2.64000010
   12.09194374   85.32019806    2.34999990    2.64000010
   12.09499931   88.97669983    2.34999990    2.64000010
   12.09833336   84.51740265    2.34999990    2.64000010
   12.10166740   89.80590057    2.32999992    2.64000010
   12.10777855   89.80590057    2.32999992    2.64000010
   12.11166668   87.38790131    2.34999990    2.64000010
   12.11500072   89.36440277    2.34999990    2.64000010
   12.11833382   85.65119934    2.34999990    2.64000010
   12.12111092   90.40730286    2.34999990    2.64000010
   12.12194443   87.87490082    2.34999990    2.64000010
   12.12527752   91.73690033    2.34999990    2.61999989
   12.12833309   78.69090271    2.36999989    2.64000010
   12.13166714   85.76270294    2.39000010    2.64000010
   12.13500023   92.50810242    2.36999989    2.64000010
   12.13805580   79.98629761    2.39000010    2.64000010
   12.14138889   90.15850067    2.39000010    2.64000010
   12.14472198   89.92109680    2.36999989    2.64000010
   12.15055561   89.92109680    2.39000010    2.64000010
   12.15472221   82.59480286    2.36999989    2.64000010
   12.15777779   87.14630127    2.36999989    2.64000010
   12.16111088   87.99060059    2.34999990    2.64000010
   12.16444397   90.28250122    2.34999990    2.64000010
   12.16750050   88.19689941    2.34999990    2.66000009
   12.17083359   95.67680359    2.32999992    2.66000009
   12.17388916   90.03690338    2.32999992    2.64000010
   12.17722225   88.02629852    2.32999992    2.64000010
   12.18055630   92.05879974    2.32999992    2.66000009
   12.18361092   88.38459778    2.30999994    2.66000009
   12.18694496   87.04940033    2.30999994    2.66000009
   12.18777752  101.54699707    2.30999994    2.66000009
   12.19333363  101.54699707    2.30999994    2.66000009
   12.19750023   84.43849945    2.30999994    2.66000009
   12.20055580   98.52200317    2.30999994    2.64000010
   12.20388889   94.45120239    2.30999994    2.66000009
   12.20722198   81.63459778    2.30999994    2.64000010
   12.21027756   96.57890320    2.32999992    2.64000010
   12.21361065   89.05889893    2.30999994    2.64000010
   12.21694374   87.49359894    2.30999994    2.64000010
   12.21999931   84.47070313    2.30999994    2.64000010
   12.22111034  100.39399719    2.30999994    2.64000010
   12.22361088  100.35099792    2.30999994    2.64000010
   12.22694397   86.69779968    2.28999996    2.66000009
   12.23027706   88.86759949    2.28999996    2.64000010
   12.23611164   88.86759949    2.25000000    2.66000009
   12.24027824  101.49199677    2.25000000    2.66000009
   12.24361134   80.20819855    2.25000000    2.67000008
   12.24694443   86.25450134    2.25000000    2.66000009
   12.25000000   85.99749756    2.25000000    2.66000009
   12.25333309   89.03040314    2.25000000    2.66000009
   12.25444412   85.70130157    2.25000000    2.66000009
   12.25694466   91.75810242    2.26999998    2.66000009
   12.26027775   91.20500183    2.26999998    2.66000009
   12.26361084  101.80100250    2.28999996    2.66000009
   12.26666641   94.01779938    2.28999996    2.66000009
   12.26999950   90.32900238    2.30999994    2.66000009
   12.27305508   92.40889740    2.30999994    2.66000009
   12.27888870   92.40889740    2.32999992    2.67000008
   12.28305531   86.36199951    2.32999992    2.66000009
   12.28638935   99.06950378    2.32999992    2.66000009
   12.28777790   87.63050079    2.32999992    2.64000010
   12.29000092   90.30879974    2.34999990    2.66000009
   12.29333401   90.57740021    2.32999992    2.66000009
   12.29666710   93.98699951    2.32999992    2.66000009
   12.29972267   91.20089722    2.32999992    2.66000009
   12.30305576   92.12840271    2.30999994    2.64000010
   12.30611134   88.85330200    2.30999994    2.66000009
   12.30944443   89.75330353    2.28999996    2.66000009
   12.31277752   81.54979706    2.28999996    2.66000009
   12.31583309   87.87789917    2.26999998    2.66000009
   12.32194424   87.87789917    2.23000002    2.66000009
   12.32611084   82.76370239    2.23000002    2.66000009
   12.32916641   96.51770020    2.21000004    2.67000008
   12.33249950   87.52929688    2.21000004    2.67000008
   12.33555508   87.94799805    2.21000004    2.67000008
   12.33888817   93.47920227    2.21000004    2.67000008
   12.34222221   86.84020233    2.19000006    2.69000006
   12.34527779   89.54489899    2.19000006    2.67000008
   12.34861088   94.24870300    2.19000006    2.67000008
   12.35194492   96.49680328    2.21000004    2.67000008
   12.35444450   92.33599854    2.19000006    2.67000008
   12.35527802   90.47769928    2.21000004    2.67000008
   12.35861111   97.97789764    2.21000004    2.67000008
   12.36472225   97.97789764    2.21000004    2.67000008
   12.36888885   83.59079742    2.23000002    2.66000009
   12.37194443   88.41840363    2.25000000    2.67000008
   12.37527752   89.25630188    2.25000000    2.66000009
   12.37861156   92.63189697    2.26999998    2.66000009
   12.38166714   96.15249634    2.26999998    2.67000008
   12.38500023   97.03119659    2.28999996    2.67000008
   12.38777733   93.34829712    2.28999996    2.67000008
   12.38861084   98.01210022    2.28999996    2.67000008
   12.39194393   99.29820251    2.30999994    2.67000008
   12.39527798   93.98100281    2.32999992    2.66000009
   12.39833355   88.20819855    2.32999992    2.66000009
   12.40166664   89.96620178    2.34999990    2.64000010
   12.40749931   89.96620178    2.36999989    2.67000008
   12.41166592   91.24269867    2.39000010    2.66000009
   12.41499996   91.77680206    2.40000010    2.66000009
   12.41805553   91.18170166    2.39000010    2.66000009
   12.42111111   90.37979889    2.39000010    2.64000010
   12.42166710   84.47619629    2.39000010    2.64000010
   12.42500019   95.76260376    2.36999989    2.64000010
   12.42833328   89.28410339    2.34999990    2.64000010
   12.43138885   98.07029724    2.32999992    2.66000009
   12.43472195  106.44999695    2.30999994    2.67000008
   12.43805599   95.59739685    2.28999996    2.67000008
   12.44111156   94.13880157    2.26999998    2.66000009
   12.44444466   93.88950348    2.25000000    2.69000006
   12.45027733   93.88950348    2.21000004    2.67000008
   12.45444393   90.43250275    2.21000004    2.67000008
   12.45777798   94.03970337    2.19000006    2.67000008
   12.46111107   92.35859680    2.19000006    2.67000008
   12.46416664   96.83850098    2.19000006    2.67000008
   12.46749973   92.10849762    2.19000006    2.67000008
   12.47055531  100.46800232    2.17000008    2.69000006
   12.47388840   88.07019806    2.17000008    2.67000008
   12.47722149  103.42700195    2.17000008    2.67000008
   12.48027706   96.44029999    2.17000008    2.66000009
   12.48361111   96.96730042    2.17000008    2.67000008
   12.48666668   86.44200134    2.17000008    2.67000008
   12.48777771  102.53900146    2.17000008    2.67000008
   12.50833321  102.53900146    2.15000010    2.66000009
   12.51249981   90.43820190    2.17000008    2.67000008
   12.51583290   99.53900146    2.15000010    2.67000008
   12.51888847   90.22419739    2.15000010    2.67000008
   12.52111053   91.60459900    2.15000010    2.67000008
   12.52250004   91.39520264    2.15000010    2.69000006
   12.52583313   88.67749786    2.13000011    2.69000006
   12.52916622   90.76709747    2.15000010    2.69000006
   12.53222179   97.13240051    2.13000011    2.67000008
   12.53555584   89.34390259    2.13000011    2.67000008
   12.53888893   92.58129883    2.13000011    2.67000008
   12.54194450   98.92639923    2.13000011    2.67000008
   12.54527855   98.74639893    2.13000011    2.69000006
   12.55111122   98.74639893    2.13000011    2.67000008
   12.55527782   91.11769867    2.13000011    2.67000008
   12.55861092  106.31800079    2.13000011    2.69000006
   12.56166649   93.48870087    2.13000011    2.69000006
   12.56500053   94.48149872    2.13000011    2.69000006
   12.56833363   90.76159668    2.13000011    2.69000006
   12.57138920   96.99019623    2.15000010    2.69000006
   12.57472229   94.64029694    2.13000011    2.69000006
   12.57805538   97.43280029    2.13000011    2.67000008
   12.58111095   93.48999786    2.13000011    2.69000006
   12.58444405  102.44200134    2.13000011    2.71000004
   12.58749962   90.33290100    2.13000011    2.67000008
   12.58805561   94.37380219    2.13000011    2.69000006
   12.59388828   94.37380219    2.11999989    2.69000006
   12.59805489   98.26899719    2.11999989    2.69000006
   12.60138893   95.56390381    2.11999989    2.69000006
   12.60472298   93.47899628    2.11999989    2.69000006
   12.60777855   83.34989929    2.11999989    2.69000006
   12.61111164  100.15699768    2.09999990    2.67000008
   12.61416721   92.65969849    2.09999990    2.69000006
   12.61750031  100.58799744    2.07999992    2.69000006
   12.62083340  103.40599823    2.07999992    2.69000006
   12.62138939  112.98200226    2.07999992    2.69000006
   12.62444496   96.02700043    2.05999994    2.69000006
   12.62777805   83.00830078    2.05999994    2.69000006
   12.63083363   90.65409851    2.05999994    2.71000004
   12.63694477   90.65409851    2.05999994    2.71000004
   12.64111137   92.28240204    2.03999996    2.69000006
   12.64416695   92.50679779    2.01999998    2.69000006
   12.64750004   90.83139801    2.00000000    2.69000006
   12.65055561   85.25800323    2.00000000    2.71000004
   12.65388870   91.69689941    1.96000004    2.69000006
   12.65472221   96.61799622    1.94000006    2.69000006
   12.65749931  116.13400269    1.89999998    2.69000006
   12.66083336   90.18689728    1.89999998    2.69000006
   12.66388893   98.77880096    1.89999998    2.71000004
   12.66722298   86.89510345    1.91999996    2.71000004
   12.67055607   92.58519745    1.91999996    2.71000004
   12.67361164  104.47100067    1.89999998    2.71000004
   12.67972279  104.47100067    1.91999996    2.71000004
   12.68388939  102.39099884    1.89999998    2.71000004
   12.68694496   91.87580109    1.89999998    2.71000004
   12.68805599   91.00399780    1.88000000    2.71000004
   12.69055557   90.93979645    1.88000000    2.71000004
   12.69388866   95.76770020    1.88000000    2.71000004
   12.69694424   95.89859772    1.89999998    2.71000004
   12.70027733   96.55750275    1.88000000    2.71000004
   12.70361137  103.34600067    1.88000000    2.71000004
   12.70666695   94.53720093    1.89999998    2.69000006
   12.71000004  102.27100372    1.88000000    2.71000004
   12.71305561   95.47619629    1.89999998    2.71000004
   12.71638870   97.63909912    1.88000000    2.71000004
   12.72249985   97.63909912    1.88000000    2.71000004
   12.72666645   99.30740356    1.89999998    2.71000004
   12.72999954   84.40679932    1.89999998    2.71000004
   12.73305511   85.01200104    1.88000000    2.71000004
   12.73638916   95.59529877    1.88000000    2.69000006
   12.73972225   98.46189880    1.88000000    2.71000004
   12.74277782  101.44400024    1.88000000    2.71000004
   12.74611092   97.43800354    1.88000000    2.71000004
   12.74916649   91.80960083    1.88000000    2.71000004
   12.75249958   92.10839844    1.88000000    2.71000004
   12.75472260   97.13289642    1.89999998    2.73000002
   12.75611115  105.98899841    1.89999998    2.73000002
   12.75944424  100.69100189    1.88000000    2.71000004
   12.76527786  100.69100189    1.86000001    2.71000004
   12.76944447   96.17890167    1.86000001    2.71000004
   12.77277756   95.31729889    1.86000001    2.71000004
   12.77583313  108.56999969    1.86000001    2.71000004
   12.77916622   94.35949707    1.83000004    2.71000004
   12.78249931   93.76080322    1.83000004    2.71000004
   12.78555584  100.22200012    1.85000002    2.73000002
   12.78805637   92.54779816    1.85000002    2.73000002
   12.78916740   93.89209747    1.85000002    2.73000002
   12.79250050  103.10099792    1.83000004    2.73000002
   12.79555607   95.21299744    1.83000004    2.71000004
   12.79888916   96.67500305    1.83000004    2.73000002
   12.80194473   97.31919861    1.83000004    2.71000004
   12.80833340   97.31919861    1.83000004    2.73000002
   12.81250000   98.27850342    1.83000004    2.71000004
   12.81555557   94.58699799    1.80999994    2.73000002
   12.81888866   99.75340271    1.80999994    2.73000002
   12.82138920   91.95860291    1.80999994    2.73000002
   12.82250023   94.38110352    1.80999994    2.75000000
   12.82583332   89.04540253    1.78999996    2.73000002
   12.82888889   87.12740326    1.78999996    2.73000002
   12.83222198   87.34290314    1.78999996    2.73000002
   12.83555508   96.30410004    1.78999996    2.71000004
   12.83861065   97.35330200    1.76999998    2.71000004
   12.84194374  103.71900177    1.76999998    2.71000004
   12.84527779   98.32499695    1.75000000    2.73000002
   12.85111141   98.32499695    1.75000000    2.73000002
   12.85527802   98.78070068    1.73000002    2.73000002
   12.85833359   95.15879822    1.75000000    2.73000002
   12.86166668  104.03099823    1.73000002    2.73000002
   12.86500072   93.04989624    1.73000002    2.73000002
   12.86805534   84.11959839    1.73000002    2.73000002
   12.87138939   94.06559753    1.73000002    2.73000002
   12.87444496   92.61710358    1.73000002    2.73000002
   12.87777805   91.13829803    1.73000002    2.73000002
   12.88111115   94.37229919    1.73000002    2.73000002
   12.88416672   93.34970093    1.73000002    2.73000002
   12.88749981   88.83480072    1.73000002    2.73000002
   12.88805580  103.68599701    1.73000002    2.73000002
   12.89388847  103.68599701    1.73000002    2.75000000
   12.89805508   91.39939880    1.71000004    2.73000002
   12.90138817   97.09249878    1.75000000    2.73000002
   12.90444374   96.13140106    1.75000000    2.75000000
   12.90777779   96.95120239    1.75000000    2.75000000
   12.91111088  105.45300293    1.75000000    2.73000002
   12.91416645  101.59999847    1.76999998    2.75000000
   12.91750050   80.87760162    1.76999998    2.73000002
   12.92055607   94.28459930    1.76999998    2.71000004
   12.92138958   92.26190186    1.76999998    2.71000004
   12.92416668   93.18800354    1.76999998    2.75000000
   12.92750072   88.08190155    1.76999998    2.75000000
   12.93083382   95.16780090    1.76999998    2.73000002
   12.93666649   95.16780090    1.76999998    2.73000002
   12.94083309   95.62979889    1.76999998    2.75000000
   12.94416714   95.17559814    1.76999998    2.73000002
   12.94722271   94.94960022    1.76999998    2.73000002
   12.95055580   87.89649963    1.76999998    2.75000000
   12.95388889   95.39479828    1.75000000    2.73000002
   12.95472240   94.46959686    1.75000000    2.73000002
   12.95749950  100.69400024    1.75000000    2.73000002
   12.96083355   91.92600250    1.75000000    2.75000000
   12.96388912   97.76039886    1.76999998    2.73000002
   12.96722221   92.39389801    1.75000000    2.73000002
   12.97055531   93.93419647    1.75000000    2.73000002
   12.97361088   97.03569794    1.75000000    2.75000000
   12.97972202   97.03569794    1.75000000    2.75000000
   12.98388958   83.70749664    1.75000000    2.73000002
   12.98694515  101.75700378    1.71000004    2.73000002
   12.98805618   92.06639862    1.71000004    2.73000002
   12.99055576  105.16500092    1.71000004    2.75000000
   12.99388885   97.33589935    1.69000006    2.73000002
   12.99694443   88.36470032    1.69000006    2.75000000
   13.00027752   94.95649719    1.69000006    2.73000002
   13.00361156   87.68199921    1.69000006    2.73000002
   13.00666714   88.79380035    1.66999996    2.75000000
   13.01000023   92.91089630    1.64999998    2.75000000
   13.01305580   89.74669647    1.64999998    2.75000000
   13.01638889   90.74870300    1.66999996    2.75000000
   13.02250004   90.74870300    1.66999996    2.75000000
   13.02666664   85.85659790    1.64999998    2.73000002
   13.02972221   93.89299774    1.64999998    2.75000000
   13.03305531   90.32360077    1.64999998    2.75000000
   13.03638935   94.52809906    1.64999998    2.75000000
   13.03944492   95.04090118    1.64999998    2.75000000
   13.04277802   94.05780029    1.64999998    2.75000000
   13.04583359  101.06400299    1.64999998    2.73000002
   13.04916668   92.54940033    1.64999998    2.75000000
   13.05249977   87.42649841    1.66999996    2.75000000
   13.05500031   86.72260284    1.64999998    2.73000002
   13.05611134   85.75479889    1.64999998    2.76999998
   13.05944443   96.59490204    1.64999998    2.75000000
   13.06527805   96.59490204    1.64999998    2.75000000
   13.06944466   87.19499969    1.64999998    2.73000002
   13.07277775   84.15039825    1.64999998    2.75000000
   13.07583332   98.51219940    1.63000000    2.75000000
   13.07916641   98.90750122    1.63000000    2.75000000
   13.08222198   98.96970367    1.63000000    2.76999998
   13.08555508   95.00189972    1.63000000    2.75000000
   13.08833313  102.23600006    1.63000000    2.75000000
   13.08916664   95.81030273    1.63000000    2.75000000
   13.09249973   96.27400208    1.63000000    2.75000000
   13.09583282   90.57330322    1.64999998    2.75000000
   13.09888840   97.69650269    1.64999998    2.75000000
   13.10222244   90.93900299    1.64999998    2.76999998
   13.10805607   90.93900299    1.64999998    2.75000000
   13.11222267   90.26629639    1.66999996    2.75000000
   13.11555576   97.85859680    1.64999998    2.75000000
   13.11861134   96.28510284    1.64999998    2.75000000
   13.12166691   82.02780151    1.64999998    2.75000000
   13.12222195   89.13169861    1.64999998    2.75000000
   13.12555599   88.12000275    1.66999996    2.75000000
   13.12861156   93.21820068    1.66999996    2.75000000
   13.13194466   96.71790314    1.66999996    2.76999998
   13.13527775   88.29850006    1.66999996    2.76999998
   13.13833332  101.23500061    1.66999996    2.76999998
   13.14166641   88.41449738    1.66999996    2.76999998
   13.14472198   90.58730316    1.66999996    2.76999998
   13.15111065   90.58730316    1.66999996    2.75000000
   13.15499973  101.53099823    1.66999996    2.75000000
   13.15833282  102.91300201    1.66999996    2.75000000
   13.16166592  109.05200195    1.66999996    2.75000000
   13.16472149  115.09600067    1.66999996    2.75000000
   13.16805553  104.35800171    1.66999996    2.76999998
   13.17138958  102.45400238    1.64999998    2.75000000
   13.17444515   99.69080353    1.64999998    2.75000000
   13.17777824   92.26930237    1.64999998    2.76999998
   13.18111134   91.26290131    1.64999998    2.76999998
   13.18416691   92.72859955    1.64999998    2.75000000
   13.18750000   91.67579651    1.64999998    2.75000000
   13.18833351   98.24880219    1.64999998    2.75000000
   13.19388866   98.24880219    1.64999998    2.75000000
   13.19805527  111.11799622    1.64999998    2.75000000
   13.20138836  100.55300140    1.64999998    2.76999998
   13.20444393  104.05000305    1.64999998    2.76999998
   13.20777798  103.10199738    1.63000000    2.76999998
   13.21083355   92.03910065    1.64999998    2.76999998
   13.21416664  101.35399628    1.64999998    2.75000000
   13.21749973   96.11090088    1.63000000    2.76999998
   13.22055531   90.17299652    1.64999998    2.75000000
   13.22166634  109.49500275    1.63000000    2.75000000
   13.22416592   99.88449860    1.63000000    2.76999998
   13.22749996   94.36930084    1.63000000    2.76999998
   13.23055553   88.12670135    1.63000000    2.76999998
   13.23666668   88.12670135    1.64999998    2.75000000
   13.24083328   91.86730194    1.63000000    2.76999998
   13.24416733  100.32900238    1.63000000    2.76999998
   13.24722290   95.82029724    1.63000000    2.76999998
   13.25055599   97.70349884    1.63000000    2.76999998
   13.25361156   81.30130005    1.64999998    2.75000000
   13.25500011   83.50520325    1.64999998    2.75000000
   13.25722218   88.40360260    1.63000000    2.78999996
   13.26055527   87.02549744    1.63000000    2.75000000
   13.26361084   86.89949799    1.63000000    2.76999998
   13.26694393  100.38200378    1.63000000    2.75000000
   13.27027798   86.13469696    1.63000000    2.76999998
   13.27333355   89.04889679    1.63000000    2.76999998
   13.27944374   89.04889679    1.63000000    2.76999998
   13.28361130  100.62500000    1.63000000    2.76999998
   13.28694534   90.73380280    1.63000000    2.76999998
   13.28833389   88.92330170    1.63000000    2.76999998
   13.29055595   88.71430206    1.63000000    2.76999998
   13.29388905   90.52819824    1.63000000    2.76999998
   13.29722309   98.91280365    1.63000000    2.76999998
   13.30027771   91.92440033    1.61000001    2.76999998
   13.30361176   99.33280182    1.60000002    2.76999998
   13.30666733   96.93530273    1.60000002    2.76999998
   13.31000042   99.83769989    1.60000002    2.78999996
   13.31333351   91.18489838    1.60000002    2.78999996
   13.31638908   95.50789642    1.61000001    2.76999998
   13.32250023   95.50789642    1.63000000    2.76999998
   13.32638836   87.79319763    1.63000000    2.76999998
   13.32972240   91.77449799    1.61000001    2.78999996
   13.33305550   86.83149719    1.61000001    2.76999998
   13.33611107   96.54380035    1.63000000    2.76999998
   13.33944416   94.09960175    1.63000000    2.78999996
   13.34277725   93.23200226    1.61000001    2.76999998
   13.34583282   85.79979706    1.63000000    2.78999996
   13.34916592  103.05799866    1.63000000    2.78999996
   13.35249996  102.73600006    1.61000001    2.76999998
   13.35500050  100.42099762    1.63000000    2.78999996
   13.35611153   87.69319916    1.63000000    2.78999996
   13.35944462  109.68299866    1.63000000    2.78999996
   13.36527824  109.68299866    1.61000001    2.78999996
   13.36944485   97.61019897    1.61000001    2.78999996
   13.37250042  102.66000366    1.60000002    2.76999998
   13.37583351   86.97000122    1.61000001    2.76999998
   13.37916660   90.89880371    1.60000002    2.76999998
   13.38222218   95.53959656    1.60000002    2.78999996
   13.38555527   87.48300171    1.58000004    2.78999996
   13.38833332   93.12370300    1.60000002    2.78999996
   13.38916683   80.25229645    1.60000002    2.78999996
   13.39249992   87.38390350    1.60000002    2.75000000
   13.39583302   98.66419983    1.61000001    2.76999998
   13.39888859   98.74510193    1.61000001    2.78999996
   13.40222168   86.10929871    1.60000002    2.76999998
   13.40805531   86.10929871    1.61000001    2.78999996
   13.41222191   87.83249664    1.60000002    2.78999996
   13.41555500   81.72039795    1.61000001    2.78999996
   13.41861153   87.25910187    1.61000001    2.78999996
   13.42166710   91.46350098    1.60000002    2.78999996
   13.42222214   93.15619659    1.60000002    2.78999996
   13.42555618   91.16719818    1.60000002    2.78999996
   13.42888927   96.67819977    1.60000002    2.76999998
   13.43194485   95.89279938    1.60000002    2.78999996
   13.43527794   92.91239929    1.58000004    2.78999996
   13.43833351   97.90360260    1.60000002    2.76999998
   13.44166660   84.60310364    1.60000002    2.76999998
   13.44499969   91.81269836    1.60000002    2.76999998
   13.45083332   91.81269836    1.60000002    2.78999996
   13.45499992  101.53500366    1.60000002    2.76999998
   13.45833302   86.05069733    1.60000002    2.76999998
   13.46166611   87.12439728    1.60000002    2.76999998
   13.46472168   92.89440155    1.61000001    2.78999996
   13.46805477   91.69899750    1.61000001    2.78999996
   13.47111034   93.62580109    1.60000002    2.76999998
   13.47444439   86.70290375    1.60000002    2.78999996
   13.47777748   90.82740021    1.60000002    2.78999996
   13.48083305   86.45989990    1.60000002    2.78999996
   13.48416710   81.36710358    1.60000002    2.78999996
   13.48750019   87.07289886    1.60000002    2.78999996
   13.48833370   89.61340332    1.58000004    2.78999996
   13.49388885   89.61340332    1.58000004    2.80999994
   13.49777794   86.24770355    1.58000004    2.78999996
   13.50111103   91.05100250    1.55999994    2.78999996
   13.50444412   91.84149933    1.58000004    2.78999996
   13.52194405   81.38040161    1.60000002    2.78999996
   13.52444458   85.25440216    1.60000002    2.76999998
   13.52750015   88.85510254    1.60000002    2.78999996
   13.53083324   91.27390289    1.61000001    2.78999996
   13.53694534   91.27390289    1.61000001    2.78999996
   13.54083347   96.00340271    1.60000002    2.76999998
   13.54416752   92.68309784    1.61000001    2.76999998
   13.54750061   95.37689972    1.60000002    2.78999996
   13.55055618   92.88559723    1.60000002    2.78999996
   13.55388927   87.23059845    1.60000002    2.78999996
   13.55527782   87.79100037    1.60000002    2.78999996
   13.55722237  105.48999786    1.60000002    2.78999996
   13.56055546   94.12270355    1.60000002    2.78999996
   13.56388950   98.88610077    1.61000001    2.78999996
   13.56694412   82.30269623    1.61000001    2.78999996
   13.57027817   88.82830048    1.61000001    2.78999996
   13.57361126   89.60910034    1.61000001    2.78999996
   13.57972240   89.60910034    1.61000001    2.78999996
   13.58388901   85.95500183    1.60000002    2.78999996
   13.58694458   92.21119690    1.61000001    2.78999996
   13.58861065   88.67140198    1.61000001    2.78999996
   13.59083271   91.39409637    1.60000002    2.80999994
   13.59388828   79.92199707    1.60000002    2.80999994
   13.59722233   84.69909668    1.61000001    2.78999996
   13.60027790   86.86170197    1.60000002    2.76999998
   13.60361195   92.45719910    1.60000002    2.78999996
   13.60694504   89.37090302    1.60000002    2.76999998
   13.61000061   90.40249634    1.60000002    2.78999996
   13.61333370   89.74909973    1.61000001    2.78999996
   13.61666679   92.67510223    1.61000001    2.78999996
   13.62250042   92.67510223    1.61000001    2.78999996
   13.62666702   92.54589844    1.61000001    2.78999996
   13.62972260   90.78869629    1.61000001    2.78999996
   13.63305569   84.08670044    1.64999998    2.78999996
   13.63638878   94.61350250    1.66999996    2.78999996
   13.63944435   89.81739807    1.75000000    2.76999998
   13.64277744   98.98789978    1.80999994    2.76999998
   13.64611053   89.22450256    1.78999996    2.76999998
   13.64916611   83.80349731    1.89999998    2.76999998
   13.65249920  105.98999786    1.96000004    2.78999996
   13.65527725   94.20220184    2.05999994    2.76999998
   13.65583324   96.36000061    1.98000002    2.76999998
   13.65916634   90.25920105    1.91999996    2.78999996
   13.66527748   90.25920105    1.66999996    2.78999996
   13.66944504   87.83709717    1.63000000    2.80999994
   13.67277813   99.64099884    1.60000002    2.78999996
   13.67583370   92.20790100    1.58000004    2.78999996
   13.67916679   89.63159943    1.55999994    2.78999996
   13.68249989   96.59909821    1.55999994    2.78999996
   13.68555546  101.55200195    1.58000004    2.80999994
   13.68861103   86.07479858    1.55999994    2.78999996
   13.68916702   95.30509949    1.53999996    2.78999996
   13.69250011   90.29740143    1.53999996    2.80999994
   13.69583321   82.40840149    1.55999994    2.78999996
   13.69888878   84.85759735    1.53999996    2.78999996
   13.70222187   85.30840302    1.53999996    2.78999996
   13.70833302   85.30840302    1.53999996    2.78999996
   13.71222210   85.70359802    1.53999996    2.78999996
   13.71555519   92.64679718    1.53999996    2.78999996
   13.71888828   84.30120087    1.51999998    2.80999994
   13.72194386   86.41649628    1.51999998    2.80999994
   13.72249985   91.32649994    1.51999998    2.80999994
   13.72555542   90.72760010    1.51999998    2.80999994
   13.72888851   91.25279999    1.51999998    2.78999996
   13.73194408   78.49410248    1.51999998    2.76999998
   13.73527813   86.22129822    1.51999998    2.80999994
   13.73861122   80.00090027    1.51999998    2.80999994
   13.74166679   91.07520294    1.51999998    2.80999994
   13.74499989   87.27950287    1.51999998    2.78999996
   13.75111103   87.27950287    1.51999998    2.80999994
   13.75527763   92.90070343    1.53999996    2.80999994
   13.75555515   86.00250244    1.53999996    2.80999994
   13.75888920   91.68240356    1.53999996    2.78999996
   13.76222229   91.01029968    1.53999996    2.78999996
   13.76527786   87.43219757    1.53999996    2.80999994
   13.76861095   85.39350128    1.53999996    2.80999994
   13.77194405   92.22029877    1.53999996    2.82999992
   13.77499962   92.13990021    1.53999996    2.78999996
   13.77833271   97.71320343    1.53999996    2.80999994
   13.78166676   88.44290161    1.53999996    2.78999996
   13.78472233   84.88680267    1.53999996    2.78999996
   13.78805637   90.15670013    1.51999998    2.78999996
   13.78861141   90.02339935    1.51999998    2.78999996
   13.79388905   90.02339935    1.51999998    2.78999996
   13.79805565   88.34269714    1.51999998    2.80999994
   13.80138874   88.88809967    1.50000000    2.78999996
   13.80444431   94.08840179    1.48000002    2.80999994
   13.80777836   92.80339813    1.48000002    2.78999996
   13.81083393   90.05049896    1.48000002    2.78999996
   13.81416702   94.65059662    1.48000002    2.80999994
   13.81750011   96.34649658    1.48000002    2.80999994
   13.82055569   94.02790070    1.46000004    2.80999994
   13.82194424   92.02529907    1.46000004    2.80999994
   13.82444477   98.72419739    1.46000004    2.80999994
   13.82750034   94.30020142    1.46000004    2.80999994
   13.83083344   97.25820160    1.46000004    2.82999992
   13.83666611   97.25820160    1.46000004    2.80999994
   13.84083271  102.00000000    1.44000006    2.80999994
   13.84416676   91.26519775    1.44000006    2.80999994
   13.84722233   88.44229889    1.44000006    2.80999994
   13.85055637   82.35230255    1.41999996    2.82999992
   13.85388947   84.55090332    1.41999996    2.80999994
   13.85527802   82.95960236    1.41999996    2.80999994
   13.85750008   85.76589966    1.41999996    2.80999994
   13.86055565   85.90740204    1.41999996    2.80999994
   13.86388969   84.30010223    1.41999996    2.80999994
   13.86694431   81.94000244    1.41999996    2.80999994
   13.87027836   86.28910065    1.41999996    2.80999994
   13.87361145   78.07080078    1.41999996    2.80999994
   13.87972260   78.07080078    1.44000006    2.82999992
   13.88361073   86.86299896    1.41999996    2.80999994
   13.88694477   91.20960236    1.41999996    2.80999994
   13.88861084   91.77140045    1.41999996    2.80999994
   13.89055538   95.65249634    1.44000006    2.80999994
   13.89361095   93.59279633    1.44000006    2.80999994
   13.89694405   90.12779999    1.44000006    2.82999992
   13.89999962   84.64409637    1.44000006    2.80999994
   13.90333271   88.22769928    1.41999996    2.82999992
   13.90666676   95.87180328    1.41999996    2.80999994
   13.90972137   85.29940033    1.41999996    2.80999994
   13.91305542   90.86920166    1.41999996    2.80999994
   13.91638851   83.46910095    1.41999996    2.80999994
   13.92250061   83.46910095    1.41999996    2.80999994
   13.92666721   91.29550171    1.39999998    2.82999992
   13.92972279   90.62560272    1.39999998    2.82999992
   13.93305588  101.01100159    1.39999998    2.82999992
   13.93638897   76.52320099    1.39999998    2.80999994
   13.93944454   84.98549652    1.39999998    2.82999992
   13.94277763   93.85649872    1.39999998    2.80999994
   13.94611073   91.32920074    1.39999998    2.80999994
   13.94916630   88.36239624    1.39999998    2.80999994
   13.95249939   89.26640320    1.39999998    2.82999992
   13.95527744   85.92019653    1.39999998    2.82999992
   13.95611095   87.90160370    1.38000000    2.82999992
   13.95916653   89.94950104    1.38000000    2.82999992
   13.96527767   89.94950104    1.38000000    2.80999994
   13.96944427   82.35929871    1.38000000    2.82999992
   13.97249985   86.79949951    1.38000000    2.82999992
   13.97583294   90.36620331    1.36000001    2.80999994
   13.97916603   90.05349731    1.36000001    2.82999992
   13.98222160   89.57250214    1.36000001    2.80999994
   13.98555565   79.89530182    1.36000001    2.82999992
   13.98861122   84.43029785    1.36000001    2.82999992
   13.98916721   92.09880066    1.36000001    2.82999992
   13.99222279   83.18340302    1.36000001    2.82999992
   13.99555588   76.18900299    1.36000001    2.82999992
   13.99861145   84.43800354    1.36000001    2.80999994
   14.00194454   81.85109711    1.34000003    2.82999992
   14.00805569   81.85109711    1.34000003    2.84999990
   14.01222229   81.71309662    1.33000004    2.84999990
   14.01555538   86.34120178    1.33000004    2.84999990
   14.01861095   88.89600372    1.34000003    2.82999992
   14.02194405   79.76519775    1.34000003    2.82999992
   14.02250004   76.82610321    1.34000003    2.84999990
   14.02555561   85.15740204    1.34000003    2.82999992
   14.02888870   90.30750275    1.34000003    2.82999992
   14.03194427   91.94409943    1.34000003    2.82999992
   14.03527832   82.83170319    1.34000003    2.82999992
   14.03861141   95.96279907    1.34000003    2.82999992
   14.04166698   83.00000000    1.34000003    2.82999992
   14.04500008   92.23359680    1.33000004    2.82999992
   14.05083370   92.23359680    1.30999994    2.82999992
   14.05500031   81.49099731    1.28999996    2.82999992
   14.05555534   84.58200073    1.28999996    2.82999992
   14.05888939   81.93689728    1.28999996    2.84999990
   14.06222248   91.00569916    1.28999996    2.84999990
   14.06527805   87.84799957    1.26999998    2.82999992
   14.06861115   94.72750092    1.26999998    2.82999992
   14.07194424   93.63159943    1.26999998    2.82999992
   14.07499981   89.49040222    1.26999998    2.82999992
   14.07833290   96.22530365    1.26999998    2.82999992
   14.08166695   97.46849823    1.26999998    2.82999992
   14.08472157   99.83059692    1.26999998    2.82999992
   14.08805561   82.67810059    1.26999998    2.84999990
   14.08888817   89.70089722    1.26999998    2.84999990
   14.09388828   89.70089722    1.26999998    2.82999992
   14.09805489   82.08010101    1.26999998    2.82999992
   14.10111141   86.23600006    1.26999998    2.82999992
   14.10444450  103.19699860    1.26999998    2.82999992
   14.10750008   83.54879761    1.26999998    2.82999992
   14.11083412   80.48940277    1.26999998    2.82999992
   14.11416721   88.32039642    1.26999998    2.84999990
   14.11750031   86.37349701    1.26999998    2.82999992
   14.12055588   95.48719788    1.23000002    2.82999992
   14.12222195   96.35690308    1.23000002    2.82999992
   14.12444496   82.07039642    1.25000000    2.82999992
   14.12777805   86.99880219    1.23000002    2.84999990
   14.13083363   80.28890228    1.21000004    2.84999990
   14.13666630   80.28890228    1.23000002    2.84999990
   14.14083290   87.69969940    1.21000004    2.84999990
   14.14388847   81.14050293    1.21000004    2.82999992
   14.14722252   92.71600342    1.21000004    2.82999992
   14.15055561   90.92449951    1.21000004    2.84999990
   14.15361118   88.52330017    1.19000006    2.82999992
   14.15555477   99.38420105    1.19000006    2.84999990
   14.15749931   99.26360321    1.19000006    2.84999990
   14.16083336   96.39420319    1.19000006    2.82999992
   14.16388893   85.36399841    1.19000006    2.84999990
   14.16722298   81.10030365    1.19000006    2.86999989
   14.17027855   87.70829773    1.19000006    2.84999990
   14.17361164   89.45860291    1.16999996    2.82999992
   14.17944431   89.45860291    1.16999996    2.84999990
   14.18361092   90.74210358    1.16999996    2.82999992
   14.18694496   86.53299713    1.14999998    2.84999990
   14.18888855   84.25930023    1.14999998    2.84999990
   14.19055557   93.96769714    1.14999998    2.84999990
   14.19388866   79.79199982    1.14999998    2.84999990
   14.19694424   83.48090363    1.14999998    2.82999992
   14.20027733   85.32399750    1.16999996    2.84999990
   14.20333290   79.90609741    1.19000006    2.84999990
   14.20666695   81.82250214    1.19000006    2.84999990
   14.21000004   84.40930176    1.19000006    2.84999990
   14.21305561   87.87879944    1.19000006    2.82999992
   14.21638870   86.94909668    1.19000006    2.84999990
   14.22249985   86.94909668    1.19000006    2.84999990
   14.22638798   92.23349762    1.19000006    2.84999990
   14.22972202   90.30719757    1.19000006    2.84999990
   14.23305511   84.39520264    1.19000006    2.84999990
   14.23611164   96.19010162    1.21000004    2.84999990
   14.23944473   79.77500153    1.19000006    2.84999990
   14.24250031   83.60289764    1.21000004    2.84999990
   14.24583340   84.40570068    1.19000006    2.84999990
   14.24916649  101.29399872    1.19000006    2.84999990
   14.25222206   91.03500366    1.21000004    2.84999990
   14.25555515   84.22119904    1.19000006    2.84999990
   14.25611115   77.16230011    1.21000004    2.84999990
   14.25944424   93.66860199    1.19000006    2.84999990
   14.26527786   93.66860199    1.21000004    2.84999990
   14.26944447   92.42960358    1.21000004    2.84999990
   14.27250004   87.88430023    1.21000004    2.84999990
   14.27583313   87.42479706    1.21000004    2.84999990
   14.27888870   81.70310211    1.23000002    2.84999990
   14.28222179   84.89489746    1.21000004    2.84999990
   14.28555584   90.18730164    1.23000002    2.86999989
   14.28861141   85.37460327    1.23000002    2.84999990
   14.28944492   79.65429688    1.23000002    2.86999989
   14.29250050   85.37139893    1.23000002    2.84999990
   14.29555607   89.89900208    1.23000002    2.84999990
   14.29888916   87.30819702    1.25000000    2.84999990
   14.30222225   88.81900024    1.25000000    2.84999990
   14.30805588   88.81900024    1.21000004    2.84999990
   14.31222248   87.53150177    1.21000004    2.86999989
   14.31527805   85.83889771    1.21000004    2.84999990
   14.31861115   87.74949646    1.21000004    2.84999990
   14.32194424   84.03309631    1.19000006    2.86999989
   14.32277775   85.97619629    1.19000006    2.86999989
   14.32555580   84.31400299    1.19000006    2.84999990
   14.32861137   86.10130310    1.19000006    2.84999990
   14.33194447   85.89969635    1.19000006    2.84999990
   14.33500004   80.01280212    1.19000006    2.84999990
   14.33833313   85.41149902    1.19000006    2.84999990
   14.34166622   79.52880096    1.19000006    2.86999989
   14.34472179   82.12480164    1.16999996    2.84999990
   14.35083389   82.12480164    1.19000006    2.86999989
   14.35500050   86.56009674    1.16999996    2.84999990
   14.35611153   82.75399780    1.16999996    2.86999989
   14.35888958   89.04239655    1.16999996    2.84999990
   14.36194515   79.66549683    1.14999998    2.84999990
   14.36527824   91.70030212    1.16999996    2.84999990
   14.36833382   80.85820007    1.16999996    2.84999990
   14.37166691   91.54889679    1.14999998    2.84999990
   14.37500000   81.98470306    1.14999998    2.86999989
   14.37805557   84.36129761    1.14999998    2.84999990
   14.38138866   86.36879730    1.14999998    2.84999990
   14.38472176   87.43959808    1.14999998    2.86999989
   14.38777733   79.62049866    1.13000000    2.84999990
   14.38944435   86.70480347    1.13000000    2.84999990
   14.39361095   86.70480347    1.13000000    2.84999990
   14.39777756   83.22519684    1.13000000    2.84999990
   14.40111065   81.36640167    1.11000001    2.84999990
   14.40444374   83.45200348    1.11000001    2.84999990
   14.40749931   92.13970184    1.11000001    2.86999989
   14.41083336   82.04570007    1.11000001    2.84999990
   14.41388893   88.39019775    1.11000001    2.84999990
   14.41722298   89.10209656    1.11000001    2.86999989
   14.42055607   82.43309784    1.11000001    2.84999990
   14.42277813   82.02549744    1.11000001    2.86999989
   14.42416668   89.78379822    1.11000001    2.86999989
   14.42722225   81.26280212    1.11000001    2.86999989
   14.43055630   85.69080353    1.09000003    2.84999990
   14.43666649   85.69080353    1.07000005    2.86999989
   14.44083309   77.41629791    1.07000005    2.84999990
   14.44388866   88.43659973    1.09000003    2.86999989
   14.44722271   89.28890228    1.09000003    2.84999990
   14.45055580   85.11150360    1.07000005    2.86999989
   14.45361137   86.18019867    1.07000005    2.86999989
   14.45611095   84.33399963    1.09000003    2.86999989
   14.45749950   87.63950348    1.09000003    2.84999990
   14.46055508   94.30660248    1.09000003    2.86999989
   14.46388912   82.82769775    1.09000003    2.86999989
   14.46694374   87.38829803    1.09000003    2.84999990
   14.47027779   86.45369720    1.07000005    2.86999989
   14.47361088   83.98899841    1.07000005    2.84999990
   14.47944355   83.98899841    1.07000005    2.86999989
   14.48361111   99.21900177    1.07000005    2.84999990
   14.48666668  103.18599701    1.07000005    2.84999990
   14.48944473   86.67649841    1.07000005    2.84999990
   14.49055576   95.45300293    1.05999994    2.86999989
   14.49361134   87.62390137    1.05999994    2.84999990
   14.49694443   94.28340149    1.05999994    2.84999990
   14.50027752  100.00700378    1.05999994    2.86999989
   14.50333309   91.09880066    1.05999994    2.86999989
   14.50666714   92.39749908    1.05999994    2.86999989
   14.50972176   82.13110352    1.07000005    2.86999989
   14.51305580   82.29190063    1.07000005    2.84999990
   14.51638889   81.15840149    1.07000005    2.84999990
   14.52222157   81.15840149    1.07000005    2.84999990
   14.54055595   80.04190063    1.05999994    2.86999989
   14.54388905   88.23000336    1.05999994    2.86999989
   14.54722309   92.64179993    1.05999994    2.86999989
   14.55027771   86.37039948    1.05999994    2.84999990
   14.55361176   95.40470123    1.05999994    2.86999989
   14.55666733   94.00379944    1.05999994    2.86999989
   14.56000042   87.30829620    1.05999994    2.86999989
   14.56527805   87.30829620    1.05999994    2.86999989
   14.56944466   87.90630341    1.05999994    2.84999990
   14.57277775   89.66539764    1.07000005    2.86999989
   14.57361126   87.03890228    1.07000005    2.86999989
   14.57638836   85.82810211    1.07000005    2.86999989
   14.57972240   94.03759766    1.09000003    2.86999989
   14.58277798   92.96410370    1.07000005    2.86999989
   14.58611107   93.59790039    1.07000005    2.86999989
   14.58944416   91.24009705    1.07000005    2.86999989
   14.59249973   85.01550293    1.07000005    2.86999989
   14.59583282   84.58329773    1.05999994    2.84999990
   14.59888840   85.11029816    1.05999994    2.86999989
   14.60222244   83.79029846    1.07000005    2.89000010
   14.60833359   83.79029846    1.07000005    2.84999990
   14.61222267   92.69830322    1.07000005    2.84999990
   14.61555576   84.16690063    1.05999994    2.86999989
   14.61888885   86.58799744    1.05999994    2.86999989
   14.62194443   84.52999878    1.05999994    2.86999989
   14.62527752   80.34290314    1.03999996    2.84999990
   14.62861156   81.56510162    1.05999994    2.86999989
   14.63166714   82.17189789    1.05999994    2.86999989
   14.63500023   85.54250336    1.03999996    2.86999989
   14.63805580   84.64880371    1.03999996    2.86999989
   14.64027786   83.62539673    1.03999996    2.86999989
   14.64194393   77.90609741    1.03999996    2.86999989
   14.64527798   87.22119904    1.03999996    2.86999989
   14.65111065   87.22119904    1.05999994    2.84999990
   14.65527725   85.61949921    1.05999994    2.86999989
   14.65833282   85.55609894    1.05999994    2.86999989
   14.66166592   86.03970337    1.05999994    2.84999990
   14.66499996   85.75160217    1.05999994    2.86999989
   14.66805553   84.43209839    1.05999994    2.86999989
   14.67138958   84.19940186    1.05999994    2.86999989
   14.67361164   83.29949951    1.05999994    2.86999989
   14.67500019   84.70330048    1.07000005    2.86999989
   14.67833328   88.58100128    1.05999994    2.86999989
   14.68138885   84.65080261    1.07000005    2.86999989
   14.68472195   81.67620087    1.05999994    2.86999989
   14.68805599   83.51429749    1.07000005    2.86999989
   14.69388866   83.51429749    1.07000005    2.84999990
   14.69805527   89.11599731    1.09000003    2.86999989
   14.70138836   90.32140350    1.09000003    2.86999989
   14.70444393   77.53710175    1.09000003    2.86999989
   14.70694447   79.90409851    1.09000003    2.86999989
   14.70805550   81.57240295    1.09000003    2.86999989
   14.71138859   86.08699799    1.07000005    2.86999989
   14.71444416   75.00730133    1.07000005    2.86999989
   14.71777725   76.49909973    1.07000005    2.86999989
   14.72111034   86.61959839    1.07000005    2.86999989
   14.72416592   78.23239899    1.07000005    2.89000010
   14.72749996   78.14810181    1.05999994    2.86999989
   14.73055553   73.84519958    1.05999994    2.86999989
   14.73666668   73.84519958    1.07000005    2.86999989
   14.74083328   86.79109955    1.07000005    2.86999989
   14.74416733   83.33439636    1.09000003    2.86999989
   14.74722290   79.92209625    1.11000001    2.86999989
   14.75055599   78.79319763    1.09000003    2.86999989
   14.75388908   84.73639679    1.11000001    2.86999989
   14.75694466   82.82240295    1.11000001    2.89000010
   14.76027775   80.30639648    1.11000001    2.86999989
   14.76361084   78.82219696    1.11000001    2.86999989
   14.76666641   74.25219727    1.11000001    2.86999989
   14.76999950   77.39880371    1.09000003    2.86999989
   14.77305508   77.65149689    1.09000003    2.86999989
   14.77361107   79.67019653    1.11000001    2.86999989
   14.77972221   79.67019653    1.09000003    2.86999989
   14.78361130   77.44249725    1.09000003    2.86999989
   14.78694534   89.49449921    1.09000003    2.86999989
   14.79027843   82.87480164    1.07000005    2.86999989
   14.79333401   83.44059753    1.07000005    2.86999989
   14.79666710   81.41059875    1.07000005    2.86999989
   14.80000019   78.58519745    1.07000005    2.86999989
   14.80305576   82.69000244    1.09000003    2.86999989
   14.80638885   82.28050232    1.07000005    2.86999989
   14.80694485   85.47540283    1.07000005    2.86999989
   14.81000042   77.68779755    1.09000003    2.86999989
   14.81333351   79.57340240    1.09000003    2.86999989
   14.81638908   81.88980103    1.09000003    2.86999989
   14.82250023   81.88980103    1.09000003    2.86999989
   14.82666683   77.77860260    1.09000003    2.86999989
   14.82972240   76.68229675    1.07000005    2.86999989
   14.83305550   86.43789673    1.07000005    2.86999989
   14.83638859   90.49459839    1.07000005    2.86999989
   14.83944416   76.55740356    1.07000005    2.86999989
   14.84027767   87.99909973    1.07000005    2.86999989
   14.84305477   83.85469818    1.09000003    2.86999989
   14.84638882   81.18509674    1.07000005    2.86999989
   14.84944439   84.18669891    1.07000005    2.86999989
   14.85277843   78.62039948    1.07000005    2.86999989
   14.85611153   79.89559937    1.05999994    2.86999989
   14.85916710   81.90090179    1.05999994    2.86999989
   14.86527824   81.90090179    1.07000005    2.86999989
   14.86944485   83.24050140    1.07000005    2.86999989
   14.87277794   80.51580048    1.05999994    2.86999989
   14.87361145   83.80799866    1.05999994    2.86999989
   14.87638855   81.56030273    1.05999994    2.86999989
   14.87972260   82.34089661    1.00000000    2.86999989
   14.88277817   90.56770325    1.00000000    2.89000010
   14.88611126   78.57679749    1.00000000    2.89000010
   14.88944435   90.85430145    1.07000005    2.91000009
   14.89249992   92.48829651    1.07000005    2.91000009
   14.89583302   83.14309692    1.14999998    2.91000009
   14.89916611   75.06790161    1.23000002    2.86999989
   14.90222168   82.69840240    1.05999994    2.86999989
   14.90805531   82.69840240    1.07000005    2.89000010
   14.91222191   79.12210083    1.11000001    2.89000010
   14.91555500   84.75869751    1.00000000    2.89000010
   14.91861153   81.07369995    1.00000000    2.89000010
   14.92194462   82.20429993    1.00000000    2.89000010
   14.92527771   84.50679779    1.01999998    2.89000010
   14.92833328   81.62359619    1.96000004    2.93000007
   14.93166733   79.23590088    4.90999985    2.93000007
   14.93472195   77.54519653    4.90999985    2.94000006
   14.93805599   80.28389740    4.90999985    2.94000006
   14.94166660   -1.00000000    4.90999985    2.42000008
   14.94472218   -1.00000000    4.90999985    0.56999999
   14.95083332   -1.00000000    4.90999985    0.83999997
   14.95499992   80.87049866    4.90999985    2.94000006
   14.95833302   86.58300018    2.82999992    2.91000009
   14.96166611   80.16480255    4.90999985    2.91000009
   14.96472168   86.08100128    4.26999998    2.91000009
   14.96805477   87.07109833    4.90999985    2.93000007
   14.97111034   93.19660187    4.90999985    2.73000002
   14.97388840   81.05590057    4.90999985    1.91999996
   14.97472191  128.59899902    4.90999985    2.30999994
   14.97805500  168.01600647    4.90999985    0.89999998
   14.98111057   -1.00000000    4.90999985    0.31999999
   14.98444462  144.35899353    4.90999985    0.44000000
   14.98777771   72.90180206    4.90999985    0.64999998
   14.99388885   72.90180206    1.01999998    2.86999989
   14.99805546   94.78659821    1.00000000    2.86999989
   15.00111103   85.54170227    1.00000000    2.86999989
   15.00444412   82.24240112    1.00000000    2.86999989
   15.00722218   93.28260040    1.00000000    2.86999989
   15.00805569   87.69809723    1.00000000    2.86999989
   15.01138878   79.31999969    1.00000000    2.86999989
   15.01444435   79.86080170    1.00000000    2.86999989
   15.01777744   78.88760376    1.01999998    2.86999989
   15.02111053   77.28679657    1.01999998    2.86999989
   15.02416611   80.69090271    1.01999998    2.86999989
   15.02750015   86.48970032    1.01999998    2.86999989
   15.03083324   75.63529968    1.01999998    2.86999989
   15.03666687   75.63529968    1.00000000    2.86999989
   15.04083347   81.55120087    1.00000000    2.86999989
   15.04388905   81.46479797    0.98000002    2.86999989
   15.04722309   79.02200317    0.98000002    2.89000010
   15.05055618   83.43160248    0.95999998    2.89000010
   15.05361176   82.18240356    0.95999998    2.89000010
   15.05694485   83.49500275    0.95999998    2.91000009
   15.06027794   77.74590302    0.95999998    2.89000010
   15.06333351   85.71530151    0.95999998    2.89000010
   15.06666660   80.11100006    0.95999998    2.89000010
   15.06972218   79.20880127    0.95999998    2.89000010
   15.07305527   76.84770203    0.94000000    2.89000010
   15.07388878   81.39260101    0.94000000    2.89000010
   15.07944393   81.39260101    0.94000000    2.89000010
   15.08361053   81.03099823    0.94000000    2.89000010
   15.08694458   78.52179718    0.94000000    2.89000010
   15.09000015   76.10089874    0.94000000    2.89000010
   15.09333324   86.00060272    0.94000000    2.86999989
   15.09666634   87.41799927    0.94000000    2.89000010
   15.09972191   82.86810303    0.94000000    2.89000010
   15.10305595   82.68959808    0.94000000    2.89000010
   15.10611153   82.79199982    0.94000000    2.89000010
   15.10722256   86.33450317    0.94000000    2.89000010
   15.10972214   83.94470215    0.92000002    2.91000009
   15.11305618   80.72560120    0.92000002    2.89000010
   15.11638927   83.91390228    0.92000002    2.89000010
   15.12222195   83.91390228    0.92000002    2.89000010
   15.12638855   78.44129944    0.89999998    2.89000010
   15.12972260   82.44429779    0.94000000    2.89000010
   15.13305569   86.92440033    0.94000000    2.89000010
   15.13611126   91.54989624    0.94000000    2.89000010
   15.13944435   89.42479706    0.94000000    2.89000010
   15.14055538   80.79109955    0.94000000    2.89000010
   15.14305496   82.40360260    0.95999998    2.86999989
   15.14638901   87.40129852    0.95999998    2.89000010
   15.14972210   81.21040344    0.95999998    2.89000010
   15.15277767   87.16259766    0.95999998    2.89000010
   15.15611076   81.28009796    0.95999998    2.89000010
   15.15916634   81.71179962    0.95999998    2.89000010
   15.16527748   81.71179962    0.95999998    2.89000010
   15.16944504   78.51640320    0.98000002    2.89000010
   15.17250061   77.09629822    0.98000002    2.91000009
   15.17388916   77.34809875    0.98000002    2.91000009
   15.17611122   85.64250183    0.98000002    2.89000010
   15.17944431   86.59809875    1.66999996    2.86999989
   15.18277836  103.63500214    1.07000005    2.80999994
   15.18583298   85.33640289    2.00000000    2.86999989
   15.18916702   83.29129791    1.30999994    2.86999989
   15.19222260   83.71929932    1.01999998    2.86999989
   15.19555569   80.31259918    1.01999998    2.89000010
   15.19888878   75.93869781    1.00000000    2.89000010
   15.20194435   89.15930176    0.98000002    2.91000009
   15.20805550   89.15930176    1.38000000    2.93000007
   15.21222210   86.27610016    3.86999989    2.93000007
   15.21527767   84.91049957    3.09999990    2.93000007
   15.21861076   85.79060364    1.09000003    2.93000007
   15.22194386   81.79640198    1.01999998    2.91000009
   15.22499943   80.42880249    0.95999998    2.89000010
   15.22833252   86.35929871    0.95999998    2.89000010
   15.23166656   78.22119904    0.95999998    2.89000010
   15.23472214   79.00730133    0.95999998    2.89000010
   15.23805618   81.44619751    0.98000002    2.86999989
   15.24055576   85.23519897    0.98000002    2.86999989
   15.24166679   83.74729919    0.98000002    2.89000010
   15.24499989   77.37259674    0.95999998    2.89000010
   15.25083351   77.37259674    0.98000002    2.86999989
   15.25500011   78.66999817    0.95999998    2.89000010
   15.25833321   88.22769928    0.95999998    2.89000010
   15.26138878   76.17389679    0.95999998    2.89000010
   15.26472187   81.23210144    0.95999998    2.89000010
   15.26805496   86.15419769    0.95999998    2.89000010
   15.27111053   80.46420288    0.95999998    2.89000010
   15.27388859   80.30930328    0.94000000    2.86999989
   15.27472210   88.22570038    0.94000000    2.86999989
   15.27805519   80.33280182    0.94000000    2.89000010
   15.28138828   77.53730011    0.94000000    2.89000010
   15.28444481   79.82980347    0.94000000    2.91000009
   15.28777790   80.48249817    0.94000000    2.89000010
   15.29361153   80.48249817    0.92000002    2.89000010
   15.29777813   77.32790375    0.89999998    2.89000010
   15.30111122   76.87370300    0.92000002    2.89000010
   15.30444431   79.89800262    0.89999998    2.91000009
   15.30722237   82.77279663    0.89999998    2.89000010
   15.30777836   74.35880280    0.89999998    2.89000010
   15.31111145   76.77439880    0.88000000    2.91000009
   15.31444454   79.99420166    0.88000000    2.89000010
   15.31750011   87.17070007    0.88000000    2.91000009
   15.32083321   81.00350189    0.88000000    2.91000009
   15.32388878   76.24040222    0.88000000    2.89000010
   15.32722187   79.44550323    0.88000000    2.91000009
   15.33055592   81.17990112    0.89999998    2.91000009
   15.43583298   -1.00000000   -1.00000000   -1.00000000
   15.53277779   -1.00000000   -1.00000000   -1.00000000
   15.63833332   -1.00000000   -1.00000000   -1.00000000
   15.75416660   87.97319794    0.86000001    2.89000010
   15.75749969   84.86650085    0.86000001    2.89000010
   15.76055527   85.86119843    0.86000001    2.89000010
   15.76388931   88.60009766    0.86000001    2.89000010
   15.76722240   83.52719879    0.86000001    2.89000010
   15.77027798   76.69969940    0.88000000    2.89000010
   15.77444458   76.69969940    0.88000000    2.91000009
   15.77861118   87.85009766    0.88000000    2.91000009
   15.78194427   80.08719635    0.88000000    2.89000010
   15.78500080   84.77330017    0.88000000    2.89000010
   15.78750038   86.64099884    0.88000000    2.89000010
   15.78861141   85.59719849    0.88000000    2.91000009
   15.79194450   83.40599823    0.88000000    2.89000010
   15.79527855   81.98860168    0.88000000    2.89000010
   15.79833412   85.69809723    0.88000000    2.89000010
   15.80166721   85.81240082    0.88000000    2.89000010
   15.80500031   77.60579681    0.88000000    2.89000010
   15.80805588   77.20089722    0.88000000    2.91000009
   15.81138897   81.19519806    0.88000000    2.89000010
   15.81722260   81.19519806    0.86000001    2.89000010
   15.82138920   87.44960022    0.86000001    2.91000009
   15.82472229   85.12439728    0.83999997    2.91000009
   15.82805538   75.74210358    0.83999997    2.91000009
   15.83111095   76.91449738    0.86000001    2.91000009
   15.83444405   80.64070129    0.83999997    2.89000010
   15.83749962   79.25730133    0.83999997    2.91000009
   15.84083271   76.78489685    0.83999997    2.91000009
   15.84416676   84.63210297    0.83999997    2.91000009
   15.84722233   78.38410187    0.83999997    2.91000009
   15.85055637   73.20600128    0.83999997    2.89000010
   15.85388947   75.71299744    0.83999997    2.89000010
   15.85416698   84.90080261    0.83999997    2.91000009
   15.86027813   84.90080261    0.83999997    2.89000010
   15.86444473   80.32250214    0.83999997    2.91000009
   15.86750031   76.28720093    0.83999997    2.91000009
   15.87083340   83.12429810    0.83999997    2.91000009
   15.87388897   83.60790253    0.83999997    2.91000009
   15.87722206   77.86669922    0.83999997    2.89000010
   15.88055611   76.60220337    0.83999997    2.93000007
   15.88361073   85.02059937    0.83999997    2.93000007
   15.88694477   80.64170074    0.81999999    2.91000009
   15.88749981   84.05609894    0.81999999    2.91000009
   15.89055538   81.11530304    0.83999997    2.91000009
   15.89388847   83.47339630    0.83999997    2.91000009
   15.89694405   81.47530365    0.83999997    2.91000009
   15.90305519   81.47530365    0.86000001    2.91000009
   15.90722179   80.62000275    0.83999997    2.91000009
   15.91027737   85.22200012    0.83999997    2.91000009
   15.91361046   79.42939758    0.81999999    2.91000009
   15.91694450   85.54519653    0.81999999    2.91000009
   15.92000008   80.97010040    0.81999999    2.91000009
   15.92083359   84.47509766    0.81999999    2.91000009
   15.92361164   78.32859802    0.81999999    2.91000009
   15.92694473   83.88729858    0.80000001    2.91000009
   15.93000031   77.16609955    0.81999999    2.91000009
   15.93333340   83.47640228    0.80000001    2.93000007
   15.93666649   81.50689697    0.80000001    2.91000009
   15.93972206   76.67070007    0.80000001    2.91000009
   15.94583321   76.67070007    0.81999999    2.93000007
   15.94999981   84.28209686    0.80000001    2.91000009
   15.95333290   86.72540283    0.81999999    2.91000009
   15.95416641   85.75769806    0.81999999    2.91000009
   15.95694447   80.41729736    0.83999997    2.91000009
   15.96027756   79.08889771    0.81999999    2.91000009
   15.96333313   82.37509918    0.81999999    2.91000009
   15.96666622   79.69270325    0.81999999    2.91000009
   15.96999931   78.57679749    0.83999997    2.91000009
   15.97305489   76.56639862    0.83999997    2.91000009
   15.97638798   78.76380157    0.83999997    2.91000009
   15.97972202   81.09320068    0.83999997    2.91000009
   15.98277760   76.81400299    0.86000001    2.91000009
   15.98861122   76.81400299    0.83999997    2.91000009
   15.99277782   82.65730286    0.86000001    2.91000009
   15.99611092   80.90499878    0.83999997    2.89000010
   15.99944496   74.53079987    0.86000001    2.91000009
   16.00250053   73.93360138    0.86000001    2.91000009
   16.00583267   77.24449921    0.86000001    2.91000009
   16.00916672   80.48400116    0.86000001    2.91000009
   16.01222229   76.15650177    0.86000001    2.91000009
   16.01555634   81.70410156    0.86000001    2.91000009
   16.01888847   81.66280365    0.83999997    2.89000010
   16.02111053   81.38249969    0.83999997    2.91000009
   16.02222252   90.86419678    0.83999997    2.91000009
   16.02555466   88.98739624    0.81999999    2.91000009
   16.03166580   88.98739624    0.81999999    2.91000009
   16.03583336   87.09860229    0.83999997    2.91000009
   16.03888893   85.53949738    0.83999997    2.91000009
   16.04222107   89.20379639    0.83999997    2.91000009
   16.04527664   85.66850281    0.83999997    2.91000009
   16.04861069   75.90059662    0.86000001    2.91000009
   16.05194283   78.06169891    0.88000000    2.91000009
   16.05444336   78.91629791    0.86000001    2.91000009
   16.05555534   78.53060150    0.88000000    2.89000010
   16.05888748   73.92459869    0.88000000    2.91000009
   16.06194305   77.45629883    0.86000001    2.93000007
   16.06527710   75.02989960    0.88000000    2.91000009
   16.06861115   80.47689819    0.88000000    2.91000009
   16.07444572   80.47689819    0.86000001    2.91000009
   16.07861137   75.17539978    0.88000000    2.91000009
   16.08166695   76.41310120    2.09999990    2.94000006
   16.08500099   76.87370300    2.78999996    2.94000006
   16.08777809   77.76730347    3.36999989    2.94000006
   16.08861160   79.82640076    2.71000004    2.96000004
   16.09194565   78.51760101    4.90999985    2.96000004
   16.09500122   -1.00000000    4.90999985    2.78999996
   16.09833336   -1.00000000    4.90999985    0.52999997
   16.10166740   -1.00000000    4.90999985    0.11000000
   16.10472298   -1.00000000    4.90999985    0.11000000
   16.10805511   -1.00000000    4.90999985    0.13000000
   16.11138916   -1.00000000    4.90999985    0.20999999
   16.12138939   -1.00000000    3.03999996    0.03000000
   16.12444496   -1.00000000    1.53999996    0.01000000
   16.12777710   -1.00000000    1.61000001    0.01000000
   16.13111115   -1.00000000    1.91999996    0.03000000
   16.13416672   -1.00000000    4.40999985    0.05000000
   16.13750076   -1.00000000    4.90999985    0.05000000
   16.14055634   -1.00000000    4.90999985    0.07000000
   16.14388847   -1.00000000    4.90999985    0.36000001
   16.14722252   -1.00000000    4.90999985    0.09000000
   16.15027809   -1.00000000    4.90999985    0.13000000
   16.15361023   -1.00000000    4.90999985    0.23000000
   16.15999985   -1.00000000    4.90999985    0.73000002
   16.16416550  152.92700195    4.90999985    1.96000004
   16.16749954   87.34670258    4.90999985    2.91000009
   16.17083359   84.51570129    4.90999985    2.98000002
   16.17388916   88.80069733    4.90999985    2.94000006
   16.17722130   80.84159851    3.03999996    2.93000007
   16.18027687   83.33249664    1.07000005    2.91000009
   16.18361092   92.22850037    1.01999998    2.91000009
   16.18694305   82.83499908    0.94000000    2.89000010
   16.18777657   96.71510315    0.94000000    2.89000010
   16.19027710   90.84149933    0.95999998    2.89000010
   16.19361115   87.72280121    0.94000000    2.89000010
   16.19694328   89.74659729    0.94000000    2.89000010
   16.20305634   89.74659729    0.92000002    2.89000010
   16.20722389   86.89240265    0.92000002    2.89000010
   16.21027946   88.72319794    0.92000002    2.89000010
   16.21361160   82.82679749    0.92000002    2.89000010
   16.21666718   73.50360107    0.92000002    2.89000010
   16.22000122   79.73300171    0.92000002    2.91000009
   16.22111130   83.63099670    0.92000002    2.89000010
   16.22361183   87.93740082    0.92000002    2.89000010
   16.22694588   80.57230377    0.92000002    2.89000010
   16.23027802   81.89859772    0.92000002    2.89000010
   16.23333359   80.54979706    0.92000002    2.89000010
   16.23666763   79.57589722    0.92000002    2.91000009
   16.23972321   80.15830231    0.92000002    2.91000009
   16.24583435   80.15830231    0.89999998    2.91000009
   16.25000000   86.02410126    0.92000002    2.89000010
   16.25333405   81.24590302    0.92000002    2.89000010
   16.25444412   89.35330200    0.92000002    2.89000010
   16.25666618   88.83039856    0.89999998    2.89000010
   16.26000023   84.36820221    0.89999998    2.89000010
   16.26333427   87.07399750    0.89999998    2.89000010
   16.26638794   85.17880249    0.89999998    2.91000009
   16.26972198   80.65350342    0.89999998    2.89000010
   16.27277756   83.71569824    0.89999998    2.89000010
   16.27611160   86.18329620    0.88000000    2.91000009
   16.27944374   80.61509705    0.88000000    2.89000010
   16.28249931   82.40940094    0.88000000    2.89000010
   16.28861046   82.40940094    0.88000000    2.91000009
   16.29277802   85.50430298    0.88000000    2.91000009
   16.29611015   78.04940033    0.88000000    2.91000009
   16.29916573   79.28669739    0.88000000    2.91000009
   16.30249977   86.90470123    0.88000000    2.91000009
   16.30583191   88.19770050    0.88000000    2.89000010
   16.30888748   82.90290070    0.88000000    2.91000009
   16.31222153   81.52709961    0.88000000    2.91000009
   16.31527710   88.48860168    0.88000000    2.89000010
   16.31861115   83.93419647    0.89999998    2.89000010
   16.32111168   84.86289978    0.89999998    2.89000010
   16.32222366   83.91960144    0.89999998    2.89000010
   16.32555580   82.66349792    0.92000002    2.91000009
   16.33139038   82.66349792    0.89999998    2.91000009
   16.33583450   83.70050049    0.89999998    2.89000010
   16.33889008   85.20690155    0.92000002    2.89000010
   16.34222221   83.40660095    0.94000000    2.89000010
   16.34555626   80.43750000    0.94000000    2.91000009
   16.34861183   80.30909729    0.94000000    2.91000009
   16.35194397   79.63510132    0.94000000    2.91000009
   16.35444450   82.65630341    0.94000000    2.91000009
   16.35555649   83.66680145    0.94000000    2.89000010
   16.35888863   80.82109833    0.92000002    2.91000009
   16.36222267   81.39499664    0.92000002    2.89000010
   16.36527824   81.99849701    0.92000002    2.89000010
   16.36861038   81.56459808    0.92000002    2.89000010
   16.37444496   81.56459808    0.89999998    2.91000009
   16.37833405   79.87159729    0.89999998    2.91000009
   16.38166618   81.08119965    0.88000000    2.89000010
   16.38500023   81.33020020    0.88000000    2.91000009
   16.38777733   85.18139648    0.88000000    2.91000009
   16.38861084   87.55280304    0.88000000    2.91000009
   16.39194489   84.16449738    0.86000001    2.91000009
   16.39500046   82.05989838    0.88000000    2.91000009
   16.39833260   83.23090363    0.86000001    2.91000009
   16.40166664   82.16809845    0.86000001    2.91000009
   16.40472221   81.62329865    0.86000001    2.91000009
   16.40805435   83.54270172    0.83999997    2.91000009
   16.41138840   80.67579651    0.83999997    2.91000009
   16.41722107   80.67579651    0.86000001    2.91000009
   16.42138863   79.53029633    0.86000001    2.93000007
   16.42444420   90.51860046    0.86000001    2.91000009
   16.42777634   82.89019775    0.86000001    2.91000009
   16.43111038   85.33149719    0.86000001    2.91000009
   16.43416595   75.55760193    0.86000001    2.89000010
   16.43750000   78.59470367    0.86000001    2.89000010
   16.44083214   80.15290070    0.86000001    2.91000009
   16.44388771   73.82839966    0.86000001    2.91000009
   16.44722176   78.12270355    0.86000001    2.91000009
   16.45055580   73.90370178    0.88000000    2.93000007
   16.45361137   78.37239838    0.88000000    2.91000009
   16.45444489   75.41329956    0.88000000    2.91000009
   16.46000099   75.41329956    0.88000000    2.91000009
   16.46416664   78.10729980    0.88000000    2.91000009
   16.46750069   79.10410309    0.88000000    2.91000009
   16.47055626   80.77649689    0.88000000    2.91000009
   16.47389030   79.27580261    0.88000000    2.91000009
   16.47722244   83.65920258    0.88000000    2.93000007
   16.48027802   76.59480286    0.88000000    2.91000009
   16.48361206   72.45670319    0.86000001    2.91000009
   16.48666763   77.01840210    0.86000001    2.91000009
   16.48777771   76.77110291    0.86000001    2.91000009
   16.49027824   78.39309692    0.83999997    2.91000009
   16.49361229   75.81259918    0.83999997    2.93000007
   16.49694443   79.36660004    0.83999997    2.93000007
   16.50277710   79.36660004    0.81999999    2.93000007
   16.50694466   76.80629730    0.81999999    2.93000007
   16.51027870   80.44280243    0.81999999    2.93000007
   16.51361084   82.11319733    0.81999999    2.91000009
   16.51666641   77.44059753    0.81999999    2.93000007
   16.52000046   75.77619934    0.83999997    2.93000007
   16.52111053   78.00890350    0.83999997    2.93000007
   16.52333260   77.94509888    0.83999997    2.93000007
   16.52666664   84.29039764    0.83999997    2.93000007
   16.53000069   79.13410187    0.83999997    2.91000009
   16.53305435   75.83609772    0.83999997    2.91000009
   16.53638840   75.20159912    0.81999999    2.91000009
   16.53972244   77.58239746    0.81999999    2.91000009
   16.54583359   77.58239746    0.81999999    2.91000009
   16.54999924   77.69730377    0.81999999    2.91000009
   16.55305481   77.82420349    0.81999999    2.91000009
   16.55444336   79.96379852    0.81999999    2.91000009
   16.55666542   81.71209717    0.81999999    2.93000007
   16.55999947   77.42790222    0.81999999    2.93000007
   16.56333351   76.63400269    0.80000001    2.91000009
   16.56638718   76.97889709    0.80000001    2.89000010
   16.56972313   82.89199829    0.80000001    2.93000007
   16.57305717   85.10769653    0.80000001    2.93000007
   16.57611275   88.24140167    0.80000001    2.93000007
   16.57944489   78.57270050    0.80000001    2.93000007
   16.58250046   82.44280243    0.81999999    2.91000009
   16.58861160   82.44280243    0.81999999    2.93000007
   16.59277916   78.35479736    0.80000001    2.93000007
   16.59583473   75.48310089    0.80000001    2.93000007
   16.59916687   76.20179749    0.80000001    2.91000009
   16.60250092   74.64589691    0.80000001    2.93000007
   16.60555649   78.91619873    0.79000002    2.91000009
   16.60888863   80.81510162    0.79000002    2.91000009
   16.61222267   79.19960022    0.79000002    2.93000007
   16.61527824   76.40879822    0.79000002    2.93000007
   16.61861038   79.79309845    0.79000002    2.93000007
   16.62111092   84.90910339    0.79000002    2.93000007
   16.62194443   80.88749695    0.79000002    2.93000007
   16.62527847   82.56780243    0.79000002    2.93000007
   16.63138962   82.56780243    0.79000002    2.91000009
   16.63555527   87.41110229    0.76999998    2.93000007
   16.63888931   82.37229919    0.76999998    2.93000007
   16.64194489   77.57140350    0.75000000    2.91000009
   16.64527702   80.75070190    0.75000000    2.93000007
   16.64861107   85.06790161    0.75000000    2.93000007
   16.65166664   80.03569794    0.75000000    2.93000007
   16.65444374   80.39589691    0.75000000    2.91000009
   16.65527725   83.22579956    0.75000000    2.91000009
   16.65861130   83.80280304    0.75000000    2.93000007
   16.66194344   83.17780304    0.76999998    2.93000007
   16.66499901   80.12239838    0.76999998    2.93000007
   16.66833305   84.14279938    0.75000000    2.93000007
   16.67416573   84.14279938    0.75000000    2.93000007
   16.67833328   81.01249695    0.75000000    2.93000007
   16.68166542   76.70709991    0.75000000    2.93000007
   16.68472099   75.73149872    0.75000000    2.93000007
   16.68777657   82.14920044    0.75000000    2.93000007
   16.68833160   80.36810303    0.75000000    2.93000007
   16.69166565   78.73840332    0.76999998    2.93000007
   16.69499969   73.51570129    0.79000002    2.93000007
   16.69805527   77.54759979    0.80000001    2.93000007
   16.70138931   83.50430298    0.80000001    2.93000007
   16.70472336   77.92530060    0.80000001    2.93000007
   16.70777893   74.24559784    0.80000001    2.91000009
   16.71111107   74.69850159    0.80000001    2.91000009
   16.71722221   74.69850159    0.80000001    2.91000009
   16.72138977   81.24960327    0.80000001    2.93000007
   16.72444534   80.63970184    0.80000001    2.91000009
   16.72777748   81.72810364    0.81999999    2.93000007
   16.73083305   83.61779785    0.80000001    2.93000007
   16.73416710   76.95310211    0.80000001    2.93000007
   16.73750114   85.99800110    0.81999999    2.93000007
   16.74055672   81.83260345    0.80000001    2.93000007
   16.74388885   83.36720276    0.80000001    2.91000009
   16.74694443   82.21880341    0.81999999    2.91000009
   16.75027847   86.45719910    0.81999999    2.91000009
   16.75361061   76.72959900    0.81999999    2.91000009
   16.75444412   82.48400116    0.81999999    2.93000007
   16.77499962   82.48400116    0.83999997    2.91000009
   16.77916718   74.24819946    0.81999999    2.93000007
   16.78249931   87.17759705    0.83999997    2.93000007
   16.78555489   84.51470184    0.81999999    2.91000009
   16.78777695   81.20629883    0.81999999    2.91000009
   16.78944397   82.61319733    0.81999999    2.91000009
   16.79249954   81.34510040    0.81999999    2.93000007
   16.79583359   80.56809998    0.80000001    2.93000007
   16.79916573   84.24639893    0.80000001    2.91000009
   16.80222130   80.86830139    0.79000002    2.91000009
   16.80555534   83.87190247    0.79000002    2.93000007
   16.80861092   80.30359650    0.79000002    2.93000007
   16.81194305   81.83899689    0.79000002    2.93000007
   16.81777954   81.83899689    0.79000002    2.91000009
   16.82194519   83.67620087    0.76999998    2.93000007
   16.82527924   78.64019775    0.76999998    2.93000007
   16.82833481   78.34980011    0.76999998    2.93000007
   16.83166695   73.83950043    0.76999998    2.93000007
   16.83500099   77.19750214    0.79000002    2.93000007
   16.83833313   75.98580170    0.79000002    2.93000007
   16.84138870   78.07080078    0.79000002    2.93000007
   16.84472275   79.70559692    0.79000002    2.93000007
   16.84777832   74.99430084    0.80000001    2.93000007
   16.85111237   74.56020355    0.80000001    2.93000007
   16.85444450   80.19589996    0.81999999    2.93000007
   16.85472298   77.40609741    0.81999999    2.93000007
   16.86055565   77.40609741    0.80000001    2.91000009
   16.86472321   80.81739807    0.80000001    2.93000007
   16.86805534   80.14929962    0.80000001    2.93000007
   16.87111092   80.40110016    0.81999999    2.91000009
   16.87444496   79.67410278    0.81999999    2.91000009
   16.87777710   80.77940369    0.81999999    2.91000009
   16.88083267   78.81230164    0.81999999    2.91000009
   16.88416672   79.04290009    0.81999999    2.91000009
   16.88750076   81.39739990    0.81999999    2.91000009
   16.88805580   78.92549896    0.81999999    2.91000009
   16.89111137   79.96970367    0.81999999    2.91000009
   16.89444351   86.57170105    0.81999999    2.91000009
   16.89749908   85.84989929    0.81999999    2.91000009
   16.90361023   85.84989929    0.81999999    2.91000009
   16.90749931   78.75730133    0.81999999    2.91000009
   16.91083336   83.98069763    0.81999999    2.91000009
   16.91416550   83.11100006    0.81999999    2.91000009
   16.91722107   73.63050079    0.81999999    2.91000009
   16.92055511   81.71080017    0.81999999    2.91000009
   16.92138863   81.55919647    0.81999999    2.91000009
   16.92416573   78.47239685    0.81999999    2.91000009
   16.92749977   77.94180298    0.81999999    2.91000009
   16.93055534   77.89689636    0.81999999    2.91000009
   16.93388748   82.12090302    0.81999999    2.91000009
   16.93722153   74.92259979    0.81999999    2.91000009
   16.94027710   79.01409912    0.81999999    2.91000009
   16.94638824   79.01409912    0.81999999    2.91000009
   16.95055580   87.63020325    0.81999999    2.91000009
   16.95361137   79.44159698    0.81999999    2.91000009
   16.95472336   76.63870239    0.81999999    2.91000009
   16.95722389   81.21980286    0.81999999    2.91000009
   16.96055603   78.08180237    0.81999999    2.91000009
   16.96361160   87.27050018    0.81999999    2.91000009
   16.96694565   76.86299896    0.81999999    2.91000009
   16.97027779   81.59750366    0.81999999    2.91000009
   16.97333336   84.07129669    0.81999999    2.91000009
   16.97666740   84.17639923    0.81999999    2.91000009
   16.98000145   82.71289825    0.81999999    2.91000009
   16.98305511   75.64119720    0.81999999    2.91000009
   16.98916626   75.64119720    0.81999999    2.91000009
   16.99333382   75.96820068    0.81999999    2.91000009
   16.99638939   80.50370026    0.81999999    2.91000009
   16.99972153   82.67690277    0.81999999    2.91000009
   17.00305557   78.32240295    0.81999999    2.91000009
   17.00611115   73.86660004    0.81999999    2.91000009
   17.00944519   83.45839691    0.81999999    2.91000009
   17.01277733   80.79579926    0.81999999    2.91000009
   17.01583290   73.82129669    0.81999999    2.91000009
   17.01916695   80.42440033    0.81999999    2.91000009
   17.02138901   76.83809662    0.81999999    2.91000009
   17.02277756   84.07569885    0.81999999    2.91000009
   17.02611160   82.12920380    0.81999999    2.91000009
   17.03194427   82.12920380    0.81999999    2.91000009
   17.03610992   74.04579926    0.81999999    2.91000009
   17.03944397   78.93309784    0.81999999    2.91000009
   17.04277802   79.44920349    0.81999999    2.91000009
   17.04583359   81.17030334    0.81999999    2.91000009
   17.04916573   82.51899719    0.81999999    2.91000009
   17.05222130   79.16570282    0.81999999    2.91000009
   17.05472183   80.87930298    0.81999999    2.91000009
   17.05583191   84.81900024    0.81999999    2.91000009
   17.05916595   83.19339752    0.81999999    2.91000009
   17.06222153   87.39830017    0.81999999    2.91000009
   17.06555557   83.48719788    0.81999999    2.91000009
   17.06888962   80.21089935    0.81999999    2.91000009
   17.07500076   80.21089935    0.81999999    2.91000009
   17.07888985   79.71839905    0.81999999    2.91000009
   17.08222389   80.69719696    0.81999999    2.91000009
   17.08555603   80.97640228    0.81999999    2.91000009
   17.08805656   77.23010254    0.81999999    2.91000009
   17.08889008   84.85179901    0.81999999    2.91000009
   17.09222221   85.03040314    0.81999999    2.91000009
   17.09527779   84.16190338    0.81999999    2.91000009
   17.09861183   79.27059937    0.81999999    2.91000009
   17.10194397   78.71549988    0.81999999    2.91000009
   17.10499954   77.46920013    0.81999999    2.91000009
   17.10833359   78.18240356    0.81999999    2.91000009
   17.11166763   79.20290375    0.81999999    2.91000009
   17.11777878   79.20290375    0.81999999    2.91000009
   17.12194443   78.56099701    0.81999999    2.91000009
   17.12500000   81.95700073    0.81999999    2.91000009
   17.12833405   83.25910187    0.81999999    2.91000009
   17.13138962   88.89880371    0.81999999    2.91000009
   17.13472176   80.35880280    0.81999999    2.91000009
   17.13805580   78.33719635    0.81999999    2.91000009
   17.14111137   76.02429962    0.81999999    2.91000009
   17.14444351   75.30149841    0.81999999    2.91000009
   17.14777756   74.25769806    0.81999999    2.91000009
   17.15083313   77.03410339    0.81999999    2.91000009
   17.15416718   74.59619904    0.81999999    2.91000009
   17.15472221   75.26679993    0.81999999    2.91000009
   17.16055489   75.26679993    0.81999999    2.91000009
   17.16472244   81.21130371    0.81999999    2.91000009
   17.16805458   83.04779816    0.81999999    2.91000009
   17.17111015   80.73390198    0.81999999    2.91000009
   17.17444420   87.62719727    0.81999999    2.91000009
   17.17749977   84.27600098    0.81999999    2.91000009
   17.18083191   84.03530121    0.81999999    2.91000009
   17.18416595   83.69539642    0.81999999    2.91000009
   17.18722153   80.44010162    0.81999999    2.91000009
   17.18805504   86.52919769    0.81999999    2.91000009
   17.19083214   87.35440063    0.81999999    2.91000009
   17.19416618   82.32340240    0.81999999    2.91000009
   17.19749832   83.78739929    0.81999999    2.91000009
   17.20333481   83.78739929    0.81999999    2.91000009
   17.20750046   83.87049866    0.81999999    2.91000009
   17.21083450   81.09249878    0.81999999    2.91000009
   17.21389008   75.29609680    0.81999999    2.91000009
   17.21722221   77.25399780    0.81999999    2.91000009
   17.22055626   77.84970093    0.81999999    2.91000009
   17.22138977   86.63819885    0.81999999    2.91000009
   17.22389030   91.07559967    0.81999999    2.91000009
   17.22722244   90.97619629    0.81999999    2.91000009
   17.23055649   85.58260345    0.81999999    2.91000009
   17.23361206   85.26619720    0.81999999    2.91000009
   17.23694420   91.03320313    0.81999999    2.91000009
   17.24027824   80.66169739    0.81999999    2.91000009
   17.24638939   80.66169739    0.81999999    2.91000009
   17.25027847   80.06749725    0.81999999    2.91000009
   17.25361061   81.27890015    0.81999999    2.91000009
   17.25472260   76.15619659    0.81999999    2.91000009
   17.25749969   81.24880219    0.81999999    2.91000009
   17.26055527   82.91840363    0.81999999    2.91000009
   17.26388931   83.99279785    0.81999999    2.91000009
   17.26694489   85.78399658    0.81999999    2.91000009
   17.27027702   80.48010254    0.81999999    2.91000009
   17.27361107   78.74030304    0.81999999    2.91000009
   17.27666664   77.89270020    0.81999999    2.91000009
   17.28000069   78.04630280    0.81999999    2.91000009
   17.28333282   79.22540283    0.81999999    2.91000009
   17.28916550   79.22540283    0.81999999    2.91000009
   17.29333305   82.10160065    0.81999999    2.91000009
   17.29638863   81.28500366    0.81999999    2.91000009
   17.29972076   79.21050262    0.81999999    2.91000009
   17.30305481   76.56069946    0.81999999    2.91000009
   17.30611038   84.44539642    0.81999999    2.91000009
   17.30944443   76.69139862    0.81999999    2.91000009
   17.31250000   78.72389984    0.81999999    2.91000009
   17.31583214   78.44840240    0.81999999    2.91000009
   17.31916809   75.79139709    0.81999999    2.91000009
   17.32139015   87.58969879    0.81999999    2.91000009
   17.32250023   78.51860046    0.81999999    2.91000009
   17.32583427   85.59559631    0.81999999    2.91000009
   17.33194542   85.59559631    0.81999999    2.91000009
   17.33611107   76.66069794    0.81999999    2.91000009
   17.33916664   76.14530182    0.81999999    2.91000009
   17.34250069   77.79869843    0.81999999    2.91000009
   17.34583473   87.60690308    0.81999999    2.91000009
   17.34889030   82.25990295    0.81999999    2.91000009
   17.35222244   82.54019928    0.81999999    2.91000009
   17.35472298   76.84680176    0.81999999    2.91000009
   17.35583305   81.91100311    0.81999999    2.91000009
   17.35916710   85.94349670    0.81999999    2.91000009
   17.36250114   88.08979797    0.81999999    2.91000009
   17.36555672   82.77899933    0.81999999    2.91000009
   17.36888885   83.45570374    0.81999999    2.91000009
   17.37472153   83.45570374    0.81999999    2.91000009
   17.37888908   78.04239655    0.81999999    2.91000009
   17.38222313   75.81330109    0.81999999    2.91000009
   17.38527679   80.94519806    0.81999999    2.91000009
   17.38805580   80.47499847    0.81999999    2.91000009
   17.38888931   75.64869690    0.81999999    2.91000009
   17.39222145   76.52400208    0.81999999    2.91000009
   17.39555550   77.55349731    0.81999999    2.91000009
   17.39861107   82.03730011    0.81999999    2.91000009
   17.40194321   79.41459656    0.81999999    2.91000009
   17.40527725   81.76989746    0.81999999    2.91000009
   17.40833282   75.00129700    0.81999999    2.91000009
   17.41166687   78.99340057    0.81999999    2.91000009
   17.41749954   78.99340057    0.81999999    2.91000009
   17.42166519   83.27149963    0.81999999    2.91000009
   17.42499924   78.26570129    0.81999999    2.91000009
   17.42833328   79.46089935    0.81999999    2.91000009
   17.43138885   82.85199738    0.81999999    2.91000009
   17.43472099   80.23670197    0.81999999    2.91000009
   17.43777657   79.84359741    0.81999999    2.91000009
   17.44111061   84.18309784    0.81999999    2.91000009
   17.44444275   85.77420044    0.81999999    2.91000009
   17.44749832   81.87660217    0.81999999    2.91000009
   17.45083427   80.83380127    0.81999999    2.91000009
   17.45416832   80.15589905    0.81999999    2.91000009
   17.45472336   79.74400330    0.81999999    2.91000009
   17.46055603   79.74400330    0.81999999    2.91000009
   17.46472359   85.75050354    0.81999999    2.91000009
   17.46777916   82.12390137    0.81999999    2.91000009
   17.47111130   83.05319977    0.81999999    2.91000009
   17.47416687   80.89520264    0.81999999    2.91000009
   17.47750092   83.79570007    0.81999999    2.91000009
   17.48083305   78.83110046    0.81999999    2.91000009
   17.48416710   78.69380188    0.81999999    2.91000009
   17.48722267   77.66010284    0.81999999    2.91000009
   17.48805618   77.34760284    0.81999999    2.91000009
   17.49111176   82.51490021    0.81999999    2.91000009
   17.49416733   77.10289764    0.81999999    2.91000009
   17.49749947   80.70220184    0.81999999    2.91000009
   17.50333405   80.70220184    0.81999999    2.91000009
   17.50749969   80.54759979    0.81999999    2.91000009
   17.51055527   84.57420349    0.81999999    2.91000009
   17.51388931   81.65750122    0.81999999    2.91000009
   17.51722145   80.35739899    0.81999999    2.91000009
   17.52027702   76.08630371    0.81999999    2.91000009
   17.52138901   80.66369629    0.81999999    2.91000009
   17.52416611   79.50559998    0.81999999    2.91000009
   17.52722168   78.67690277    0.81999999    2.91000009
   17.53055573   84.08270264    0.81999999    2.91000009
   17.53361130   82.94110107    0.81999999    2.91000009
   17.53694344   79.19709778    0.81999999    2.91000009
   17.54027748   79.95310211    0.81999999    2.91000009
   17.54611015   79.95310211    0.81999999    2.91000009
   17.55027771   75.61460114    0.81999999    2.91000009
   17.55360985   80.93099976    0.81999999    2.91000009
   17.55472183   78.78189850    0.81999999    2.91000009
   17.55722237   78.76580048    0.81999999    2.91000009
   17.56027794   76.67680359    0.81999999    2.91000009
   17.56361008   79.06179810    0.81999999    2.91000009
   17.56666756   81.78859711    0.81999999    2.91000009
   17.57000160   77.17320251    0.81999999    2.91000009
   17.57333374   80.26399994    0.81999999    2.91000009
   17.57638931   82.28530121    0.81999999    2.91000009
   17.57972336   77.18060303    0.81999999    2.91000009
   17.58305550   77.82260132    0.81999999    2.91000009
   17.58916664   77.82260132    0.81999999    2.91000009
   17.59305573   75.40049744    0.81999999    2.91000009
   17.59638977   78.92839813    0.81999999    2.91000009
   17.59972191   76.39669800    0.81999999    2.91000009
   17.60277748   80.19840240    0.81999999    2.91000009
   17.60611153   79.64520264    0.81999999    2.91000009
   17.60916710   79.10250092    0.81999999    2.91000009
   17.61250114   77.67459869    0.81999999    2.91000009
   17.61583328   80.95549774    0.81999999    2.91000009
   17.61888885   82.34049988    0.81999999    2.91000009
   17.62138939   84.13130188    0.81999999    2.91000009
   17.62277794   85.14289856    0.81999999    2.91000009
   17.62583351   79.59619904    0.81999999    2.91000009
   17.63194466   79.59619904    0.81999999    2.91000009
   17.63611031   76.56140137    0.81999999    2.91000009
   17.63916588   76.78220367    0.81999999    2.91000009
   17.64249992   78.69509888    0.81999999    2.91000009
   17.64555550   77.10890198    0.81999999    2.91000009
   17.64888954   74.82319641    0.81999999    2.91000009
   17.65222168   79.30490112    0.81999999    2.91000009
   17.65472221   80.73880005    0.81999999    2.91000009
   17.65583229   79.21869659    0.81999999    2.91000009
   17.65888786   77.03790283    0.81999999    2.91000009
   17.66222191   79.62570190    0.81999999    2.91000009
   17.66527748   88.34880066    0.81999999    2.91000009
   17.66860962   80.56369781    0.81999999    2.91000009
   17.67472076   80.56369781    0.81999999    2.91000009
   17.67888832   77.43569946    0.81999999    2.91000009
   17.68194389   79.75720215    0.81999999    2.91000009
   17.68527603   80.44609833    0.81999999    2.91000009
   17.68805504   75.77380371    0.81999999    2.91000009
   17.68916512   78.74179840    0.81999999    2.91000009
   17.69222069   76.41239929    0.81999999    2.91000009
   17.69555473   79.88349915    0.81999999    2.91000009
   17.69861031   81.45330048    0.81999999    2.91000009
   17.70194435   85.65920258    0.81999999    2.91000009
   17.70527840   79.55979919    0.81999999    2.91000009
   17.70833397   78.68609619    0.81999999    2.91000009
   17.71166801   79.92250061    0.81999999    2.91000009
   17.71750069   79.92250061    0.81999999    2.91000009
   17.72166634   82.28710175    0.81999999    2.91000009
   17.72500038   79.65409851    0.81999999    2.91000009
   17.72805595   82.92070007    0.81999999    2.91000009
   17.73139000   80.82070160    0.81999999    2.91000009
   17.73472214   78.81449890    0.81999999    2.91000009
   17.73777771   81.75299835    0.81999999    2.91000009
   17.74111176   77.34030151    0.81999999    2.91000009
   17.74416733   84.72660065    0.81999999    2.91000009
   17.74749947   77.41919708    0.81999999    2.91000009
   17.75083351   77.68399811    0.81999999    2.91000009
   17.75388908   74.24289703    0.81999999    2.91000009
   17.75472260   79.88449860    0.81999999    2.91000009
   17.76027870   79.88449860    0.81999999    2.91000009
   17.76444435   82.87609863    0.81999999    2.91000009
   17.76777840   80.54340363    0.81999999    2.91000009
   17.77111053   88.07119751    0.81999999    2.91000009
   17.78861046   75.02290344    0.81999999    2.91000009
   17.79083252   76.48229980    0.81999999    2.91000009
   17.79416656   77.11000061    0.81999999    2.91000009
   17.79749870   76.33730316    0.81999999    2.91000009
   17.80333328   76.33730316    0.81999999    2.91000009
   17.80749893   84.44699860    0.81999999    2.91000009
   17.81083298   77.11109924    0.81999999    2.91000009
   17.81388855   80.12210083    0.81999999    2.91000009
   17.81722260   80.07140350    0.81999999    2.91000009
   17.82055664   82.30329895    0.81999999    2.91000009
   17.82166672   80.10269928    0.81999999    2.91000009
   17.82416725   82.02590179    0.81999999    2.91000009
   17.82750130   85.64669800    0.81999999    2.91000009
   17.83055687   82.47339630    0.81999999    2.91000009
   17.83388901   77.99199677    0.81999999    2.91000009
   17.83722305   81.09349823    0.81999999    2.91000009
   17.84027863   78.23090363    0.81999999    2.91000009
   17.84638977   78.23090363    0.81999999    2.91000009
   17.85027885   82.57790375    0.81999999    2.91000009
   17.85361099   77.89089966    0.81999999    2.91000009
   17.85499954   78.80719757    0.81999999    2.91000009
   17.85722351   78.17630005    0.81999999    2.91000009
   17.86055565   80.45220184    0.81999999    2.91000009
   17.86361122   76.02239990    0.81999999    2.91000009
   17.86694527   77.46800232    0.81999999    2.91000009
   17.87027740   74.29419708    0.81999999    2.91000009
   17.87333298   79.93620300    0.81999999    2.91000009
   17.87666702   74.89330292    0.81999999    2.91000009
   17.87972260   77.37159729    0.81999999    2.91000009
   17.88305473   83.66760254    0.81999999    2.91000009
   17.88916588   83.66760254    0.81999999    2.91000009
   17.89333344   77.84449768    0.81999999    2.91000009
   17.89638901   80.64140320    0.81999999    2.91000009
   17.89972115   82.86609650    0.81999999    2.91000009
   17.90305519   84.94069672    0.81999999    2.91000009
   17.90611076   84.37069702    0.81999999    2.91000009
   17.90944481   88.05740356    0.81999999    2.91000009
   17.91277695   89.44360352    0.81999999    2.91000009
   17.91583252   89.16909790    0.81999999    2.91000009
   17.91916656   84.90740204    0.81999999    2.91000009
   17.92166519   79.66850281    0.81999999    2.91000009
   17.92277718   75.88680267    0.81999999    2.91000009
   17.92611122   84.89399719    0.81999999    2.91000009
   17.93194389   84.89399719    0.81999999    2.91000009
   17.93610954   80.89559937    0.81999999    2.91000009
   17.93944359   80.14379883    0.81999999    2.91000009
   17.94249916   80.87300110    0.81999999    2.91000009
   17.94583321   80.23429871    0.81999999    2.91000009
   17.94888878   76.95590210    0.81999999    2.91000009
   17.95222282   78.27110291    0.81999999    2.91000009
   17.95499992   78.66310120    0.81999999    2.91000009
   17.95583344   77.49539948    0.81999999    2.91000009
   17.95916748   76.67310333    0.81999999    2.91000009
   17.96222305   79.99500275    0.81999999    2.91000009
   17.96555710   79.89199829    0.81999999    2.91000009
   17.96916771   80.09829712    0.81999999    2.91000009
   17.97472191   80.09829712    0.81999999    2.91000009
   17.97888947   75.10459900    0.81999999    2.91000009
   17.98222351   77.36889648    0.81999999    2.91000009
   17.98527718   76.06970215    0.81999999    2.91000009
   17.98833275   75.71050262    0.81999999    2.91000009
   17.98888969   74.95300293    0.81999999    2.91000009
   17.99222183   76.77120209    0.81999999    2.91000009
   17.99527740   80.98159790    0.81999999    2.91000009
   17.99861145   84.36810303    0.81999999    2.91000009
   18.00194359   77.42849731    0.81999999    2.91000009
   18.00499916   76.54139709    0.81999999    2.91000009
   18.00833321   80.55760193    0.81999999    2.91000009
   18.01166725   80.67559814    0.81999999    2.91000009
   18.01777840   80.67559814    0.81999999    2.91000009
   18.02166557   77.58489990    0.81999999    2.91000009
   18.02499962   77.69539642    0.81999999    2.91000009
   18.02833366   76.73989868    0.81999999    2.91000009
   18.03138924   77.68029785    0.81999999    2.91000009
   18.03472137   80.09739685    0.81999999    2.91000009
   18.03805542   80.48400116    0.81999999    2.91000009
   18.04111099   77.55039978    0.81999999    2.91000009
   18.04444313   80.58670044    0.81999999    2.91000009
   18.04749870   79.77980042    0.81999999    2.91000009
   18.05083275   78.22460175    0.81999999    2.91000009
   18.05416679   75.11129761    0.81999999    2.91000009
   18.05499840   76.91729736    0.81999999    2.91000009
   18.06055450   76.91729736    0.81999999    2.91000009
   18.06472206   75.09230042    0.81999999    2.91000009
   18.06777954   84.94850159    0.81999999    2.91000009
   18.07111168   85.38249969    0.81999999    2.91000009
   18.07444572   74.69629669    0.81999999    2.91000009
   18.07750130   75.43789673    0.81999999    2.91000009
   18.08083344   74.24909973    0.81999999    2.91000009
   18.08388901   78.25240326    0.81999999    2.91000009
   18.08722305   81.18009949    0.81999999    2.91000009
   18.08861160   76.14759827    0.81999999    2.91000009
   18.09083366   78.21579742    0.81999999    2.91000009
   18.09416771   85.47250366    0.81999999    2.91000009
   18.09722328   80.62220001    0.81999999    2.91000009
   18.10333443   80.62220001    0.81999999    2.91000009
   18.10750008   82.66290283    0.81999999    2.91000009
   18.11083412   87.08950043    0.81999999    2.91000009
   18.11388969   84.53019714    0.81999999    2.91000009
   18.11722183   84.13150024    0.81999999    2.91000009
   18.12027740   82.35299683    0.81999999    2.91000009
   18.12194443   82.77439880    0.81999999    2.91000009
   18.12388992   81.89939880    0.81999999    2.91000009
   18.12722206   85.55940247    0.81999999    2.91000009
   18.13027763   78.89540100    0.81999999    2.91000009
   18.13361168   78.91709900    0.81999999    2.91000009
   18.13694382   86.64969635    0.81999999    2.91000009
   18.13999939   85.59770203    0.81999999    2.91000009
   18.14611053   85.59770203    0.81999999    2.91000009
   18.15027809   76.77760315    0.81999999    2.91000009
   18.15361023   82.04570007    0.81999999    2.91000009
   18.15527725   78.45480347    0.81999999    2.91000009
   18.15722275   86.33170319    0.81999999    2.91000009
   18.16055489   83.87319946    0.81999999    2.91000009
   18.16388893   82.10179901    0.81999999    2.91000009
   18.16694450   84.34690094    0.81999999    2.91000009
   18.17027664   78.41629791    0.81999999    2.91000009
   18.17333221   85.10209656    0.81999999    2.91000009
   18.17666626   79.56939697    0.81999999    2.91000009
   18.18000031   84.44059753    0.81999999    2.91000009
   18.18305397   85.84750366    0.81999999    2.91000009
   18.18916512   85.84750366    0.81999999    2.91000009
   18.19305420   77.38240051    0.81999999    2.91000009
   18.19638824   80.49220276    0.81999999    2.91000009
   18.19972038   76.47450256    0.81999999    2.91000009
   18.20277786   74.68550110    0.81999999    2.91000009
   18.20611191   73.99479675    0.81999999    2.91000009
   18.20944595   76.05989838    0.81999999    2.91000009
   18.21250153   75.41059875    0.81999999    2.91000009
   18.21583366   76.11630249    0.81999999    2.91000009
   18.21888924   82.04630280    0.81999999    2.91000009
   18.22194481   77.42289734    0.81999999    2.91000009
   18.22249985   76.04900360    0.81999999    2.91000009
   18.22583389   84.17630005    0.81999999    2.91000009
   18.23194504   84.17630005    0.81999999    2.91000009
   18.23611069   74.47660065    0.81999999    2.91000009
   18.23916626   79.04799652    0.81999999    2.91000009
   18.24250031   76.83429718    0.81999999    2.91000009
   18.24583435   76.46150208    0.81999999    2.91000009
   18.24888992   75.47380066    0.81999999    2.91000009
   18.25222206   75.82170105    0.81999999    2.91000009
   18.25527763   76.85440063    0.81999999    2.91000009
   18.25583267   76.50270081    0.81999999    2.91000009
   18.25916672   74.99120331    0.81999999    2.91000009
   18.26222229   75.77189636    0.81999999    2.91000009
   18.26555634   78.27239990    0.81999999    2.91000009
   18.26888847   78.07720184    0.81999999    2.91000009
   18.27472115   78.07720184    0.81999999    2.91000009
   18.27888870   81.79979706    0.81999999    2.91000009
   18.28222275   76.36530304    0.81999999    2.91000009
   18.28527641   73.91169739    0.81999999    2.91000009
   18.28861046   82.45739746    0.81999999    2.91000009
   18.28888893   75.69989777    0.81999999    2.91000009
   18.29222107   84.58499908    0.81999999    2.91000009
   18.29527664   76.68659973    0.81999999    2.91000009
   18.29861069   81.36219788    0.81999999    2.91000009
   18.30194283   79.18599701    0.81999999    2.91000009
   18.30499840   84.72429657    0.81999999    2.91000009
   18.30833244   79.01170349    0.81999999    2.91000009
   18.31166649   80.65850067    0.81999999    2.91000009
   18.31750107   80.65850067    0.81999999    2.91000009
   18.32166672   73.46579742    0.81999999    2.91000009
   18.32222366   74.26689911    0.81999999    2.91000009
   18.32555580   75.15319824    0.81999999    2.91000009
   18.32888985   73.86060333    0.81999999    2.91000009
   18.33194542   75.76100159    0.81999999    2.91000009
   18.33527756   75.05639648    0.81999999    2.91000009
   18.33833313   78.14119720    0.81999999    2.91000009
   18.34166718   78.83589935    0.81999999    2.91000009
   18.34500122   73.59069824    0.81999999    2.91000009
   18.34805679   84.29319763    0.81999999    2.91000009
   18.35138893   82.97149658    0.81999999    2.91000009
   18.35472298   74.01139832    0.81999999    2.91000009
   18.35555649   74.12750244    0.81999999    2.91000009
   18.36027908   74.12750244    0.81999999    2.91000009
   18.36444473   80.32839966    0.81999999    2.91000009
   18.36777878   84.53730011    0.81999999    2.91000009
   18.37111092   77.59349823    0.81999999    2.91000009
   18.37416649   73.41670227    0.81999999    2.91000009
   18.37750053   75.44480133    0.81999999    2.91000009
   18.38055611   74.34739685    0.81999999    2.91000009
   18.38388824   73.62770081    0.81999999    2.91000009
   18.38722229   79.41739655    0.81999999    2.91000009
   18.38888931   77.87590027    0.81999999    2.91000009
   18.39083290   84.46170044    0.81999999    2.91000009
   18.39388847   76.76999664    0.81999999    2.91000009
   18.39722252   79.94719696    0.81999999    2.91000009
   18.40333366   79.94719696    0.81999999    2.91000009
   18.40749931   93.20259857    0.81999999    2.91000009
   18.41055489   83.27100372    0.81999999    2.91000009
   18.41388893   81.32610321    0.81999999    2.91000009
   18.41694450   83.52459717    0.81999999    2.91000009
   18.42027664   78.52459717    0.81999999    2.91000009
   18.42222214   84.90239716    0.81999999    2.91000009
   18.42416573   80.12030029    0.81999999    2.91000009
   18.42722130   76.96970367    0.81999999    2.91000009
   18.43055534   76.57810211    0.81999999    2.91000009
   18.43388748   80.65390015    0.81999999    2.91000009
   18.43694305   75.45169830    0.81999999    2.91000009
   18.44027710   80.38539886    0.81999999    2.91000009
   18.44610977   80.38539886    0.81999999    2.91000009
   18.45027924   77.75319672    0.81999999    2.91000009
   18.45333481   83.35269928    0.81999999    2.91000009
   18.45555687   79.30690002    0.81999999    2.91000009
   18.45722389   84.59529877    0.81999999    2.91000009
   18.46027946   83.92189789    0.81999999    2.91000009
   18.46361160   77.78869629    0.81999999    2.91000009
   18.46694565   79.86650085    0.81999999    2.91000009
   18.47000122   72.77880096    0.81999999    2.91000009
   18.47333336   84.00039673    0.81999999    2.91000009
   18.47638893   74.88330078    0.81999999    2.91000009
   18.47972298   79.43800354    0.81999999    2.91000009
   18.48305511   79.29170227    0.81999999    2.91000009
   18.48888969   79.29170227    0.81999999    2.91000009
   18.49305534   82.57450104    0.81999999    2.91000009
   18.49638939   77.65560150    0.81999999    2.91000009
   18.49944496   76.76499939    0.81999999    2.91000009
   18.50277710   74.21119690    0.81999999    2.91000009
   18.50611115   73.73549652    0.81999999    2.91000009
   18.50916672   76.97650146    0.81999999    2.91000009
   18.51250076   76.81220245    0.81999999    2.91000009
   18.51555634   78.81079865    0.81999999    2.91000009
   18.51888847   78.67649841    0.81999999    2.91000009
   18.52222252   86.39859772    0.81999999    2.91000009
   18.52277756   82.49079895    0.81999999    2.91000009
   18.52583313   85.84739685    0.81999999    2.91000009
   18.53166580   85.84739685    0.81999999    2.91000009
   18.53583336   79.64749908    0.81999999    2.91000009
   18.53916550   75.91600037    0.81999999    2.91000009
   18.54249954   78.76460266    0.81999999    2.91000009
   18.54555511   74.91829681    0.81999999    2.91000009
   18.54888916   76.18900299    0.81999999    2.91000009
   18.55194283   79.29570007    0.81999999    2.91000009
   18.55527687   74.49210358    0.81999999    2.91000009
   18.55611038   79.94519806    0.81999999    2.91000009
   18.55888748   77.88390350    0.81999999    2.91000009
   18.56222153   76.93900299    0.81999999    2.91000009
   18.56555557   80.00129700    0.81999999    2.91000009
   18.56861115   77.45050049    0.81999999    2.91000009
   18.57472229   77.45050049    0.81999999    2.91000009
   18.57888985   83.75559998    0.81999999    2.91000009
   18.58194542   77.54309845    0.81999999    2.91000009
   18.58527756   78.27850342    0.81999999    2.91000009
   18.58833313   76.50969696    0.81999999    2.91000009
   18.58944511   79.40370178    0.81999999    2.91000009
   18.59194565   79.32389832    0.81999999    2.91000009
   18.59527779   84.29090118    0.81999999    2.91000009
   18.59861183   80.51190186    0.81999999    2.91000009
   18.60166740   77.77449799    0.81999999    2.91000009
   18.60499954   81.82839966    0.81999999    2.91000009
   18.60805511   83.55529785    0.81999999    2.91000009
   18.61138916   80.86509705    0.81999999    2.91000009
   18.61750031   80.86509705    0.81999999    2.91000009
   18.62166595   82.45310211    0.81999999    2.91000009
   18.62277794   80.75779724    0.81999999    2.91000009
   18.62527847   82.35050201    0.81999999    2.91000009
   18.62861061   82.73650360    0.81999999    2.91000009
   18.63194466   82.32640076    0.81999999    2.91000009
   18.63500023   81.42549896    0.81999999    2.91000009
   18.63833237   79.68599701    0.81999999    2.91000009
   18.64138794   78.88469696    0.81999999    2.91000009
   18.64472198   77.09590149    0.81999999    2.91000009
   18.64805603   77.76660156    0.81999999    2.91000009
   18.65111160   75.91290283    0.81999999    2.91000009
   18.65444374   86.36930084    0.81999999    2.91000009
   18.65611076   82.36930084    0.81999999    2.91000009
   18.66027832   82.36930084    0.81999999    2.91000009
   18.66444397   81.41750336    0.81999999    2.91000009
   18.66777802   84.28459930    0.81999999    2.91000009
   18.67083359   76.35469818    0.81999999    2.91000009
   18.67416573   80.45210266    0.81999999    2.91000009
   18.67749977   81.11940002    0.81999999    2.91000009
   18.68055534   82.52020264    0.81999999    2.91000009
   18.68388748   81.43520355    0.81999999    2.91000009
   18.68722153   84.84200287    0.81999999    2.91000009
   18.68944359   88.71160126    0.81999999    2.91000009
   18.69055557   78.65229797    0.81999999    2.91000009
   18.69388771   78.47440338    0.81999999    2.91000009
   18.69722176   77.35060120    0.81999999    2.91000009
   18.70305634   77.35060120    0.81999999    2.91000009
   18.70722389  129.06599426    0.81999999    2.91000009
   18.71055603   78.34909821    0.81999999    2.91000009
   18.71389008   81.63400269    0.81999999    2.91000009
   18.71694565   82.09639740    0.81999999    2.91000009
   18.72027779   78.19920349    0.81999999    2.91000009
   18.72277832   82.73410034    0.81999999    2.91000009
   18.72389030   85.12850189    0.81999999    2.91000009
   18.72722244   81.69799805    0.81999999    2.91000009
   18.73055649   82.80680084    0.81999999    2.91000009
   18.73361206   84.11810303    0.81999999    2.91000009
   18.73694420   84.70600128    0.81999999    2.91000009
   18.73999977   77.32929993    0.81999999    2.91000009
   18.74611092   77.32929993    0.81999999    2.91000009
   18.75027847   79.49289703    0.81999999    2.91000009
   18.75333405   81.93599701    0.81999999    2.91000009
   18.75611115   86.55699921    0.81999999    2.91000009
   18.75694466   81.57489777    0.81999999    2.91000009
   18.76027870   75.23650360    0.81999999    2.91000009
   18.76361084   80.02410126    0.81999999    2.91000009
   18.76666641   75.96440125    0.81999999    2.91000009
   18.77000046   80.47440338    0.81999999    2.91000009
   18.77305603   75.68150330    0.81999999    2.91000009
   18.77638817   85.48719788    0.81999999    2.91000009
   18.77972221   83.56079865    0.81999999    2.91000009
   18.78277779   78.18699646    0.81999999    2.91000009
   18.78888893   78.18699646    0.81999999    2.91000009
   18.80722237   74.85130310    0.81999999    2.91000009
   18.81055450   77.41680145    0.81999999    2.91000009
   18.81361008   83.67340088    0.81999999    2.91000009
   18.81694603   81.35959625    0.81999999    2.91000009
   18.82027817   93.74310303    0.81999999    2.91000009
   18.82333374   88.66690063    0.81999999    2.91000009
   18.82666779   85.53820038    0.81999999    2.91000009
   18.83194542   85.53820038    0.81999999    2.91000009
   18.83611107   88.18350220    0.81999999    2.91000009
   18.83944511   77.09889984    0.81999999    2.91000009
   18.84027863   79.82019806    0.81999999    2.91000009
   18.84305573   81.52880096    0.81999999    2.91000009
   18.84611130   78.30100250    0.81999999    2.91000009
   18.84944534   83.14790344    0.81999999    2.91000009
   18.85277748   78.83930206    0.81999999    2.91000009
   18.85583305   75.97599792    0.81999999    2.91000009
   18.85916710   79.15489960    0.81999999    2.91000009
   18.86250114   82.64340210    0.81999999    2.91000009
   18.86555672   79.54859924    0.81999999    2.91000009
   18.86888885   81.39189911    0.81999999    2.91000009
   18.87472153   81.39189911    0.81999999    2.91000009
   18.87888908   77.14409637    0.81999999    2.91000009
   18.88222313   76.42310333    0.81999999    2.91000009
   18.88527679   78.43520355    0.81999999    2.91000009
   18.88861084   85.99780273    0.81999999    2.91000009
   18.89194489   79.26409912    0.81999999    2.91000009
   18.89500046   79.53309631    0.81999999    2.91000009
   18.89833260   86.86599731    0.81999999    2.91000009
   18.90166664   82.07569885    0.81999999    2.91000009
   18.90472221   79.73609924    0.81999999    2.91000009
   18.90694427   81.94979858    0.81999999    2.91000009
   18.90861130   86.24150085    0.81999999    2.91000009
   18.91166687   80.73999786    0.81999999    2.91000009
   18.91777802   80.73999786    0.81999999    2.91000009
   18.92166519   77.37879944    0.81999999    2.91000009
   18.92499924   79.43659973    0.81999999    2.91000009
   18.92833328   76.97480011    0.81999999    2.91000009
   18.93138885   85.28079987    0.81999999    2.91000009
   18.93472099   79.37930298    0.81999999    2.91000009
   18.93805504   85.34049988    0.81999999    2.91000009
   18.94027710   77.16709900    0.81999999    2.91000009
   18.94166565   81.53079987    0.81999999    2.91000009
   18.94472122   82.74500275    0.81999999    2.91000009
   18.94805527   80.11000061    0.81999999    2.91000009
   18.95138931   93.38009644    0.81999999    2.91000009
   18.95444489   83.89389801    0.81999999    2.91000009
   18.96055603   83.89389801    0.81999999    2.91000009
   18.96472359   86.21369934    0.81999999    2.91000009
   18.96777916   81.88939667    0.81999999    2.91000009
   18.97111130  109.55000305    0.81999999    2.91000009
   18.97361183   95.89340210    0.81999999    2.91000009
   18.97472191   80.31559753    0.81999999    2.91000009
   18.97777748   88.83260345    0.81999999    2.91000009
   18.98111153   83.74259949    0.81999999    2.91000009
   18.98444557  100.96900177    0.81999999    2.91000009
   18.98750114   90.73030090    0.81999999    2.91000009
   18.99083328   91.30220032    0.81999999    2.91000009
   18.99416733   97.50119781    0.81999999    2.91000009
   18.99722290   87.37719727    0.81999999    2.91000009
   19.00333405   87.37719727    0.81999999    2.91000009
   19.00749969   80.83219910    0.81999999    2.91000009
   19.01083374   81.88240051    0.81999999    2.91000009
   19.01388931   85.15679932    0.81999999    2.91000009
   19.01722145   82.78189850    0.81999999    2.91000009
   19.02027702   78.33619690    0.81999999    2.91000009
   19.02361107   76.98000336    0.81999999    2.91000009
   19.02694511   79.74970245    0.81999999    2.91000009
   19.03027725   84.86160278    0.81999999    2.91000009
   19.03333282   78.73400116    0.81999999    2.91000009
   19.03666687   95.10769653    0.81999999    2.91000009
   19.03972244   80.00000000    0.81999999    2.91000009
   19.04027748   87.02449799    0.81999999    2.91000009
   19.04611015   87.02449799    0.81999999    2.91000009
   19.05027771   84.46620178    0.81999999    2.91000009
   19.05360985   82.70400238    0.81999999    2.91000009
   19.05666542   92.86519623    0.81999999    2.91000009
   19.05999947   85.47899628    0.81999999    2.91000009
   19.06333351   85.81600189    0.81999999    2.91000009
   19.06638718   85.86569977    0.81999999    2.91000009
   19.06972313   81.15190125    0.81999999    2.91000009
   19.07277870   92.38919830    0.81999999    2.91000009
   19.07361221   88.88289642    0.81999999    2.91000009
   19.07638931   82.41539764    0.81999999    2.91000009
   19.07972336   85.51249695    0.81999999    2.91000009
   19.08277893   83.09870148    0.81999999    2.91000009
   19.08889008   83.09870148    0.81999999    2.91000009
   19.09305573   76.08039856    0.81999999    2.91000009
   19.09638977   82.76190186    0.81999999    2.91000009
   19.09972191   88.17310333    0.81999999    2.91000009
   19.10277748   88.78320313    0.81999999    2.91000009
   19.10611153   89.71510315    0.81999999    2.91000009
   19.10694504   85.22879791    0.81999999    2.91000009
   19.10972214   88.07530212    0.81999999    2.91000009
   19.11305618   85.41030121    0.81999999    2.91000009
   19.11611176   98.66429901    0.81999999    2.91000009
   19.11944389   84.08070374    0.81999999    2.91000009
   19.12277794   92.98449707    0.81999999    2.91000009
   19.12583351   89.96330261    0.81999999    2.91000009
   19.13194466   89.96330261    0.81999999    2.91000009
   19.13611031  236.49800110    0.81999999    2.91000009
   19.13916588   89.90499878    0.81999999    2.91000009
   19.14027786   85.97149658    0.81999999    2.91000009
   19.14277840   93.23739624    0.81999999    2.91000009
   19.14611053   87.42859650    0.81999999    2.91000009
   19.14916611   82.46170044    0.81999999    2.91000009
   19.15250015   90.73799896    0.81999999    2.91000009
   19.15583229   93.69699860    0.81999999    2.91000009
   19.15888786   92.96009827    0.81999999    2.91000009
   19.16222191   79.14620209    0.81999999    2.91000009
   19.16527748   92.46869659    0.81999999    2.91000009
   19.16860962   85.66580200    0.81999999    2.91000009
   19.17472076   85.66580200    0.81999999    2.91000009
   19.17888832   95.34359741    0.81999999    2.91000009
   19.18194389   83.12899780    0.81999999    2.91000009
   19.18527603   83.15399933    0.81999999    2.91000009
   19.18861008   88.51090240    0.81999999    2.91000009
   19.19166565   87.17040253    0.81999999    2.91000009
   19.19499969   86.11990356    0.81999999    2.91000009
   19.19833183   91.13829803    0.81999999    2.91000009
   19.20138931   95.90730286    0.81999999    2.91000009
   19.20472336   81.97470093    0.81999999    2.91000009
   19.20694542   80.91529846    0.81999999    2.91000009
   19.20833397   83.05770111    0.81999999    2.91000009
   19.21166801   96.33869934    0.81999999    2.91000009
   19.21750069   96.33869934    0.81999999    2.91000009
   19.22166634   83.33039856    0.81999999    2.91000009
   19.22500038   88.29340363    0.81999999    2.91000009
   19.22805595   91.91979980    0.81999999    2.91000009
   19.23139000   87.87239838    0.81999999    2.91000009
   19.23472214   84.58119965    0.81999999    2.91000009
   19.23777771   81.42150116    0.81999999    2.91000009
   19.24027824   82.86419678    0.81999999    2.91000009
   19.24138832   84.79419708    0.81999999    2.91000009
   19.24472237   78.70800018    0.81999999    2.91000009
   19.24777794   94.82839966    0.81999999    2.91000009
   19.25111198   89.12370300    0.81999999    2.91000009
   19.25444412   85.97589874    0.81999999    2.91000009
   19.26027870   85.97589874    0.81999999    2.91000009
   19.26444435   97.35800171    0.81999999    2.91000009
   19.26777840   87.41349792    0.81999999    2.91000009
   19.27111053   78.47280121    0.81999999    2.91000009
   19.27361107   78.50949860    0.81999999    2.91000009
   19.27472115   81.01399994    0.81999999    2.91000009
   19.27805519   79.63349915    0.81999999    2.91000009
   19.28111076   97.27149963    0.81999999    2.91000009
   19.28444481   86.29969788    0.81999999    2.91000009
   19.28777695   90.51809692    0.81999999    2.91000009
   19.29083252   77.35900116    0.81999999    2.91000009
   19.29416656   98.67849731    0.81999999    2.91000009
   19.29722214   77.74179840    0.81999999    2.91000009
   19.30333328   77.74179840    0.81999999    2.91000009
   19.30749893   87.23079681    0.81999999    2.91000009
   19.31055450   80.49040222    0.81999999    2.91000009
   19.31388855   82.59239960    0.81999999    2.91000009
   19.31694603   81.32150269    0.81999999    2.91000009
   19.32027817   81.98699951    0.81999999    2.91000009
   19.32361221   77.79299927    0.81999999    2.91000009
   19.32666779   75.75479889    0.81999999    2.91000009
   19.33000183  123.81999969    0.81999999    2.91000009
   19.33333397   94.42230225    0.81999999    2.91000009
   19.33638954   77.78949738    0.81999999    2.91000009
   19.33972359   76.94940186    0.81999999    2.91000009
   19.34027863   79.43209839    0.81999999    2.91000009
   19.34611130   79.43209839    0.81999999    2.91000009
   19.35027885   80.09400177    0.81999999    2.91000009
   19.35333443  129.17599487    0.81999999    2.91000009
   19.35666656  113.14399719    0.81999999    2.91000009
   19.36000061   78.07510376    0.81999999    2.91000009
   19.36333466   74.03369904    0.81999999    2.91000009
   19.36638832   80.02100372    0.81999999    2.91000009
   19.36972237   83.42350006    0.81999999    2.91000009
   19.37277794   85.44020081    0.81999999    2.91000009
   19.37361145   91.04170227    0.81999999    2.91000009
   19.37638855  166.48899841    0.81999999    2.91000009
   19.37972260   -1.00000000    0.81999999    2.91000009
   19.38277817  153.16000366    0.81999999    2.91000009
   19.38888931  153.16000366    0.81999999    2.91000009
   19.39305496   80.78070068    0.81999999    2.91000009
   19.39638901   76.79560089    0.81999999    2.91000009
   19.39944458   80.15309906    0.81999999    2.91000009
   19.40277672   84.67939758    0.81999999    2.91000009
   19.40611076   85.42559814    0.81999999    2.91000009
   19.40694427   84.99289703    0.81999999    2.91000009
   19.40944481   80.24440002    0.81999999    2.91000009
   19.41277695   78.74909973    0.81999999    2.91000009
   19.41583252   80.90290070    0.81999999    2.91000009
   19.41916656   79.88529968    0.81999999    2.91000009
   19.42249870   90.69819641    0.81999999    2.91000009
   19.42555428   80.72149658    0.81999999    2.91000009
   19.43194389   80.72149658    0.81999999    2.91000009
   19.43583298   78.79049683    0.81999999    2.91000009
   19.43916512   82.89320374    0.81999999    2.91000009
   19.44055557   82.98600006    0.81999999    2.91000009
   19.44277763   83.43699646    0.81999999    2.91000009
   19.44610977   82.11889648    0.81999999    2.91000009
   19.44916534   83.83529663    0.81999999    2.91000009
   19.45250130   83.04479980    0.81999999    2.91000009
   19.45583344   83.87319946    0.81999999    2.91000009
   19.45888901   82.00669861    0.81999999    2.91000009
   19.46222305   85.42389679    0.81999999    2.91000009
   19.46555710   84.64320374    0.81999999    2.91000009
   19.46861076   87.41020203    0.81999999    2.91000009
   19.47472191   87.41020203    0.81999999    2.91000009
   19.47888947   85.95549774    0.81999999    2.91000009
   19.48194504   90.31649780    0.81999999    2.91000009
   19.48527718   80.41259766    0.81999999    2.91000009
   19.48833275   82.48169708    0.81999999    2.91000009
   19.49166679   85.60569763    0.81999999    2.91000009
   19.49500084   82.84549713    0.81999999    2.91000009
   19.49805641   79.89430237    0.81999999    2.91000009
   19.50138855   82.35079956    0.81999999    2.91000009
   19.50472260   82.11509705    0.81999999    2.91000009
   19.50722313   78.06729889    0.81999999    2.91000009
   19.50805473   82.54399872    0.81999999    2.91000009
   19.51138878   81.93800354    0.81999999    2.91000009
   19.51749992   81.93800354    0.81999999    2.91000009
   19.52166557  245.58000183    0.81999999    2.91000009
   19.52499962   79.44409943    0.81999999    2.91000009
   19.52805519   75.21099854    0.81999999    2.91000009
   19.53138924   76.83930206    0.81999999    2.91000009
   19.53444481   80.75740051    0.81999999    2.91000009
   19.53777695   78.18520355    0.81999999    2.91000009
   19.54055595   77.78289795    0.81999999    2.91000009
   19.54138756   81.74800110    0.81999999    2.91000009
   19.54472160   79.38870239    0.81999999    2.91000009
   19.54777718   79.21800232    0.81999999    2.91000009
   19.55111122   82.03549957    0.81999999    2.91000009
   19.55444336   78.23919678    0.81999999    2.91000009
   19.56027794   78.23919678    0.81999999    2.91000009
   19.56444359   78.56800079    0.81999999    2.91000009
   19.56777954   80.70529938    0.81999999    2.91000009
   19.57083511   83.26239777    0.81999999    2.91000009
   19.57389069   75.23169708    0.81999999    2.91000009
   19.57444572   75.51219940    0.81999999    2.91000009
   19.57777786   77.00409698    0.81999999    2.91000009
   19.58083344   79.82369995    0.81999999    2.91000009
   19.58416748   78.02570343    0.81999999    2.91000009
   19.58750153   85.60299683    0.81999999    2.91000009
   19.59055710   83.70800018    0.81999999    2.91000009
   19.59388924   83.56089783    0.81999999    2.91000009
   19.59722328   74.76470184    0.81999999    2.91000009
   19.60305595   74.76470184    0.81999999    2.91000009
   19.60722351  222.72300720    0.81999999    2.91000009
   19.61055565  300.41101074    0.81999999    2.91000009
   19.61250114   99.75920105    0.81999999    2.91000009
   19.61277771   83.70800018    0.81999999    2.91000009
   19.61277771   83.56089783    0.81999999    2.91000009
   19.61277771   74.76470184    0.81999999    2.91000009
   19.61305618  222.72300720    0.81999999    2.91000009
   19.61305618  300.41101074    0.81999999    2.91000009
   19.61305618   77.00409698    0.81999999    2.91000009
   19.61333466   79.82369995    0.81999999    2.91000009
   19.61333466   78.02570343    0.81999999    2.91000009
   19.61333466   85.60299683    0.81999999    2.91000009
   19.61527824  142.28500366    0.81999999    2.91000009
   19.61861038   85.38939667    0.81999999    2.91000009
   19.62194443  158.49000549    0.81999999    2.91000009
   19.62500000  102.30999756    0.81999999    2.91000009
   19.62833405  178.86500549    0.81999999    2.91000009
   19.63333321  178.86500549    0.81999999    2.91000009
   19.63750076  122.12300110    0.81999999    2.91000009
   19.64083290  164.98199463    0.81999999    2.91000009
   19.64388847  105.61499786    0.81999999    2.91000009
   19.64749908   -1.00000000    0.81999999    2.91000009
   19.65083313  175.78700256    0.81999999    2.91000009
   19.65416718  138.90899658    0.81999999    2.91000009
   19.65722275   -1.00000000    0.81999999    2.91000009
   19.66055489  141.91900635    0.81999999    2.91000009
   19.66388893  157.02999878    0.81999999    2.91000009
   19.66694450   92.47879791    0.81999999    2.91000009
   19.67027664   82.63639832    0.81999999    2.91000009
   19.67611122   82.63639832    0.81999999    2.91000009
   19.68027687   74.87940216    0.81999999    2.91000009
   19.68361092   77.50910187    0.81999999    2.91000009
   19.68694305   76.75910187    0.81999999    2.91000009
   19.68999863   76.31300354    0.81999999    2.91000009
   19.69333267   75.77790070    0.81999999    2.91000009
   19.69638824   80.32150269    0.81999999    2.91000009
   19.69972038   80.89430237    0.81999999    2.91000009
   19.70305634   81.01589966    0.81999999    2.91000009
   19.70611191   80.12210083    0.81999999    2.91000009
   19.70944595   75.67089844    0.81999999    2.91000009
   19.71277809   75.33699799    0.81999999    2.91000009
   19.71305656   79.58910370    0.81999999    2.91000009
   19.71916771   79.58910370    0.81999999    2.91000009
   19.72333336   75.22280121    0.81999999    2.91000009
   19.72638893   78.37660217    0.81999999    2.91000009
   19.72972298   77.89759827    0.81999999    2.91000009
   19.73277855   76.52480316    0.81999999    2.91000009
   19.73611069   86.26580048    0.81999999    2.91000009
   19.73944473   85.22949982    0.81999999    2.91000009
   19.74250031   85.46910095    0.81999999    2.91000009
   19.74583435   80.49579620    0.81999999    2.91000009
   19.74638939   80.57360077    0.81999999    2.91000009
   19.74944496   77.87979889    0.81999999    2.91000009
   19.75277710   77.55239868    0.81999999    2.91000009
   19.75583267   80.84529877    0.81999999    2.91000009
   19.76194382   80.84529877    0.81999999    2.91000009
   19.76611137   77.73699951    0.81999999    2.91000009
   19.76916695   80.29889679    0.81999999    2.91000009
   19.77249908   80.49069977    0.81999999    2.91000009
   19.77583313   76.94450378    0.81999999    2.91000009
   19.77888870   79.66149902    0.81999999    2.91000009
   19.77972221   81.74040222    0.81999999    2.91000009
   19.78249931   81.60430145    0.81999999    2.91000009
   19.78583336   90.91359711    0.81999999    2.91000009
   19.78916550   80.46009827    0.81999999    2.91000009
   19.79222107   80.32070160    0.81999999    2.91000009
   19.79555511   80.65730286    0.81999999    2.91000009
   19.79888916   80.64929962    0.81999999    2.91000009
   19.80472183   80.64929962    0.81999999    2.91000009
   19.82416725   84.00340271    0.81999999    2.91000009
   19.82750130   77.90059662    0.81999999    2.91000009
   19.83083344   75.96649933    0.81999999    2.91000009
   19.83388901   76.96320343    0.81999999    2.91000009
   19.83722305   78.04630280    0.81999999    2.91000009
   19.84027863   80.21800232    0.81999999    2.91000009
   19.84361267   80.20449829    0.81999999    2.91000009
   19.84777832   80.20449829    0.81999999    2.91000009
   19.85194397   81.34539795    0.81999999    2.91000009
   19.85527802   77.33969879    0.81999999    2.91000009
   19.85722351   89.08419800    0.81999999    2.91000009
   19.85888863   76.18489838    0.81999999    2.91000009
   19.86222267   76.91989899    0.81999999    2.91000009
   19.86527824   75.44280243    0.81999999    2.91000009
   19.86861038   80.89589691    0.81999999    2.91000009
   19.87166595   74.91709900    0.81999999    2.91000009
   19.87500000   80.23549652    0.81999999    2.91000009
   19.87833405   83.15360260    0.81999999    2.91000009
   19.88138962   79.68840027    0.81999999    2.91000009
   19.88472176   79.54000092    0.81999999    2.91000009
   19.89055634   79.54000092    0.81999999    2.91000009
   19.89472198   85.93810272    0.81999999    2.91000009
   19.89805603   82.05190277    0.81999999    2.91000009
   19.90138817   85.62030029    0.81999999    2.91000009
   19.90444374   82.02189636    0.81999999    2.91000009
   19.90777779   78.35009766    0.81999999    2.91000009
   19.91110992   80.87799835    0.81999999    2.91000009
   19.91416550   79.79319763    0.81999999    2.91000009
   19.91749954   79.42729950    0.81999999    2.91000009
   19.92055511   78.58149719    0.81999999    2.91000009
   19.92388916   78.15339661    0.81999999    2.91000009
   19.92444420   78.81909943    0.81999999    2.91000009
   19.92777634   75.12999725    0.81999999    2.91000009
   19.93361092   75.12999725    0.81999999    2.91000009
   19.93777657   78.95179749    0.81999999    2.91000009
   19.94083214   75.79979706    0.81999999    2.91000009
   19.94416618   78.05879974    0.81999999    2.91000009
   19.94749832   80.46749878    0.81999999    2.91000009
   19.95055580   81.73410034    0.81999999    2.91000009
   19.95388985   78.34149933    0.81999999    2.91000009
   19.95694542   81.02809906    0.81999999    2.91000009
   19.95750046   77.46800232    0.81999999    2.91000009
   19.96083450   74.99420166    0.81999999    2.91000009
   19.96416664   77.22910309    0.81999999    2.91000009
   19.96722221   76.39769745    0.81999999    2.91000009
   19.97055626   79.34649658    0.81999999    2.91000009
   19.97638893   79.34649658    0.81999999    2.91000009
   19.98055649   78.87059784    0.81999999    2.91000009
   19.98388863   79.65679932    0.81999999    2.91000009
   19.98694420   78.82659912    0.81999999    2.91000009
   19.99027824   80.06009674    0.81999999    2.91000009
   19.99083328   81.17600250    0.81999999    2.91000009
   19.99388885   78.90869904    0.81999999    2.91000009
   19.99722290   79.11779785    0.81999999    2.91000009
   20.00027847   76.42140198    0.81999999    2.91000009
   20.00361061   80.58380127    0.81999999    2.91000009
   20.00694466   76.43509674    0.81999999    2.91000009
   20.01000023   78.53579712    0.81999999    2.91000009
   20.01333427   77.01000214    0.81999999    2.91000009
   20.01916695   77.01000214    0.81999999    2.91000009
   20.02333260   77.64559937    0.81999999    2.91000009
   20.02416611   82.15100098    0.81999999    2.91000009
   20.02694511   79.82170105    0.81999999    2.91000009
   20.03027725   78.76399994    0.81999999    2.91000009
   20.03333282   82.87190247    0.81999999    2.91000009
   20.03666687   81.71600342    0.81999999    2.91000009
   20.03999901   84.63580322    0.81999999    2.91000009
   20.04305458   78.42610168    0.81999999    2.91000009
   20.04638863   79.08910370    0.81999999    2.91000009
   20.04944420   80.76930237    0.81999999    2.91000009
   20.05277634   79.54429626    0.81999999    2.91000009
   20.05611038   75.30760193    0.81999999    2.91000009
   20.05749893   76.71869659    0.81999999    2.91000009
   20.06222153   76.71869659    0.81999999    2.91000009
   20.06611061   79.10980225    0.81999999    2.91000009
   20.06944466   76.91549683    0.81999999    2.91000009
   20.07277870   81.27179718    0.81999999    2.91000009
   20.07583427   76.90599823    0.81999999    2.91000009
   20.07916832   79.88490295    0.81999999    2.91000009
   20.08250046   82.03959656    0.81999999    2.91000009
   20.08555603   78.92800140    0.81999999    2.91000009
   20.08889008   78.74839783    0.81999999    2.91000009
   20.09083366   80.20899963    0.81999999    2.91000009
   20.09250069   86.93150330    0.81999999    2.91000009
   20.09583473   78.55079651    0.81999999    2.91000009
   20.09889030   78.13899994    0.81999999    2.91000009
   20.10499954   78.13899994    0.81999999    2.91000009
   20.10916710   82.34690094    0.81999999    2.91000009
   20.11222267   83.54850006    0.81999999    2.91000009
   20.11555672   82.62419891    0.81999999    2.91000009
   20.11861038   94.15059662    0.81999999    2.91000009
   20.12194443   82.62139893    0.81999999    2.91000009
   20.12416649   77.57039642    0.81999999    2.91000009
   20.12555504   81.36260223    0.81999999    2.91000009
   20.12888908   76.44879913    0.81999999    2.91000009
   20.13194466   79.67310333    0.81999999    2.91000009
   20.13527679   79.84750366    0.81999999    2.91000009
   20.13861084   77.88089752    0.81999999    2.91000009
   20.14166641   83.39920044    0.81999999    2.91000009
   20.14777756   83.39920044    0.81999999    2.91000009
   20.15194321   81.05740356    0.81999999    2.91000009
   20.15499878   79.37169647    0.81999999    2.91000009
   20.15749931   86.64170074    0.81999999    2.91000009
   20.15861130   82.92109680    0.81999999    2.91000009
   20.16194344   83.13140106    0.81999999    2.91000009
   20.16499901   79.18250275    0.81999999    2.91000009
   20.16833305   79.10590363    0.81999999    2.91000009
   20.17166519   84.89409637    0.81999999    2.91000009
   20.17472076   77.40270233    0.81999999    2.91000009
   20.17805481   83.19819641    0.81999999    2.91000009
   20.18111038   77.17279816    0.81999999    2.91000009
   20.18444443   82.76270294    0.81999999    2.91000009
   20.19055557   82.76270294    0.81999999    2.91000009
   20.19472122   81.13829803    0.81999999    2.91000009
   20.19805527   81.17680359    0.81999999    2.91000009
   20.20111275   76.74870300    0.81999999    2.91000009
   20.20444489   78.92630005    0.81999999    2.91000009
   20.20777893   78.62370300    0.81999999    2.91000009
   20.21083450   78.68070221    0.81999999    2.91000009
   20.21416664   77.23960114    0.81999999    2.91000009
   20.21750069   77.67050171    0.81999999    2.91000009
   20.22055626   85.39450073    0.81999999    2.91000009
   20.22389030   82.70590210    0.81999999    2.91000009
   20.22555542   82.19100189    0.81999999    2.91000009
   20.22750092   86.43949890    0.81999999    2.91000009
   20.23333359   86.43949890    0.81999999    2.91000009
   20.23750114   74.91100311    0.81999999    2.91000009
   20.24083328   86.10160065    0.81999999    2.91000009
   20.24416733   82.38510132    0.81999999    2.91000009
   20.24722290   79.80889893    0.81999999    2.91000009
   20.25055504   86.75900269    0.81999999    2.91000009
   20.25361061   87.53410339    0.81999999    2.91000009
   20.25694466   83.92530060    0.81999999    2.91000009
   20.25888824   83.24859619    0.81999999    2.91000009
   20.26055527   81.22570038    0.81999999    2.91000009
   20.26388931   82.27719879    0.81999999    2.91000009
   20.26694489   84.80829620    0.81999999    2.91000009
   20.27027702   85.15350342    0.81999999    2.91000009
   20.27638817   85.15350342    0.81999999    2.91000009
   20.28055573   82.69159698    0.81999999    2.91000009
   20.28361130   85.48960114    0.81999999    2.91000009
   20.28694344   81.53170013    0.81999999    2.91000009
   20.28999901   80.75289917    0.81999999    2.91000009
   20.29249954   76.51940155    0.81999999    2.91000009
   20.29388809   88.84919739    0.81999999    2.91000009
   20.29694366   82.63130188    0.81999999    2.91000009
   20.30027771   85.20739746    0.81999999    2.91000009
   20.30360985   83.17729950    0.81999999    2.91000009
   20.30666542   77.41020203    0.81999999    2.91000009
   20.30999947   85.66870117    0.81999999    2.91000009
   20.31305504   80.20020294    0.81999999    2.91000009
   20.31916809   80.20020294    0.81999999    2.91000009
   20.32333374   90.32749939    0.81999999    2.91000009
   20.32583427   88.23320007    0.81999999    2.91000009
   20.32694626   90.77739716    0.81999999    2.91000009
   20.33000183   81.58180237    0.81999999    2.91000009
   20.33333397   78.56300354    0.81999999    2.91000009
   20.33666801   76.30439758    0.81999999    2.91000009
   20.33972359   78.14949799    0.81999999    2.91000009
   20.34305573   83.11969757    0.81999999    2.91000009
   20.34611130   80.38150024    0.81999999    2.91000009
   20.34944534   80.40219879    0.81999999    2.91000009
   20.35277748   79.53939819    0.81999999    2.91000009
   20.35583305   75.81259918    0.81999999    2.91000009
   20.36194420   75.81259918    0.81999999    2.91000009
   20.36611176   79.60579681    0.81999999    2.91000009
   20.36972237   84.23570251    0.81999999    2.91000009
   20.37277794   79.42330170    0.81999999    2.91000009
   20.37611198   79.47979736    0.81999999    2.91000009
   20.37944412   81.58580017    0.81999999    2.91000009
   20.38249969   79.45379639    0.81999999    2.91000009
   20.38583374   81.57070160    0.81999999    2.91000009
   20.38916588   80.09429932    0.81999999    2.91000009
   20.39222145   79.12490082    0.81999999    2.91000009
   20.39277840   74.58020020    0.81999999    2.91000009
   20.39583397   82.33750153    0.81999999    2.91000009
   20.39916611   76.76629639    0.81999999    2.91000009
   20.40472221   76.76629639    0.81999999    2.91000009
   20.40888786   81.55210114    0.81999999    2.91000009
   20.41222191   86.68520355    0.81999999    2.91000009
   20.41555595   76.95310211    0.81999999    2.91000009
   20.41860962   78.64959717    0.81999999    2.91000009
   20.42194366   76.86139679    0.81999999    2.91000009
   20.42499924   78.39019775    0.81999999    2.91000009
   20.42611122   77.75000000    0.81999999    2.91000009
   20.42860985   82.26770020    0.81999999    2.91000009
   20.43194389   79.68579865    0.81999999    2.91000009
   20.43499947   77.17359924    0.81999999    2.91000009
   20.43833160   78.80760193    0.81999999    2.91000009
   20.44166565   79.12409973    0.81999999    2.91000009
   20.44777679   79.12409973    0.81999999    2.91000009
   20.45194435   77.82710266    0.81999999    2.91000009
   20.45499992   86.89330292    0.81999999    2.91000009
   20.45833397   83.14700317    0.81999999    2.91000009
   20.45972252   78.32530212    0.81999999    2.91000009
   20.46194458   83.52010345    0.81999999    2.91000009
   20.46527863   80.68489838    0.81999999    2.91000009
   20.46833420   81.68930054    0.81999999    2.91000009
   20.47166634   81.50379944    0.81999999    2.91000009
   20.47472191   82.44100189    0.81999999    2.91000009
   20.47805595   83.87480164    0.81999999    2.91000009
   20.48139000   88.88870239    0.81999999    2.91000009
   20.48444557   81.41079712    0.81999999    2.91000009
   20.49055672   81.41079712    0.81999999    2.91000009
   20.49472237   82.05039978    0.81999999    2.91000009
   20.49777794   77.95200348    0.81999999    2.91000009
   20.50111198   82.68720245    0.81999999    2.91000009
   20.50444412   86.86779785    0.81999999    2.91000009
   20.50749969   81.89610291    0.81999999    2.91000009
   20.51083374   82.87390137    0.81999999    2.91000009
   20.51416588   86.93309784    0.81999999    2.91000009
   20.51722145   83.83059692    0.81999999    2.91000009
   20.52055550   82.57510376    0.81999999    2.91000009
   20.52361107   85.48799896    0.81999999    2.91000009
   20.52638817   80.35330200    0.81999999    2.91000009
   20.52750015   81.18199921    0.81999999    2.91000009
   20.53333282   81.18199921    0.81999999    2.91000009
   20.53750038  100.65299988    0.81999999    2.91000009
   20.54083252   84.47409821    0.81999999    2.91000009
   20.54388809   83.65740204    0.81999999    2.91000009
   20.54722214   82.15239716    0.81999999    2.91000009
   20.55055428   78.77819824    0.81999999    2.91000009
   20.55360985   83.40019989    0.81999999    2.91000009
   20.55694389   79.01429749    0.81999999    2.91000009
   20.55972099   78.32189941    0.81999999    2.91000009
   20.56055450   81.20529938    0.81999999    2.91000009
   20.56388855   78.67050171    0.81999999    2.91000009
   20.56694603   86.52230072    0.81999999    2.91000009
   20.57027817   89.24659729    0.81999999    2.91000009
   20.57611275   89.24659729    0.81999999    2.91000009
   20.58027840   83.76899719    0.81999999    2.91000009
   20.58361244   87.60199738    0.81999999    2.91000009
   20.58694458   90.70099640    0.81999999    2.91000009
   20.59000015   85.16880035    0.81999999    2.91000009
   20.59305573   79.70220184    0.81999999    2.91000009
   20.59361267   82.09619904    0.81999999    2.91000009
   20.59694481   81.71440125    0.81999999    2.91000009
   20.60000038   79.41169739    0.81999999    2.91000009
   20.60333443   82.47219849    0.81999999    2.91000009
   20.60639000   80.73780060    0.81999999    2.91000009
   20.60972214   81.97509766    0.81999999    2.91000009
   20.61305618   79.83619690    0.81999999    2.91000009
   20.61916733   79.83619690    0.81999999    2.91000009
   20.62333298   83.57749939    0.81999999    2.91000009
   20.62666702   89.02960205    0.81999999    2.91000009
   20.62722206   88.61519623    0.81999999    2.91000009
   20.63055611   86.09369659    0.81999999    2.91000009
   20.63388824   84.61930084    0.81999999    2.91000009
   20.63722229   82.27339935    0.81999999    2.91000009
   20.64055634   89.92759705    0.81999999    2.91000009
   20.64361191   87.48930359    0.81999999    2.91000009
   20.64694405   82.26059723    0.81999999    2.91000009
   20.65027809   82.15799713    0.81999999    2.91000009
   20.65333366   81.52279663    0.81999999    2.91000009
   20.65666580   80.81529999    0.81999999    2.91000009
   20.66194344   80.81529999    0.81999999    2.91000009
   20.66611099   80.95839691    0.81999999    2.91000009
   20.66916656   79.58730316    0.81999999    2.91000009
   20.67249870   81.46610260    0.81999999    2.91000009
   20.67583275   82.18879700    0.81999999    2.91000009
   20.67888832   89.32659912    0.81999999    2.91000009
   20.68222237   80.50700378    0.81999999    2.91000009
   20.68555450   81.46209717    0.81999999    2.91000009
   20.68861008   92.65039825    0.81999999    2.91000009
   20.69194412   83.76039886    0.81999999    2.91000009
   20.69305420   82.75900269    0.81999999    2.91000009
   20.69555473   85.61419678    0.81999999    2.91000009
   20.69888878   86.40820313    0.81999999    2.91000009
   20.70472336   86.40820313    0.81999999    2.91000009
   20.70888901   85.78489685    0.81999999    2.91000009
   20.71222305   85.77980042    0.81999999    2.91000009
   20.71527863   87.17590332    0.81999999    2.91000009
   20.71861076   81.97380066    0.81999999    2.91000009
   20.72194481   82.81379700    0.81999999    2.91000009
   20.72500038   78.64910126    0.81999999    2.91000009
   20.72638893   78.18049622    0.81999999    2.91000009
   20.72861099   86.31479645    0.81999999    2.91000009
   20.73194504   89.15529633    0.81999999    2.91000009
   20.73500061   79.96640015    0.81999999    2.91000009
   20.73833275   79.10289764    0.81999999    2.91000009
   20.74138832   87.64949799    0.81999999    2.91000009
   20.74749947   87.64949799    0.81999999    2.91000009
   20.75166702   81.05200195    0.81999999    2.91000009
   20.75499916   88.67489624    0.81999999    2.91000009
   20.75805473   83.94080353    0.81999999    2.91000009
   20.76000023   80.80429840    0.81999999    2.91000009
   20.76194382   90.13849640    0.81999999    2.91000009
   20.76499939   81.43289948    0.81999999    2.91000009
   20.76833344   79.83300018    0.81999999    2.91000009
   20.77166557   98.96050262    0.81999999    2.91000009
   20.77472115   83.57869720    0.81999999    2.91000009
   20.77805519   87.85070038    0.81999999    2.91000009
   20.78111076   92.44110107    0.81999999    2.91000009
   20.78444481   93.52999878    0.81999999    2.91000009
   20.79055595   93.52999878    0.81999999    2.91000009
   20.79444313   97.27349854    0.81999999    2.91000009
   20.79777718   94.44149780    0.81999999    2.91000009
   20.80111122   96.61180115    0.81999999    2.91000009
   20.80416679  117.12899780    0.81999999    2.91000009
   20.80749893   -1.00000000    0.81999999    2.91000009
   20.81083298   -1.00000000    0.81999999    2.91000009
   20.81388855  197.83599854    0.81999999    2.91000009
   20.81722260   -1.00000000    0.81999999    2.91000009
   20.82055664   -1.00000000    0.81999999    2.91000009
   20.82361221   -1.00000000    0.81999999    2.91000009
   20.84916687   -1.00000000    0.81999999    2.91000009
   20.85222244   -1.00000000    0.81999999    2.91000009
   20.85555649   -1.00000000    0.81999999    2.91000009
   20.85888863   -1.00000000    0.81999999    2.91000009
   20.86194420   -1.00000000    0.81999999    2.91000009
   20.86527824   -1.00000000    0.81999999    2.91000009
   20.86861038   -1.00000000    0.81999999    2.91000009
   20.87166595   -1.00000000    0.81999999    2.91000009
   20.87527847   -1.00000000    0.81999999    2.91000009
   20.87833405  147.51699829    0.81999999    2.91000009
   20.88166618   -1.00000000    0.81999999    2.91000009
   20.88805580   -1.00000000    0.81999999    2.91000009
   20.89194489  141.63499451    0.81999999    2.91000009
   20.89527702  203.97200012    0.81999999    2.91000009
   20.89861107  133.29899597    0.81999999    2.91000009
   20.90166664  135.59199524    0.81999999    2.91000009
   20.90499878  125.67600250    0.81999999    2.91000009
   20.90749931  136.30499268    0.81999999    2.91000009
   20.90861130  130.88999939    0.81999999    2.91000009
   20.91194344  137.57099915    0.81999999    2.91000009
   20.91499901  143.87600708    0.81999999    2.91000009
   20.91833305  183.12899780    0.81999999    2.91000009
   20.92166519  112.50800323    0.81999999    2.91000009
   20.92472076  120.11299896    0.81999999    2.91000009
   20.93083191  120.11299896    0.81999999    2.91000009
   20.93499947  152.36099243    0.81999999    2.91000009
   20.93805504  232.07299805    0.81999999    2.91000009
   20.94083214  186.36599731    0.81999999    2.91000009
   20.94166565  147.89999390    0.81999999    2.91000009
   20.94499969  172.31399536    0.81999999    2.91000009
   20.94805527  282.98400879    0.81999999    2.91000009
   20.95138931  132.49200439    0.81999999    2.91000009
   20.95472336  157.62500000    0.81999999    2.91000009
   20.95777893  126.88999939    0.81999999    2.91000009
   20.96111107  102.77100372    0.81999999    2.91000009
   20.96416664  101.56800079    0.81999999    2.91000009
   20.96750069   -1.00000000    0.81999999    2.91000009
   20.97361183   -1.00000000    0.81999999    2.91000009
   20.97777748  135.49200439    0.81999999    2.91000009
   20.98111153  100.00499725    0.81999999    2.91000009
   20.98416710   89.79759979    0.81999999    2.91000009
   20.98750114   94.99829865    0.81999999    2.91000009
   20.99055672   93.84390259    0.81999999    2.91000009
   20.99388885   91.34140015    0.81999999    2.91000009
   20.99722290  120.26599884    0.81999999    2.91000009
   21.00027847   -1.00000000    0.81999999    2.91000009
   21.00361061   -1.00000000    0.81999999    2.91000009
   21.00666618   -1.00000000    0.81999999    2.91000009
   21.01027870   -1.00000000    0.81999999    2.91000009
   21.01638794   -1.00000000    0.81999999    2.91000009
   21.02055550  201.60299683    0.81999999    2.91000009
   21.02388954  111.63800049    0.81999999    2.91000009
   21.02694511   92.37229919    0.81999999    2.91000009
   21.03027725   99.88580322    0.81999999    2.91000009
   21.03361130   94.90560150    0.81999999    2.91000009
   21.03666687  106.97299957    0.81999999    2.91000009
   21.03999901  107.24800110    0.81999999    2.91000009
   21.04194450  105.66300201    0.81999999    2.91000009
   21.04361153  102.24700165    0.81999999    2.91000009
   21.04666710  114.29000092    0.81999999    2.91000009
   21.04999924  123.98000336    0.81999999    2.91000009
   21.05333328   97.53040314    0.81999999    2.91000009
   21.05944443   97.53040314    0.81999999    2.91000009
   21.06333351   89.12190247    0.81999999    2.91000009
   21.06666756  117.49500275    0.81999999    2.91000009
   21.07000160  142.76400757    0.81999999    2.91000009
   21.07305717   85.67230225    0.81999999    2.91000009
   21.07555580  109.42199707    0.81999999    2.91000009
   21.07694626   93.63780212    0.81999999    2.91000009
   21.08000183   88.45860291    0.81999999    2.91000009
   21.08333397   94.94680023    0.81999999    2.91000009
   21.08638954   94.31770325    0.81999999    2.91000009
   21.08972359  105.74900055    0.81999999    2.91000009
   21.09305573  103.90899658    0.81999999    2.91000009
   21.09611130  101.81400299    0.81999999    2.91000009
   21.10222244  101.81400299    0.81999999    2.91000009
   21.10639000  104.31800079    0.81999999    2.91000009
   21.10888863  118.91300201    0.81999999    2.91000009
   21.11000061  127.74900055    0.81999999    2.91000009
   21.11305618  114.61199951    0.81999999    2.91000009
   21.11638832  151.84500122    0.81999999    2.91000009
   21.11944389  133.53500366    0.81999999    2.91000009
   21.12277794  114.31800079    0.81999999    2.91000009
   21.12611198  108.11299896    0.81999999    2.91000009
   21.12916756  112.93599701    0.81999999    2.91000009
   21.13249969  103.14800262    0.81999999    2.91000009
   21.13583374  120.66899872    0.81999999    2.91000009
   21.13888931  113.44200134    0.81999999    2.91000009
   21.14500046  113.44200134    0.81999999    2.91000009
   21.14916611  123.12100220    0.81999999    2.91000009
   21.15222168  126.61699677    0.81999999    2.91000009
   21.15555573  117.33699799    0.81999999    2.91000009
   21.15888786  124.72799683    0.81999999    2.91000009
   21.16222191  122.51300049    0.81999999    2.91000009
   21.16527748  115.85299683    0.81999999    2.91000009
   21.16860962  118.31500244    0.81999999    2.91000009
   21.17166519  115.65899658    0.81999999    2.91000009
   21.17499924  114.69300079    0.81999999    2.91000009
   21.17583275  107.19300079    0.81999999    2.91000009
   21.17860985  110.90200043    0.81999999    2.91000009
   21.18166542  108.94899750    0.81999999    2.91000009
   21.18777657  108.94899750    0.81999999    2.91000009
   21.19194412  121.24199677    0.81999999    2.91000009
   21.19527626  118.10700226    0.81999999    2.91000009
   21.19833183  111.14199829    0.81999999    2.91000009
   21.20166779  106.36100006    0.81999999    2.91000009
   21.20499992  105.29399872    0.81999999    2.91000009
   21.20805550  105.86199951    0.81999999    2.91000009
   21.20916748  109.47799683    0.81999999    2.91000009
   21.21166801  107.63300323    0.81999999    2.91000009
   21.21472359   92.07879639    0.81999999    2.91000009
   21.21805573  109.24099731    0.81999999    2.91000009
   21.22138977  109.97899628    0.81999999    2.91000009
   21.22444534  108.67800140    0.81999999    2.91000009
   21.23083305  108.67800140    0.81999999    2.91000009
   21.23472214   89.56759644    0.81999999    2.91000009
   21.23805618  100.18499756    0.81999999    2.91000009
   21.24138832  100.31099701    0.81999999    2.91000009
   21.24277878   93.27100372    0.81999999    2.91000009
   21.24500084   96.55069733    0.81999999    2.91000009
   21.24805641   90.63259888    0.81999999    2.91000009
   21.25138855  101.62799835    0.81999999    2.91000009
   21.25472260   93.05030060    0.81999999    2.91000009
   21.25777817   86.46279907    0.81999999    2.91000009
   21.26111031   87.42769623    0.81999999    2.91000009
   21.26444435   98.82900238    0.81999999    2.91000009
   21.26749992   92.50779724    0.81999999    2.91000009
   21.27361107   92.50779724    0.81999999    2.91000009
   21.27777672   -1.00000000    0.81999999    2.91000009
   21.28083229   -1.00000000    0.81999999    2.91000009
   21.28416634   -1.00000000    0.81999999    2.91000009
   21.28750038   -1.00000000    0.81999999    2.91000009
   21.29055595   -1.00000000    0.81999999    2.91000009
   21.29388809   -1.00000000    0.81999999    2.91000009
   21.29694366   -1.00000000    0.81999999    2.91000009
   21.30027771  203.80400085    0.81999999    2.91000009
   21.30360985   62.27009964    0.81999999    2.91000009
   21.30666542   -1.00000000    0.81999999    2.91000009
   21.31027794   -1.00000000    0.81999999    2.91000009
   21.32055664   -1.00000000    0.81999999    2.91000009
   21.32361221   -1.00000000    0.81999999    2.91000009
   21.32694626   -1.00000000    0.81999999    2.91000009
   21.33027840   -1.00000000    0.81999999    2.91000009
   21.33333397   -1.00000000    0.81999999    2.91000009
   21.33666801   -1.00000000    0.81999999    2.91000009
   21.33972359   -1.00000000    0.81999999    2.91000009
   21.34333420   -1.00000000    0.81999999    2.91000009
   21.34666824   -1.00000000    0.81999999    2.91000009
   21.35000038   -1.00000000    0.81999999    2.91000009
   21.35305595   -1.00000000    0.81999999    2.91000009
   21.36333466   -1.00000000    0.81999999    2.91000009
   21.36638832   -1.00000000    0.81999999    2.91000009
   21.36972237   -1.00000000    0.81999999    2.91000009
   21.37305641   -1.00000000    0.81999999    2.91000009
   21.37638855   -1.00000000    0.81999999    2.91000009
