    HOUR (UT)   FLARE FACTOR    SKY TESTER    SUN TESTER
   10.95027733   -1.00000000   -1.00000000   -1.00000000
   10.97694397  111.69999695    4.90999985    1.60000002
   10.98027706  386.54000854    4.90999985    1.60000002
   10.98222160  387.85501099    4.90999985    1.60000002
   10.98361111  377.01699829    4.90999985    1.60000002
   10.98500061  361.89599609    4.90999985    1.60000002
   10.98638916  341.24099731    4.90999985    1.60000002
   10.98777771  335.52200317    4.90999985    1.60000002
   10.98916721  364.81799316    4.90999985    1.61000001
   10.99055576  337.08898926    4.90999985    1.60000002
   10.99194431  361.53201294    4.90999985    1.61000001
   10.99333382  330.48400879    4.90999985    1.61000001
   10.99472237  405.67700195    4.90999985    1.61000001
   10.99611092  367.86099243    4.90999985    1.61000001
   10.99750042  338.53799438    4.90999985    1.61000001
   10.99888897  333.24700928    4.90999985    1.61000001
   11.00027752  342.25799561    4.90999985    1.61000001
   11.00166702  338.76800537    4.90999985    1.61000001
   11.00305557  374.34399414    4.90999985    1.63000000
   11.00444412  324.23098755    4.90999985    1.63000000
   11.00583363  331.74899292    4.90999985    1.63000000
   11.00722218  335.28100586    4.90999985    1.63000000
   11.00861073  347.97799683    4.90999985    1.63000000
   11.01000023  358.71899414    4.90999985    1.63000000
   11.01138878  301.30300903    4.90999985    1.63000000
   11.01277733  308.74600220    4.90999985    1.63000000
   11.01416683  295.71899414    4.90999985    1.63000000
   11.01555538  335.85101318    4.90999985    1.64999998
   11.01694393  308.75399780    4.88999987    1.64999998
   11.01833344  278.89401245    4.88999987    1.64999998
   11.01972198  293.36801147    4.86999989    1.64999998
   11.02111053  290.84799194    4.86999989    1.64999998
   11.02250004  299.62399292    4.86999989    1.66999996
   11.02388859  313.23901367    4.84999990    1.64999998
   11.02527714  293.55200195    4.84999990    1.64999998
   11.02666664  333.22601318    4.84999990    1.66999996
   11.02805519  334.44900513    4.82999992    1.66999996
   11.02944374  294.13800049    4.82999992    1.66999996
   11.03083324  321.72198486    4.80999994    1.66999996
   11.03222179  306.38400269    4.80000019    1.66999996
   11.03361130  301.45901489    4.80000019    1.66999996
   11.03500080  307.69198608    4.78000021    1.66999996
   11.03638935  299.82800293    4.78000021    1.66999996
   11.03777790  303.60000610    4.76000023    1.66999996
   11.03916740  297.64700317    4.76000023    1.66999996
   11.04055595  271.47500610    4.76000023    1.66999996
   11.04194450  295.44799805    4.76000023    1.66999996
   11.04333401  257.33200073    4.76000023    1.66999996
   11.04472256  300.64001465    4.76000023    1.66999996
   11.04611111  260.78399658    4.76000023    1.66999996
   11.04750061  249.74299622    4.76000023    1.66999996
   11.04750061  386.54000854    4.90999985    1.60000002
   11.04805565  270.30300903    4.67999983    1.69000006
   11.05138874  235.48699951    4.67999983    1.69000006
   11.05444431  260.38598633    4.61999989    1.71000004
   11.05777836  245.66499329    4.59999990    1.73000002
   11.06111145  269.76000977    4.57999992    1.71000004
   11.06416702  237.65899658    4.63999987    1.71000004
   11.06833363  237.65899658    4.67999983    1.71000004
   11.07250023  234.80400085    4.65999985    1.71000004
   11.07583332  230.96899414    4.65999985    1.73000002
   11.07888889  242.07800293    4.65999985    1.73000002
   11.08138847  223.73300171    4.65999985    1.73000002
   11.08249950  215.13699341    4.65999985    1.73000002
   11.08583260  226.82400513    4.65999985    1.73000002
   11.08916664  239.14900208    4.63999987    1.75000000
   11.09222221  226.94099426    4.63999987    1.75000000
   11.09555531  238.59399414    4.61999989    1.75000000
   11.09888840  228.90299988    4.61999989    1.75000000
   11.10194492  223.88499451    4.59999990    1.76999998
   11.10527802  222.11000061    4.57999992    1.75000000
   11.11138916  222.11000061    4.57999992    1.76999998
   11.11527824  212.14799500    4.57999992    1.76999998
   11.11861134  209.25000000    4.55999994    1.78999996
   11.12194443  211.61599731    4.55999994    1.78999996
   11.12500000  207.74099731    4.55999994    1.78999996
   11.12833309  217.31199646    4.55999994    1.78999996
   11.13138866  241.06100464    4.55999994    1.80999994
   11.13472176  275.76400757    4.55999994    1.80999994
   11.13805580  220.82400513    4.53999996    1.80999994
   11.14111137  209.81100464    4.53999996    1.78999996
   11.14444447  206.60400391    4.53999996    1.80999994
   11.14777756  210.14300537    4.53999996    1.80999994
   11.14833355  213.56799316    4.53999996    1.80999994
   11.15416622  213.56799316    4.53999996    1.80999994
   11.15833282  228.09500122    4.53000021    1.83000004
   11.16138840  243.34700012    4.51000023    1.83000004
   11.16472149  211.42599487    4.46999979    1.80999994
   11.16777802  198.65800476    4.44999981    1.83000004
   11.17111111  187.26800537    4.40999985    1.83000004
   11.17444515  202.91499329    4.40999985    1.83000004
   11.17750072  193.85899353    4.38999987    1.83000004
   11.18083382  195.70399475    4.36999989    1.85000002
   11.18166733  196.81599426    4.34999990    1.85000002
   11.18444443  161.03599548    4.34999990    1.85000002
   11.18777752  188.58299255    4.32999992    1.86000001
   11.19083309  171.47399902    4.30999994    1.86000001
   11.19694424  171.47399902    4.26999998    1.86000001
   11.20111084  186.78799438    4.21999979    1.88000000
   11.20416641  172.48599243    4.17999983    1.88000000
   11.20749950  180.49699402    4.13999987    1.88000000
   11.21083355  177.50599670    4.11999989    1.88000000
   11.21388912  159.46699524    4.07999992    1.89999998
   11.21500015  170.12300110    4.07999992    1.89999998
   11.21749973  198.94000244    4.03999996    1.89999998
   11.22083282  159.99000549    4.03999996    1.89999998
   11.22388840  219.08500671    4.01999998    1.89999998
   11.22722149  173.06199646    4.00000000    1.89999998
   11.23055553  174.11199951    3.99000001    1.89999998
   11.23361111  187.63200378    3.97000003    1.89999998
   11.23972225  187.63200378    3.93000007    1.91999996
   11.24388885  168.99899292    3.89000010    1.89999998
   11.24722290  173.99299622    3.86999989    1.91999996
   11.24833393  177.63299561    3.86999989    1.89999998
   11.25083351  175.65400696    3.84999990    1.91999996
   11.25416660  177.76300049    3.82999992    1.91999996
   11.25749969  225.21699524    3.80999994    1.91999996
   11.26055527  189.47200012    3.76999998    1.94000006
   11.26388931  207.59700012    3.75000000    1.94000006
   11.26694393  186.29400635    3.73000002    1.96000004
   11.27027798  173.89500427    3.72000003    1.96000004
   11.27361107  161.53399658    3.70000005    1.96000004
   11.27666664  169.15699768    3.70000005    1.96000004
   11.28277779  169.15699768    3.68000007    1.98000002
   11.28666687  166.44700623    3.66000009    1.98000002
   11.29000092  193.36599731    3.64000010    1.98000002
   11.29333401  168.60899353    3.64000010    1.98000002
   11.29638958  169.61900330    3.61999989    1.98000002
   11.29972267  159.65899658    3.61999989    1.98000002
   11.30305576  162.90499878    3.59999990    1.98000002
   11.30611134  159.32899475    3.57999992    1.98000002
   11.30944443  151.05799866    3.57999992    1.98000002
   11.31250000  161.06100464    3.55999994    2.00000000
   11.31500053  161.33700562    3.55999994    1.98000002
   11.31611156  153.98199463    3.55999994    2.00000000
   11.31944466  173.33500671    3.53999996    2.00000000
   11.32555580  173.33500671    3.51999998    2.00000000
   11.32972240  155.89399719    3.50000000    2.00000000
   11.33277798  159.05000305    3.48000002    2.00000000
   11.33611107  156.38299561    3.46000004    2.00000000
   11.33916664  156.43499756    3.46000004    2.00000000
   11.34249973  162.44799805    3.46000004    2.00000000
   11.34583282  156.76199341    3.45000005    2.01999998
   11.34833336  160.50500488    3.43000007    2.01999998
   11.34944439  146.38400269    3.43000007    2.01999998
   11.35277843  144.62300110    3.41000009    2.01999998
   11.35611153  143.99299622    3.39000010    2.01999998
   11.35916710  153.46499634    3.36999989    2.01999998
   11.36250019  146.01199341    3.34999990    2.01999998
   11.36833382  146.01199341    3.30999994    2.03999996
   11.37250042  145.45199585    3.28999996    2.03999996
   11.37555599  134.52400208    3.26999998    2.03999996
   11.37888908  138.38200378    3.25000000    2.05999994
   11.38166714  159.17900085    3.23000002    2.05999994
   11.38249969  160.98699951    3.23000002    2.05999994
   11.38583279  136.00399780    3.21000004    2.05999994
   11.38888836  156.47099304    3.20000005    2.05999994
   11.39222240  143.63600159    3.18000007    2.05999994
   11.39555550  143.14100647    3.16000009    2.05999994
   11.39861107  149.53199768    3.14000010    2.05999994
   11.40194416  140.50900269    3.11999989    2.07999992
   11.40527725  142.99600220    3.07999992    2.05999994
   11.41111088  142.99600220    3.03999996    2.07999992
   11.41527748  147.55999756    3.00000000    2.07999992
   11.41861153  142.94500732    2.96000004    2.07999992
   11.42166710  141.70799255    2.94000006    2.09999990
   11.42500019  142.07800293    2.91000009    2.09999990
   11.42833328  143.72700500    2.89000010    2.09999990
   11.43138885  147.90100098    2.89000010    2.09999990
   11.43472195  137.83799744    2.86999989    2.09999990
   11.43777752  140.77699280    2.84999990    2.09999990
   11.44111156  149.71200562    2.82999992    2.09999990
   11.44444466  149.81199646    2.82999992    2.09999990
   11.44750023  139.45100403    2.80999994    2.09999990
   11.44833374  156.87300110    2.80999994    2.09999990
   11.45388889  156.87300110    2.80999994    2.11999989
   11.45805550  142.40299988    2.78999996    2.11999989
   11.46138859  144.77900696    2.78999996    2.11999989
   11.46472168  138.09899902    2.76999998    2.11999989
   11.46777725  141.17399597    2.75000000    2.11999989
   11.47111034  137.44799805    2.75000000    2.11999989
   11.47444439  151.03700256    2.75000000    2.13000011
   11.47749996  133.38999939    2.75000000    2.11999989
   11.48083305  138.49899292    2.73000002    2.13000011
   11.48166656  143.06599426    2.73000002    2.13000011
   11.48444462  143.57200623    2.71000004    2.13000011
   11.48777771  138.03300476    2.71000004    2.13000011
   11.49111176  135.70799255    2.69000006    2.13000011
   11.49694443  135.70799255    2.66000009    2.15000010
   11.50111103  129.79499817    2.64000010    2.13000011
   11.50416660  132.77000427    2.64000010    2.13000011
   11.50749969  138.47799683    2.61999989    2.13000011
   11.51055527  138.89900208    2.59999990    2.15000010
   11.51388931  142.28500366    2.57999992    2.17000008
   11.51500034  141.63499451    2.57999992    2.17000008
   11.51749992  138.28100586    2.55999994    2.17000008
   11.52083302  146.03599548    2.55999994    2.15000010
   11.52416611  138.49299622    2.55999994    2.15000010
   11.52750015  141.80099487    2.55999994    2.17000008
   11.53083324  143.74800110    2.55999994    2.15000010
   11.53416729  144.39999390    2.53999996    2.15000010
   11.53972244  144.39999390    2.51999998    2.17000008
   11.54388905  148.96600342    2.50000000    2.17000008
   11.54694462  142.17999268    2.48000002    2.17000008
   11.54833412  141.36599731    2.48000002    2.17000008
   11.55055618  146.13099670    2.48000002    2.19000006
   11.55388927  138.26199341    2.46000004    2.17000008
   11.55722237  141.54699707    2.46000004    2.17000008
   11.56027794  146.22900391    2.48000002    2.19000006
   11.56361103  153.90800476    2.48000002    2.19000006
   11.56694412  141.25700378    2.48000002    2.17000008
   11.56999969  138.46400452    2.50000000    2.17000008
   11.57333374  143.52900696    2.50000000    2.19000006
   11.57638836  138.76499939    2.50000000    2.19000006
   11.58249950  138.76499939    2.50000000    2.19000006
   11.58666611  147.14300537    2.51999998    2.21000004
   11.59000015  143.46200562    2.51999998    2.21000004
   11.59305477  150.74800110    2.51999998    2.21000004
   11.59638882  144.51300049    2.50000000    2.21000004
   11.59972191  150.20599365    2.48000002    2.21000004
   11.60277843  152.30599976    2.46000004    2.21000004
   11.60611153  163.53599548    2.46000004    2.21000004
   11.60916710  160.57299805    2.44000006    2.21000004
   11.61250019  151.68899536    2.44000006    2.21000004
   11.61500072  150.90699768    2.42000008    2.21000004
   11.61611176  161.42799377    2.44000006    2.21000004
   11.61944485  161.83099365    2.44000006    2.21000004
   11.62527752  161.83099365    2.44000006    2.21000004
   11.62944412  146.83700562    2.46000004    2.21000004
   11.63277817  165.74600220    2.46000004    2.23000002
   11.63611126  153.66000366    2.46000004    2.23000002
   11.63916683  159.54100037    2.48000002    2.21000004
   11.64249992  160.05900574    2.50000000    2.23000002
   11.64583302  165.06300354    2.51999998    2.23000002
   11.64833355  154.86300659    2.51999998    2.23000002
   11.64916611  162.17199707    2.51999998    2.23000002
   11.65249920  155.33500671    2.51999998    2.23000002
   11.65583324  164.84100342    2.51999998    2.23000002
   11.65888882  154.53199768    2.51999998    2.23000002
   11.66222191  159.32899475    2.51999998    2.23000002
   11.66833401  159.32899475    2.53999996    2.25000000
   11.67250061  148.12300110    2.50000000    2.25000000
   11.67555618  148.90100098    2.48000002    2.25000000
   11.67888927  156.48599243    2.48000002    2.25000000
   11.68166733  163.99200439    2.46000004    2.25000000
   11.68249989  149.47599792    2.44000006    2.25000000
   11.68583298  162.34300232    2.44000006    2.25000000
   11.68916702  155.56100464    2.42000008    2.25000000
   11.69222260  161.73699951    2.40000010    2.25000000
   11.69555569  160.40100098    2.40000010    2.25000000
   11.69888878  163.35699463    2.40000010    2.26999998
   11.70194435  173.52900696    2.40000010    2.26999998
   11.70527744  166.06100464    2.40000010    2.26999998
   11.71111107  166.06100464    2.40000010    2.25000000
   11.71527767  155.43299866    2.40000010    2.25000000
   11.71833324  164.34100342    2.40000010    2.25000000
   11.72166634  152.35299683    2.40000010    2.25000000
   11.72499943  163.34700012    2.40000010    2.26999998
   11.72805500  162.45599365    2.42000008    2.26999998
   11.73138809  161.56199646    2.42000008    2.26999998
   11.73444462  152.39799500    2.42000008    2.26999998
   11.73777771  162.55700684    2.42000008    2.26999998
   11.74111176  159.02000427    2.42000008    2.26999998
   11.74416733  157.95899963    2.42000008    2.26999998
   11.74750042  159.18600464    2.42000008    2.26999998
   11.74833393  153.86999512    2.42000008    2.26999998
   11.75388908  153.86999512    2.44000006    2.26999998
   11.75805569  151.04299927    2.46000004    2.26999998
   11.76138878  160.85800171    2.46000004    2.26999998
   11.76444435  158.15800476    2.46000004    2.28999996
   11.76777744  164.10499573    2.44000006    2.28999996
   11.77083302  149.39399719    2.44000006    2.28999996
   11.77416611  157.08099365    2.44000006    2.28999996
   11.77750015  155.74499512    2.44000006    2.28999996
   11.78055573  148.19000244    2.42000008    2.28999996
   11.78166676  146.84899902    2.42000008    2.28999996
   11.78416729  154.07699585    2.40000010    2.28999996
   11.78750038  147.03900146    2.39000010    2.28999996
   11.79083347  146.00900269    2.36999989    2.28999996
   11.79666710  146.00900269    2.32999992    2.28999996
   11.80083370  146.84399414    2.30999994    2.30999994
   11.80416679  162.39199829    2.26999998    2.30999994
   11.80722237  158.28799438    2.25000000    2.30999994
   11.81055546  152.41600037    2.25000000    2.30999994
   11.81388950  167.65800476    2.25000000    2.30999994
   11.81500053  155.96000671    2.25000000    2.30999994
   11.81722260  147.67599487    2.25000000    2.30999994
   11.82055569  150.22700500    2.25000000    2.30999994
   11.82388878  154.19700623    2.26999998    2.30999994
   11.82694435  147.72000122    2.25000000    2.30999994
   11.83027744  157.03999329    2.23000002    2.32999992
   11.83361053  155.99299622    2.21000004    2.32999992
   11.83972168  155.99299622    2.19000006    2.32999992
   11.84361076  157.14500427    2.17000008    2.32999992
   11.84694386  162.76800537    2.13000011    2.32999992
   11.84833336  152.27200317    2.11999989    2.32999992
   11.85055637  167.73899841    2.07999992    2.32999992
   11.85388947  157.88600159    2.05999994    2.32999992
   11.85722256  159.23500061    2.05999994    2.32999992
   11.86027813  167.91499329    2.03999996    2.32999992
   11.86361122  149.40699768    2.03999996    2.32999992
   11.86694431  158.85800171    2.03999996    2.34999990
   11.86999989  151.45100403    2.05999994    2.32999992
   11.87333393  163.47300720    2.07999992    2.32999992
   11.87638855  148.42799377    2.07999992    2.32999992
   11.88249969  148.42799377    2.05999994    2.34999990
   11.88666630  152.32400513    2.00000000    2.34999990
   11.88972187  154.30799866    1.88000000    2.34999990
   11.89305496  152.29200745    1.86000001    2.36999989
   11.89638901  144.91299438    1.86000001    2.36999989
   11.89944458  164.82200623    1.86000001    2.36999989
   11.90277767  157.97599792    1.86000001    2.36999989
   11.90611076  160.95300293    1.86000001    2.36999989
   11.90916634  158.78799438    1.86000001    2.36999989
   11.91249943  152.75700378    1.86000001    2.36999989
   11.91499996  143.91900635    1.88000000    2.36999989
   11.91583252  165.18800354    1.88000000    2.36999989
   11.91916656  160.53199768    1.91999996    2.36999989
   11.92527771  160.53199768    1.91999996    2.36999989
   11.92944431  168.32800293    1.91999996    2.36999989
   11.93277836  161.64500427    1.91999996    2.36999989
   11.93583298  161.66999817    1.91999996    2.36999989
   11.93916702  154.30900574    1.94000006    2.36999989
   11.94222260  159.55000305    1.94000006    2.36999989
   11.94555569  159.24899292    1.96000004    2.36999989
   11.94833374  160.13299561    1.98000002    2.36999989
   11.94944477  155.22300720    1.98000002    2.36999989
   11.95249939  155.09199524    2.00000000    2.36999989
   11.95583344  150.35899353    2.00000000    2.36999989
   11.95916653  146.38400269    2.00000000    2.36999989
   11.96222210  154.17399597    1.98000002    2.36999989
   11.96805477  154.17399597    1.98000002    2.36999989
   11.97222137  155.16299438    1.98000002    2.36999989
   11.97555542  154.27400208    1.98000002    2.36999989
   11.99416733  151.25900269    1.96000004    2.39000010
   11.99527836  150.79299927    1.94000006    2.39000010
   11.99861145  157.21200562    1.88000000    2.39000010
   12.00194454  162.33099365    1.86000001    2.40000010
   12.00500011  151.99400330    1.86000001    2.40000010
   12.01111126  151.99400330    1.86000001    2.40000010
   12.01527786  174.84800720    1.86000001    2.40000010
   12.01861095  161.03300476    1.86000001    2.40000010
   12.02194405  166.35099792    1.88000000    2.40000010
   12.02499962  178.00199890    1.86000001    2.40000010
   12.02750015  165.24800110    1.86000001    2.40000010
   12.02861118  154.70899963    1.86000001    2.40000010
   12.03194427  156.28100586    1.86000001    2.40000010
   12.03527832  152.39500427    1.85000002    2.40000010
   12.03833389  162.20500183    1.83000004    2.40000010
   12.04166698  157.12199402    1.83000004    2.40000010
   12.04500008  148.81900024    1.83000004    2.40000010
   12.04805565  153.43499756    1.91999996    2.40000010
   12.05416679  153.43499756    1.89999998    2.40000010
   12.05833340  159.04299927    1.89999998    2.40000010
   12.06083393  166.65400696    1.91999996    2.40000010
   12.06166649  164.48199463    1.91999996    2.40000010
   12.06500053  156.36300659    1.96000004    2.40000010
   12.06833363  158.38600159    1.96000004    2.40000010
   12.07138920  152.83799744    1.96000004    2.40000010
   12.07472229  164.29899597    1.96000004    2.40000010
   12.07805538  160.53399658    1.96000004    2.40000010
   12.08111095  158.74699402    1.96000004    2.40000010
   12.08444405  164.76199341    1.94000006    2.40000010
   12.08777714  162.29899597    1.91999996    2.42000008
   12.09083271  162.38699341    1.88000000    2.42000008
   12.09694386  162.38699341    1.88000000    2.42000008
   12.10111141  162.14399719    1.86000001    2.42000008
   12.10416698  162.31399536    1.86000001    2.40000010
   12.10750008  166.28599548    1.78999996    2.42000008
   12.11083412  161.35800171    1.78999996    2.42000008
   12.11388969  159.94700623    1.78999996    2.42000008
   12.11722279  154.86399841    1.71000004    2.42000008
   12.12055588  160.68600464    1.69000006    2.44000006
   12.12361145  167.28399658    1.66999996    2.44000006
   12.12694454  164.86399841    1.64999998    2.44000006
   12.12777805  156.70300293    1.64999998    2.44000006
   12.13055611  154.92799377    1.64999998    2.44000006
   12.13361073  162.53999329    1.64999998    2.44000006
   12.13972187  162.53999329    1.66999996    2.44000006
   12.14388847  166.51199341    1.66999996    2.44000006
   12.14722252  157.47900391    1.66999996    2.44000006
   12.15027714  161.51899719    1.69000006    2.44000006
   12.15361118  172.10400391    1.71000004    2.46000004
   12.15694427  166.49699402    1.73000002    2.44000006
   12.15999985  168.80700684    1.75000000    2.44000006
   12.16138840  154.35600281    1.75000000    2.44000006
   12.16388893  158.86399841    1.75000000    2.44000006
   12.16722298  155.58399963    1.76999998    2.44000006
   12.17027855  168.46600342    1.76999998    2.44000006
   12.17361164  153.96400452    1.78999996    2.44000006
   12.17694473  170.87600708    1.78999996    2.44000006
   12.18249989  170.87600708    1.80999994    2.44000006
   12.18666649  175.18699646    1.80999994    2.44000006
   12.19000053  162.55499268    1.80999994    2.44000006
   12.19333363  174.29200745    1.83000004    2.44000006
   12.19472218  168.29299927    1.83000004    2.44000006
   12.19694424  163.48399353    1.83000004    2.44000006
   12.19999981  166.45399475    1.83000004    2.44000006
   12.20333290  170.60400391    1.85000002    2.44000006
   12.20638847  172.78700256    1.85000002    2.44000006
   12.20972157  172.18099976    1.83000004    2.46000004
   12.21305561  169.84300232    1.80999994    2.44000006
   12.21611118  174.39900208    1.78999996    2.44000006
   12.21944427  173.37899780    1.76999998    2.44000006
   12.22555542  173.37899780    1.76999998    2.48000002
   12.22972202  161.77299500    1.73000002    2.46000004
   12.23277760  167.80900574    1.71000004    2.46000004
   12.23611164  164.23199463    1.66999996    2.46000004
   12.23916721  164.80700684    1.64999998    2.46000004
   12.24250031  168.60000610    1.63000000    2.46000004
   12.24583340  166.69700623    1.61000001    2.46000004
   12.24888897  158.53500366    1.61000001    2.48000002
   12.25222206  156.45799255    1.60000002    2.48000002
   12.25555515  165.20500183    1.60000002    2.48000002
   12.25861073  162.08099365    1.58000004    2.48000002
   12.26138878  160.22900391    1.55999994    2.48000002
   12.26249981  159.92399597    1.55999994    2.48000002
   12.26833344  159.92399597    1.53999996    2.48000002
   12.27250004  159.90699768    1.55999994    2.48000002
   12.27555561  167.05400085    1.58000004    2.48000002
   12.27888870  148.24099731    1.60000002    2.48000002
   12.28222179  165.52900696    1.60000002    2.48000002
   12.28527832  162.22399902    1.63000000    2.48000002
   12.28861141  173.33299255    1.63000000    2.48000002
   12.29194450  162.44700623    1.66999996    2.50000000
   12.29472256  172.08299255    1.66999996    2.48000002
   12.29555607  162.64999390    1.66999996    2.48000002
   12.29861164  150.64799500    1.69000006    2.48000002
   12.30194473  164.58500671    1.71000004    2.48000002
   12.30527782  161.99200439    1.71000004    2.50000000
   12.31111145  161.99200439    1.71000004    2.48000002
   12.31527805  166.20500183    1.71000004    2.48000002
   12.31861115  175.18600464    1.71000004    2.48000002
   12.32166672  156.97700500    1.73000002    2.48000002
   12.32499981  167.16999817    1.73000002    2.48000002
   12.32805538  167.84599304    1.73000002    2.48000002
   12.32861137  167.32200623    1.73000002    2.48000002
   12.33166695  168.97799683    1.73000002    2.48000002
   12.33500004  162.40499878    1.73000002    2.48000002
   12.33833313  178.18200684    1.71000004    2.48000002
   12.34138870  196.56100464    1.69000006    2.48000002
   12.34472179  179.56399536    1.66999996    2.50000000
   12.34777737  174.39500427    1.66999996    2.48000002
   12.35388947  174.39500427    1.64999998    2.50000000
   12.35805607  178.01199341    1.60000002    2.50000000
   12.36138916  166.56100464    1.60000002    2.50000000
   12.36194515  177.55499268    1.60000002    2.50000000
   12.36500072  189.38099670    1.60000002    2.50000000
   12.36833382  189.63200378    1.51999998    2.51999998
   12.37166691  183.34800720    1.48000002    2.51999998
   12.37472248  162.13600159    1.46000004    2.51999998
   12.37805557  158.97999573    1.46000004    2.51999998
   12.38111115  182.72799683    1.46000004    2.51999998
   12.38444424  178.48500061    1.46000004    2.51999998
   12.38777733  176.40199280    1.46000004    2.51999998
   12.39083290  199.24499512    1.48000002    2.51999998
   12.39694405  199.24499512    1.48000002    2.53999996
   12.40111065  159.92799377    1.48000002    2.53999996
   12.40416622  177.03900146    1.51999998    2.51999998
   12.40749931  158.50300598    1.51999998    2.51999998
   12.41055489  177.05999756    1.55999994    2.51999998
   12.41388893  156.30499268    1.55999994    2.51999998
   12.41722298  164.72399902    1.58000004    2.51999998
   12.42055607  153.65600586    1.60000002    2.51999998
   12.42361164  166.69599915    1.60000002    2.51999998
   12.42694473  155.29200745    1.61000001    2.50000000
   12.42805576  170.24600220    1.61000001    2.50000000
   12.43055630  169.10200500    1.61000001    2.50000000
   12.43361092  168.91799927    1.61000001    2.51999998
   12.43972206  168.91799927    1.61000001    2.53999996
   12.44388866  169.42199707    1.61000001    2.51999998
   12.44694424  165.71099854    1.61000001    2.51999998
   12.45027733  169.06300354    1.60000002    2.51999998
   12.45361137  171.08200073    1.60000002    2.51999998
   12.45666695  172.83299255    1.55999994    2.51999998
   12.46000004  171.19700623    1.55999994    2.51999998
   12.46138859  163.99200439    1.55999994    2.51999998
   12.46361065  158.08599854    1.53999996    2.51999998
   12.46666622  158.66999817    1.53999996    2.51999998
   12.46999931  173.99299622    1.51999998    2.53999996
   12.47333336  166.32600403    1.50000000    2.53999996
   12.47638798  166.32200623    1.50000000    2.53999996
   12.48249912  166.32200623    1.48000002    2.53999996
   12.48666668  180.88000488    1.48000002    2.53999996
   12.49000072  168.10000610    1.48000002    2.53999996
   12.49305534  174.07699585    1.46000004    2.53999996
   12.49499989  176.10099792    1.48000002    2.53999996
   12.49666691  167.82499695    1.48000002    2.53999996
   12.50000000  160.09899902    1.48000002    2.53999996
   12.50333309  168.32099915    1.50000000    2.53999996
   12.50638866  159.55799866    1.53999996    2.53999996
   12.50972176  169.93600464    1.55999994    2.53999996
   12.51305580  165.88600159    1.58000004    2.53999996
   12.51611137  161.98199463    1.58000004    2.51999998
   12.51944447  166.54699707    1.60000002    2.51999998
   12.52527714  166.54699707    1.60000002    2.51999998
   12.52944374  167.56799316    1.53999996    2.53999996
   12.53277779  165.63900757    1.53999996    2.53999996
   12.53583336  170.59500122    1.51999998    2.55999994
   12.53916740  167.42700195    1.51999998    2.53999996
   12.54250050  156.38600159    1.51999998    2.55999994
   12.54555607  168.75999451    1.51999998    2.55999994
   12.54888916  166.61799622    1.50000000    2.53999996
   12.55222225  168.71499634    1.48000002    2.53999996
   12.55527782  167.62699890    1.48000002    2.55999994
   12.55861092  167.86199951    1.48000002    2.55999994
   12.56166649  171.64399719    1.48000002    2.55999994
   12.56194496  169.03999329    1.48000002    2.55999994
   12.56833363  169.03999329    1.48000002    2.53999996
   12.57222176  179.30999756    1.48000002    2.55999994
   12.57555580  162.04299927    1.48000002    2.53999996
   12.57888889  172.66600037    1.48000002    2.53999996
   12.58222198  178.80200195    1.51999998    2.55999994
   12.58527756  182.75599670    1.51999998    2.55999994
   12.58861065  203.68099976    1.51999998    2.53999996
   12.59166622  211.36999512    1.50000000    2.55999994
   12.59499931  239.26899719    1.51999998    2.55999994
   12.59527779  242.07899475    1.51999998    2.55999994
   12.59861088  274.73699951    1.51999998    2.55999994
   12.60194492  278.11401367    1.53999996    2.55999994
   12.60500050  253.78799438    1.53999996    2.55999994
   12.61111164  253.78799438    1.53999996    2.55999994
   12.61527824  253.39700317    1.53999996    2.53999996
   12.61833382  237.59800720    1.53999996    2.55999994
   12.62166691  207.32200623    1.53999996    2.55999994
   12.62500000  189.58500671    1.53999996    2.55999994
   12.62805557  199.17900085    1.53999996    2.55999994
   12.62861156  196.55700684    1.53999996    2.55999994
   12.63194466  193.44999695    1.55999994    2.55999994
   12.63500023  194.25700378    1.58000004    2.55999994
   12.63833332  198.94999695    1.58000004    2.55999994
   12.64166641  210.49099731    1.58000004    2.55999994
   12.64472198  248.13600159    1.58000004    2.55999994
   12.64805508  222.19900513    1.58000004    2.55999994
   12.65388870  222.19900513    1.58000004    2.55999994
   12.65805531  269.82199097    1.55999994    2.55999994
   12.66111088  276.60900879    1.53999996    2.55999994
   12.66194439  255.27200317    1.53999996    2.55999994
   12.66499996  254.64300537    1.53999996    2.55999994
   12.66805553  223.18400574    1.51999998    2.55999994
   12.67138958  253.00799561    1.51999998    2.55999994
   12.67472267  282.95800781    1.51999998    2.57999992
   12.67777824  283.06100464    1.51999998    2.57999992
   12.68111134  245.48899841    1.51999998    2.55999994
   12.68416691  238.10800171    1.51999998    2.57999992
   12.68750000  258.14801025    1.53999996    2.57999992
   12.69083309  251.78799438    1.53999996    2.55999994
   12.69666672  251.78799438    1.51999998    2.55999994
   12.70083332  273.30599976    1.50000000    2.55999994
   12.70416641  276.48300171    1.50000000    2.57999992
   12.70722198  242.34800720    1.48000002    2.57999992
   12.71055508  263.65499878    1.48000002    2.57999992
   12.71388912  243.23899841    1.46000004    2.57999992
   12.71694374  237.03700256    1.46000004    2.57999992
   12.72027779  249.54899597    1.46000004    2.57999992
   12.72333336  258.09899902    1.46000004    2.57999992
   12.72666645  195.55000305    1.48000002    2.59999990
   12.72861099  230.24899292    1.48000002    2.55999994
   12.73027706  245.00000000    1.48000002    2.57999992
   12.73333359  254.47200012    1.53999996    2.57999992
   12.73972225  254.47200012    1.58000004    2.55999994
   12.74388885  253.97399902    1.58000004    2.57999992
   12.74694443  219.71600342    1.58000004    2.55999994
   12.75027752  230.70799255    1.58000004    2.55999994
   12.75333309  296.59899902    1.58000004    2.57999992
   12.75666714  255.71200562    1.55999994    2.57999992
   12.76000023  269.51199341    1.55999994    2.57999992
   12.76194477  265.55398560    1.53999996    2.57999992
   12.76361084  263.99099731    1.53999996    2.57999992
   12.76666641  337.02398682    1.53999996    2.57999992
   12.76888847  314.00799561    1.51999998    2.57999992
   12.76999950  319.03298950    1.53999996    2.57999992
   12.77138901  331.72000122    1.53999996    2.57999992
   12.77277756  316.32699585    1.53999996    2.57999992
   12.77416611  323.75399780    1.51999998    2.57999992
   12.77555561  354.84298706    1.51999998    2.57999992
   12.77694416  338.58300781    1.51999998    2.57999992
   12.77833271  365.90200806    1.51999998    2.55999994
   12.77972221  324.58801270    1.51999998    2.57999992
   12.78111076  378.16198730    1.51999998    2.57999992
   12.78249931  332.79098511    1.51999998    2.57999992
   12.78388977  384.63598633    1.51999998    2.57999992
   12.78527832  340.45199585    1.51999998    2.57999992
   12.78666687  355.86700439    1.55999994    2.57999992
   12.78805637  338.79501343    1.55999994    2.57999992
   12.78944492  329.74600220    1.55999994    2.57999992
   12.79083347  376.46200562    1.55999994    2.59999990
   12.79222298  288.07101440    1.55999994    2.57999992
   12.79361153  314.67498779    1.50000000    2.59999990
   12.79500008  356.17199707    1.50000000    2.59999990
   12.79638958  374.01501465    1.48000002    2.57999992
   12.79777813  369.38900757    1.48000002    2.57999992
   12.79916668  307.73199463    1.48000002    2.57999992
   12.80055618  406.53799438    1.48000002    2.59999990
   12.80194473  361.52999878    1.48000002    2.59999990
   12.80333328  405.78399658    1.48000002    2.59999990
   12.80472279  373.14498901    1.48000002    2.57999992
   12.80611134  293.03298950    1.46000004    2.59999990
   12.80749989  275.41000366    1.46000004    2.59999990
   12.80888939  354.35800171    1.46000004    2.59999990
   12.81027794  317.12200928    1.46000004    2.57999992
   12.81166649  327.41101074    1.46000004    2.59999990
   12.81305599  319.20599365    1.46000004    2.57999992
   12.81444454  308.24099731    1.48000002    2.59999990
   12.81583309  426.33700562    1.48000002    2.59999990
   12.81722260  345.33300781    1.48000002    2.59999990
   12.81861115  350.58599854    1.48000002    2.59999990
   12.81999969  337.29501343    1.48000002    2.59999990
   12.82138920  381.78601074    1.48000002    2.59999990
   12.82277775  365.82800293    1.50000000    2.59999990
   12.82416630  325.62100220    1.51999998    2.59999990
   12.82555580  385.97399902    1.51999998    2.57999992
   12.82694435  335.08099365    1.51999998    2.57999992
   12.82833290  334.52600098    1.51999998    2.55999994
   12.82972240  303.54998779    1.51999998    2.57999992
   12.83111095  342.63800049    1.51999998    2.57999992
   12.83249950  355.47000122    1.51999998    2.57999992
   12.83388901  366.73199463    1.51999998    2.59999990
   12.83527756  350.61099243    1.51999998    2.59999990
   12.83666611  368.09298706    1.51999998    2.59999990
   12.83805561  334.66101074    1.51999998    2.59999990
   12.83944416  346.23400879    1.51999998    2.59999990
   12.84083271  331.10501099    1.51999998    2.59999990
   12.84222221  325.44601440    1.53999996    2.59999990
   12.84361076  326.77301025    1.53999996    2.59999990
   12.84499931  351.22601318    1.53999996    2.59999990
   12.84638882  302.79199219    1.53999996    2.59999990
   12.84777737  298.80801392    1.58000004    2.57999992
   12.84916592  338.24200439    1.58000004    2.59999990
   12.85055637  355.58999634    1.58000004    2.59999990
   12.85194492  398.32699585    1.60000002    2.59999990
   12.85333347  394.92498779    1.60000002    2.59999990
   12.85472298  371.82800293    1.60000002    2.59999990
   12.85611153  390.73300171    1.60000002    2.59999990
   12.85750008  403.74499512    1.60000002    2.59999990
   12.85888958  360.16000366    1.60000002    2.57999992
   12.86027813  382.16299438    1.61000001    2.59999990
   12.86166668  355.62701416    1.61000001    2.59999990
   12.86305618  326.96899414    1.63000000    2.57999992
   12.86444473  339.50100708    1.63000000    2.57999992
   12.86583328  324.54299927    1.63000000    2.59999990
   12.86722279  320.13699341    1.61000001    2.59999990
   12.86861134  350.90701294    1.61000001    2.59999990
   12.86999989  324.23999023    1.61000001    2.59999990
   12.87138939  321.38400269    1.61000001    2.59999990
   12.87277794  295.69601440    1.61000001    2.59999990
   12.87416649  318.63299561    1.58000004    2.59999990
   12.87555599  339.95300293    1.58000004    2.59999990
   12.87694454  324.72299194    1.55999994    2.59999990
   12.87833309  335.35800171    1.55999994    2.59999990
   12.87972260  338.01501465    1.55999994    2.59999990
   12.88111115  285.61999512    1.55999994    2.59999990
   12.88249969  348.00299072    1.55999994    2.59999990
   12.88388920  340.76300049    1.55999994    2.59999990
   12.88527775  301.44299316    1.55999994    2.59999990
   12.88666630  312.36999512    1.51999998    2.59999990
   12.88805580  315.98400879    1.51999998    2.59999990
   12.88944435  286.17999268    1.51999998    2.59999990
   12.89083290  324.69000244    1.53999996    2.59999990
   12.89222240  319.77099609    1.53999996    2.59999990
   12.89361095  355.66299438    1.53999996    2.59999990
   12.89499950  347.70401001    1.53999996    2.59999990
   12.89638901  376.95498657    1.53999996    2.59999990
   12.89777756  320.44799805    1.53999996    2.59999990
   12.89916611  317.02099609    1.53999996    2.59999990
   12.90055561  335.43301392    1.55999994    2.59999990
   12.90194416  349.10299683    1.55999994    2.59999990
   12.90333271  294.99200439    1.55999994    2.59999990
   12.90472221  334.28399658    1.60000002    2.59999990
   12.90611076  367.03100586    1.60000002    2.59999990
   12.90749931  371.49600220    1.60000002    2.59999990
   12.90888882  325.39498901    1.63000000    2.59999990
   12.91027737  288.97198486    1.63000000    2.59999990
   12.91166592  297.45199585    1.63000000    2.59999990
   12.91333294  282.11099243    1.66999996    2.59999990
   12.91444397  283.53799438    1.66999996    2.59999990
   12.91583252  307.38000488    1.66999996    2.59999990
   12.91722298  304.48001099    1.66999996    2.59999990
   12.91861153  286.19100952    1.66999996    2.59999990
   12.92000008  299.64401245    1.66999996    2.57999992
   12.92138958  288.73498535    1.66999996    2.57999992
   12.92277813  284.66598511    1.66999996    2.57999992
   12.92416668  300.35998535    1.64999998    2.59999990
   12.92555618  277.56900024    1.64999998    2.59999990
   12.92694473  288.93099976    1.64999998    2.59999990
   12.92833328  264.95800781    1.64999998    2.59999990
   12.92972279  254.62199402    1.61000001    2.59999990
   12.93111134  245.11500549    1.53999996    2.59999990
   12.93138885  230.70799255    1.58000004    2.55999994
   12.93138885  296.59899902    1.58000004    2.57999992
   12.93138885  255.71200562    1.55999994    2.57999992
   12.93166733  269.51199341    1.55999994    2.57999992
   12.93166733  263.99099731    1.53999996    2.57999992
   12.93166733  337.02398682    1.53999996    2.57999992
   12.93194485  254.47200012    1.53999996    2.57999992
   12.93194485  253.97399902    1.58000004    2.57999992
   12.93222237  219.71600342    1.58000004    2.55999994
   12.93277836  244.21499634    1.53999996    2.61999989
   12.93583298  260.27200317    1.53999996    2.61999989
   12.93916702  254.79200745    1.53999996    2.61999989
   12.94222260  241.85299683    1.53999996    2.61999989
   12.94555569  227.95199585    1.60000002    2.59999990
   12.95194435  227.95199585    1.61000001    2.59999990
   12.95611095  232.29400635    1.61000001    2.59999990
   12.95944405  234.32299805    1.61000001    2.59999990
   12.96249962  243.26899719    1.63000000    2.59999990
   12.96500015  236.12300110    1.64999998    2.59999990
   12.96638870  236.69799805    1.66999996    2.59999990
   12.96972179  228.26100159    1.69000006    2.59999990
   12.97277737  214.32099915    1.69000006    2.59999990
   12.97611046  250.33299255    1.71000004    2.59999990
   12.97916603  226.75300598    1.71000004    2.59999990
   12.98249912  231.86999512    1.69000006    2.59999990
   12.98583317  227.01300049    1.66999996    2.57999992
   12.98888874  215.56500244    1.55999994    2.61999989
   13.01138878  214.83099365    1.46000004    2.61999989
   13.01166630  219.69000244    1.46000004    2.61999989
   13.01500034  212.61099243    1.48000002    2.61999989
   13.01833344  222.92500305    1.53999996    2.61999989
   13.02138901  219.53100586    1.53999996    2.59999990
   13.02472210  214.08900452    1.58000004    2.61999989
   13.02805519  214.32000732    1.60000002    2.59999990
   13.03111076  221.02499390    1.61000001    2.59999990
   13.03777790  221.02499390    1.61000001    2.61999989
   13.04194450  223.14599609    1.61000001    2.61999989
   13.04444504  242.41600037    1.60000002    2.61999989
   13.04583359  210.60000610    1.53999996    2.59999990
   13.04888916  215.53500366    1.51999998    2.59999990
   13.05222225  218.82699585    1.44000006    2.59999990
   13.05555534  212.88099670    1.36000001    2.61999989
   13.05861092  211.56399536    1.23000002    2.64000010
   13.06194496  214.69299316    1.19000006    2.64000010
   13.06527805  205.06900024    1.11000001    2.64000010
   13.06833363  209.61700439    1.11000001    2.66000009
   13.07166672  220.42999268    1.13000000    2.64000010
   13.07472229  213.62600708    1.14999998    2.64000010
   13.08083344  213.62600708    1.21000004    2.64000010
   13.08500004  212.29499817    1.30999994    2.61999989
   13.08805561  215.17700195    1.34000003    2.61999989
   13.09138870  203.38600159    1.46000004    2.61999989
   13.09444427  194.41400146    1.44000006    2.61999989
   13.09777737  217.80299377    1.39999998    2.64000010
   13.10111141  205.69799805    1.38000000    2.64000010
   13.10444450  196.78300476    1.36000001    2.61999989
   13.10750008  197.80299377    1.38000000    2.64000010
   13.11083412  190.19400024    1.38000000    2.64000010
   13.11166668  211.28399658    1.38000000    2.64000010
   13.11444473  195.37199402    1.44000006    2.64000010
   13.11750031  208.68400574    1.44000006    2.64000010
   13.12361145  208.68400574    1.36000001    2.64000010
   13.12777805  189.26100159    1.34000003    2.64000010
   13.13083363  206.41400146    1.34000003    2.64000010
   13.13416672  201.62500000    1.33000004    2.64000010
   13.13749981  207.30599976    1.33000004    2.64000010
   13.14055538  197.06199646    1.36000001    2.64000010
   13.14388847  191.37399292    1.38000000    2.64000010
   13.14499950  189.92999268    1.38000000    2.64000010
   13.14750004  197.36599731    1.36000001    2.64000010
   13.15055561  183.83500671    1.36000001    2.64000010
   13.15388870  204.70500183    1.36000001    2.64000010
   13.15694427  200.66499329    1.36000001    2.66000009
   13.16027737  210.97799683    1.34000003    2.64000010
   13.16638851  210.97799683    1.19000006    2.66000009
   13.17055607  196.78599548    1.19000006    2.64000010
   13.17388916  196.94999695    1.19000006    2.66000009
   13.17694473  197.27799988    1.19000006    2.66000009
   13.17861176  193.73599243    1.19000006    2.67000008
   13.18083382  187.01199341    1.16999996    2.64000010
   13.18388939  186.90199280    1.16999996    2.64000010
   13.18722248  187.94299316    1.16999996    2.66000009
   13.19055557  175.94200134    1.16999996    2.66000009
   13.19361115  184.64100647    1.16999996    2.66000009
   13.19694424  187.82200623    1.16999996    2.64000010
   13.19999981  185.75799561    1.21000004    2.64000010
   13.20333290  191.08599854    1.30999994    2.64000010
   13.20944405  191.08599854    1.33000004    2.64000010
   13.21333313  195.13999939    1.36000001    2.66000009
   13.21666622  186.28300476    1.34000003    2.66000009
   13.21999931  179.01300049    1.33000004    2.66000009
   13.22305489  190.30900574    1.30999994    2.64000010
   13.22638798  189.55200195    1.30999994    2.64000010
   13.22972202  187.57299805    1.23000002    2.64000010
   13.23277760  183.11000061    1.23000002    2.66000009
   13.23611164  187.64999390    1.19000006    2.66000009
   13.23916721  178.23300171    1.19000006    2.66000009
   13.24250031  178.41499329    1.16999996    2.66000009
   13.24527836  184.29299927    1.16999996    2.66000009
   13.24611092  188.25599670    1.13000000    2.67000008
   13.25222206  188.25599670    1.13000000    2.67000008
   13.25638866  184.99400330    1.09000003    2.67000008
   13.25944424  197.36799622    1.13000000    2.64000010
   13.26277733  190.13200378    1.14999998    2.66000009
   13.26611137  166.73199463    1.14999998    2.67000008
   13.26916599  175.63200378    1.14999998    2.67000008
   13.27250004  176.00599670    1.14999998    2.66000009
   13.27555561  187.26800537    1.13000000    2.67000008
   13.27861118  177.76800537    1.11000001    2.66000009
   13.27944374  176.28799438    1.11000001    2.67000008
   13.28249931  172.06100464    1.11000001    2.67000008
   13.28583336  172.79600525    1.11000001    2.67000008
   13.28888893  178.64300537    1.11000001    2.69000006
   13.29500008  178.64300537    1.16999996    2.66000009
   13.29916668  172.42999268    1.26999998    2.66000009
   13.30249977  173.30900574    1.28999996    2.66000009
   13.30555534  178.27999878    1.36000001    2.66000009
   13.30888939  169.54400635    1.36000001    2.64000010
   13.31194496  181.10299683    1.36000001    2.64000010
   13.31222248  172.03500366    1.36000001    2.64000010
   13.31555557  175.48300171    1.36000001    2.66000009
   13.31888866  174.92599487    1.36000001    2.66000009
   13.32194424  168.53300476    1.36000001    2.67000008
   13.32527733  175.95500183    1.23000002    2.67000008
   13.32861137  173.58599854    1.23000002    2.67000008
   13.33166695  169.19299316    1.21000004    2.67000008
   13.33777714  169.19299316    1.21000004    2.66000009
   13.34194374  178.84500122    1.21000004    2.67000008
   13.34527779  166.01199341    1.21000004    2.67000008
   13.34555531  169.12600708    1.21000004    2.67000008
   13.34888840  166.41499329    1.25000000    2.66000009
   13.35222244  163.07099915    1.26999998    2.67000008
   13.35527802  165.18600464    1.26999998    2.66000009
   13.35861111  164.82299805    1.28999996    2.66000009
   13.36194515  166.50399780    1.26999998    2.66000009
   13.36500072  161.08500671    1.30999994    2.66000009
   13.36833382  172.14999390    1.30999994    2.66000009
   13.37138939  166.64500427    1.33000004    2.66000009
   13.37472248  169.63900757    1.33000004    2.64000010
   13.38083363  169.63900757    1.30999994    2.66000009
   13.38472176  166.73399353    1.30999994    2.67000008
   13.38805580  166.89999390    1.28999996    2.67000008
   13.39138889  160.92100525    1.13000000    2.67000008
   13.39444447  163.49200439    1.14999998    2.67000008
   13.39777756  166.02900696    1.14999998    2.67000008
   13.40111065  160.24800110    1.14999998    2.67000008
   13.40416622  164.66000366    1.16999996    2.67000008
   13.40749931  164.99200439    1.19000006    2.67000008
   13.41055489  156.75799561    1.19000006    2.67000008
   13.41194439  166.61700439    1.19000006    2.67000008
   13.41444397  157.47399902    1.19000006    2.67000008
   13.41750050  165.03999329    1.21000004    2.67000008
   13.42361164  165.03999329    1.21000004    2.67000008
   13.42777824  161.18200684    1.19000006    2.67000008
   13.43083382  158.27099609    1.19000006    2.67000008
   13.43416691  159.32499695    1.16999996    2.67000008
   13.43750000  174.51199341    1.16999996    2.67000008
   13.44055557  200.18899536    1.14999998    2.67000008
   13.44388866  192.51199341    1.19000006    2.67000008
   13.44527817  185.43499756    1.19000006    2.67000008
   13.44750023  175.69200134    1.19000006    2.67000008
   13.45055580  182.21000671    1.25000000    2.67000008
   13.45388889  192.17300415    1.25000000    2.67000008
   13.45694447  178.59500122    1.25000000    2.67000008
   13.46027756  180.80900574    1.25000000    2.67000008
   13.46638870  180.80900574    1.25000000    2.67000008
   13.47055531  179.50700378    1.16999996    2.67000008
   13.47361088  184.08700562    1.09000003    2.67000008
   13.47694397  187.62500000    1.07000005    2.67000008
   13.47888851  191.85899353    1.01999998    2.69000006
   13.48055553  181.51199341    0.98000002    2.69000006
   13.48388958  158.63499451    0.92000002    2.69000006
   13.48722267  178.97200012    0.89999998    2.69000006
   13.49027824  181.91900635    0.88000000    2.69000006
   13.49361134  168.00799561    0.88000000    2.71000004
   13.49666691  154.72000122    0.94000000    2.69000006
   13.50000000  173.49299622    1.00000000    2.69000006
   13.50333309  169.51600647    1.00000000    2.69000006
   13.50916672  169.51600647    1.16999996    2.67000008
   13.51333332  182.49299622    1.14999998    2.66000009
   13.51666641  158.99899292    1.14999998    2.67000008
   13.51972198  184.95300293    1.14999998    2.67000008
   13.52305508  167.66499329    1.14999998    2.67000008
   13.52638817  187.64399719    1.11000001    2.69000006
   13.52944374  182.27600098    1.11000001    2.69000006
   13.53277779  169.93600464    1.07000005    2.67000008
   13.53611183  181.75300598    1.01999998    2.69000006
   13.53916740  167.49000549    1.01999998    2.69000006
   13.54250050  169.37800598    0.98000002    2.69000006
   13.54555607  177.28500366    0.95999998    2.69000006
   13.54611111  157.57499695    0.95999998    2.69000006
   13.55194473  157.57499695    0.89999998    2.69000006
   13.55611134  160.32899475    0.89999998    2.69000006
   13.55944443  164.47700500    0.89999998    2.71000004
   13.56277752  172.75100708    0.89999998    2.71000004
   13.56583309  170.09899902    0.89999998    2.71000004
   13.56916618  159.07499695    0.89999998    2.69000006
   13.57222176  163.77600098    0.89999998    2.71000004
   13.57555580  170.20599365    0.89999998    2.71000004
   13.57888889  161.48800659    0.98000002    2.69000006
   13.57916641  168.19500732    0.95999998    2.69000006
   13.58249950  157.53199768    0.94000000    2.71000004
   13.58583260  169.40899658    0.98000002    2.69000006
   13.58916664  167.85800171    0.98000002    2.69000006
   13.59499931  167.85800171    0.94000000    2.69000006
   13.59916592  159.71099854    0.94000000    2.71000004
   13.60222244  163.71499634    0.94000000    2.71000004
   13.60555553  164.79400635    1.00000000    2.69000006
   13.60888958  152.79699707    1.00000000    2.69000006
   13.61194515  157.18400574    1.00000000    2.71000004
   13.61250019  164.44799805    1.00000000    2.71000004
   13.61583328  157.55000305    1.00000000    2.69000006
   13.61888885  152.96499634    1.01999998    2.69000006
   13.62222195  163.87199402    1.01999998    2.69000006
   13.62555599  159.24499512    1.01999998    2.69000006
   13.62861156  152.69000244    1.03999996    2.71000004
   13.63194466  163.12600708    1.03999996    2.69000006
   13.63777733  163.12600708    1.03999996    2.71000004
   13.64194393  155.21800232    1.01999998    2.69000006
   13.64499950  156.21000671    1.01999998    2.71000004
   13.64583302  159.17999268    1.01999998    2.69000006
   13.64888859  166.38999939    1.01999998    2.69000006
   13.65194416  171.94200134    1.01999998    2.69000006
   13.65527725  155.51400757    1.03999996    2.69000006
   13.65861034  167.95300293    0.94000000    2.71000004
   13.66166592  172.62199402    0.94000000    2.71000004
   13.66499996  158.17799377    0.92000002    2.71000004
   13.66833401  157.65800476    1.09000003    2.69000006
   13.67138958  161.07800293    1.11000001    2.69000006
   13.67472267  174.37399292    1.11000001    2.69000006
   13.68055630  174.37399292    1.09000003    2.69000006
   13.68472195  165.58700562    1.09000003    2.69000006
   13.68805599  158.60299683    1.09000003    2.69000006
   13.69111156  162.71200562    1.09000003    2.69000006
   13.69444466  156.58700562    1.07000005    2.69000006
   13.69777775  166.33200073    1.07000005    2.69000006
   13.70083332  165.81700134    1.07000005    2.69000006
   13.70416641  160.50300598    1.13000000    2.69000006
   13.70722198  165.30499268    1.19000006    2.69000006
   13.71055508  158.91799927    1.19000006    2.69000006
   13.71249962  175.80499268    1.21000004    2.69000006
   13.71416664  169.14999390    1.25000000    2.69000006
   13.71722221  167.22599792    1.25000000    2.69000006
   13.72333336  167.22599792    1.25000000    2.69000006
   13.72749996  167.41099548    1.13000000    2.69000006
   13.73083305  163.51100159    1.13000000    2.71000004
   13.73416710  166.80499268    1.11000001    2.69000006
   13.73722267  167.99400330    1.09000003    2.71000004
   13.74055576  161.57299805    0.94000000    2.71000004
   13.74361134  178.15400696    1.00000000    2.71000004
   13.74583340  165.86599731    1.01999998    2.71000004
   13.74750042  174.42599487    1.11000001    2.71000004
   13.75055599  163.85899353    1.23000002    2.69000006
   13.75388908  170.67300415    1.25000000    2.69000006
   13.75722218  178.16799927    1.28999996    2.69000006
   13.76027775  152.64900208    1.28999996    2.69000006
   13.76638889  152.64900208    1.25000000    2.69000006
   13.77055550  162.38099670    1.21000004    2.69000006
   13.77361107  174.32200623    1.19000006    2.71000004
   13.77694416  161.63699341    1.11000001    2.71000004
   13.77916622  165.00999451    1.00000000    2.71000004
   13.78055573  162.47799683    0.95999998    2.71000004
   13.78361130  165.26300049    0.88000000    2.71000004
   13.78694534  164.04899597    0.88000000    2.71000004
   13.79027843  160.78100586    0.88000000    2.71000004
   13.79333401  175.16499329    0.83999997    2.71000004
   13.79666710  173.58999634    0.83999997    2.73000002
   13.80000019  165.91700745    0.88000000    2.71000004
   13.80305576  173.29299927    0.88000000    2.73000002
   13.80916691  173.29299927    0.89999998    2.71000004
   13.81333351  171.05900574    0.89999998    2.71000004
   13.81638908  162.27799988    0.94000000    2.73000002
   13.81972218  165.32099915    0.95999998    2.71000004
   13.82305527  165.68899536    0.95999998    2.71000004
   13.82611084  169.71000671    0.98000002    2.71000004
   13.82944393  177.72200012    1.00000000    2.73000002
   13.83277798  165.98199463    1.00000000    2.71000004
   13.83583260  161.07099915    1.00000000    2.71000004
   13.83916664  171.14399719    1.00000000    2.73000002
   13.84222221  164.38800049    1.00000000    2.71000004
   13.84555531  167.50900269    1.01999998    2.71000004
   13.84611034  164.77299500    1.03999996    2.71000004
   13.85194492  164.77299500    1.00000000    2.73000002
   13.85611153  161.94099426    0.98000002    2.71000004
   13.85944462  176.71699524    0.95999998    2.71000004
   13.86250019  158.39900208    0.98000002    2.71000004
   13.86583328  173.73100281    1.01999998    2.71000004
   13.86916637  169.97799683    1.01999998    2.71000004
   13.87222195  165.01800537    1.00000000    2.73000002
   13.87555599  175.46099854    1.00000000    2.71000004
   13.87888908  159.21899414    0.95999998    2.73000002
   13.87944412  164.78700256    0.94000000    2.71000004
   13.88249969  149.85200500    0.94000000    2.71000004
   13.88555527  169.19299316    0.92000002    2.73000002
   13.88888836  161.49499512    0.83999997    2.73000002
   13.89472198  161.49499512    0.83999997    2.73000002
   13.89888859  171.56100464    0.86000001    2.73000002
   13.90222168  154.88299561    0.88000000    2.73000002
   13.90555477  158.67199707    0.88000000    2.73000002
   13.90861034  162.10200500    0.88000000    2.71000004
   13.91194439  154.76400757    0.92000002    2.71000004
   13.91277695  155.25500488    0.92000002    2.71000004
   13.91555500  160.47700500    0.92000002    2.73000002
   13.91861153  170.55799866    0.92000002    2.73000002
   13.92194462  165.42799377    0.94000000    2.73000002
   13.92527771  166.84700012    0.94000000    2.71000004
   13.92833328  173.79600525    0.94000000    2.71000004
   13.93166733  174.86199951    0.88000000    2.73000002
   13.93777752  174.86199951    0.89999998    2.71000004
   13.94166660  167.63699341    0.94000000    2.73000002
   13.94499969  169.11700439    0.94000000    2.71000004
   13.94611073  167.62899780    0.94000000    2.71000004
   13.94861126  177.03700256    0.98000002    2.73000002
   13.95166683  156.00000000    0.98000002    2.73000002
   13.95499992  163.78700256    0.98000002    2.73000002
   13.95833302  155.21800232    0.98000002    2.71000004
   13.96138859  153.69099426    0.95999998    2.73000002
   13.96472168  165.06100464    0.95999998    2.73000002
   13.96777725  161.09100342    0.95999998    2.71000004
   13.97111034  158.50900269    0.98000002    2.73000002
   13.97444439  162.11399841    0.95999998    2.71000004
   13.98055553  162.11399841    0.94000000    2.73000002
   13.98472214  160.13499451    0.95999998    2.73000002
   13.98777771  150.05099487    0.94000000    2.75000000
   13.99111176  164.69000244    0.89999998    2.75000000
   13.99444485  163.25500488    0.89999998    2.73000002
   13.99750042  162.29600525    0.89999998    2.73000002
   14.00083351  155.63400269    0.89999998    2.73000002
   14.00416660  159.43800354    0.88000000    2.75000000
   14.00722218  168.47999573    0.86000001    2.73000002
   14.01055527  173.14900208    0.88000000    2.73000002
   14.02833271  168.57299805    0.80000001    2.73000002
   14.03249931  168.57299805    0.81999999    2.75000000
   14.03666687  178.37199402    0.81999999    2.73000002
   14.04000092  176.68600464    1.00000000    2.73000002
   14.04305553  178.19799805    1.01999998    2.71000004
   14.04638958  170.05099487    1.05999994    2.73000002
   14.04972267  181.42599487    1.07000005    2.71000004
   14.05277824  182.39500427    1.07000005    2.73000002
   14.05611134  171.79200745    1.05999994    2.73000002
   14.05916691  177.02000427    1.01999998    2.73000002
   14.06166649  180.11799622    1.00000000    2.71000004
   14.06305599  176.78599548    1.00000000    2.71000004
   14.06611156  178.21299744    0.95999998    2.73000002
   14.06944466  173.40199280    0.94000000    2.73000002
   14.07527733  173.40199280    0.88000000    2.75000000
   14.07944393  175.59899902    0.88000000    2.73000002
   14.08277798  188.99099731    0.88000000    2.75000000
   14.08611107  169.40100098    0.89999998    2.73000002
   14.08916664  175.77900696    0.92000002    2.73000002
   14.09249973  174.89700317    0.92000002    2.75000000
   14.09499931  179.70199585    0.92000002    2.73000002
   14.09611034  165.20799255    0.92000002    2.73000002
   14.09916592  190.10200500    0.94000000    2.75000000
   14.10249996  180.12399292    0.95999998    2.71000004
   14.10583401  174.11799622    1.01999998    2.75000000
   14.10888958  177.81799316    1.01999998    2.73000002
   14.11222267  164.58999634    1.03999996    2.71000004
   14.11833382  164.58999634    1.07000005    2.73000002
   14.12250042  160.79699707    1.09000003    2.75000000
   14.12555599  172.86599731    1.09000003    2.73000002
   14.12833309  170.47000122    1.05999994    2.75000000
   14.12944412  170.03399658    1.03999996    2.73000002
   14.13249969  174.91600037    1.00000000    2.75000000
   14.13583279  176.87899780    1.00000000    2.73000002
   14.13888836  162.06900024    0.89999998    2.75000000
   14.14222240  169.25000000    0.89999998    2.75000000
   14.14555550  166.59100342    0.94000000    2.75000000
   14.14861107  170.70100403    0.95999998    2.73000002
   14.15194416  155.63400269    0.94000000    2.75000000
   14.15527725  167.07000732    0.92000002    2.75000000
   14.16111088  167.07000732    0.92000002    2.75000000
   14.16527748  159.88900757    0.92000002    2.75000000
   14.16833401  177.59100342    0.92000002    2.73000002
   14.17166710  167.72700500    0.88000000    2.75000000
   14.17500019  163.83700562    0.86000001    2.73000002
   14.17805576  178.17900085    0.81999999    2.73000002
   14.18138885  159.02200317    0.81999999    2.75000000
   14.18472195  149.74699402    0.83999997    2.75000000
   14.18777752  158.74400330    0.86000001    2.75000000
   14.19111156  171.90199280    0.86000001    2.75000000
   14.19416714  163.38499451    0.86000001    2.75000000
   14.19611073  164.07600403    0.86000001    2.75000000
   14.19805527  160.55599976    0.86000001    2.75000000
   14.20388889  160.55599976    0.89999998    2.75000000
   14.20805550  173.39199829    0.89999998    2.75000000
   14.21138859  175.29100037    0.92000002    2.75000000
   14.21444416  178.56799316    0.92000002    2.75000000
   14.21777725  195.14500427    0.89999998    2.75000000
   14.22111034  169.59199524    0.86000001    2.75000000
   14.22416592  222.63299561    0.83999997    2.76999998
   14.22749996  200.19400024    0.83999997    2.75000000
   14.22944355  194.34500122    0.81999999    2.75000000
   14.23111057  195.89500427    0.80000001    2.75000000
   14.23416710  224.56700134    0.80000001    2.75000000
   14.23750019  223.92700195    0.79000002    2.75000000
   14.24083328  249.16700745    0.79000002    2.75000000
   14.24666691  249.16700745    0.89999998    2.75000000
   14.25083351  240.52099609    0.94000000    2.73000002
   14.25416660  244.89100647    0.95999998    2.75000000
   14.25749969  304.71499634    0.94000000    2.75000000
   14.25944424  284.35800171    0.94000000    2.75000000
   14.26083374  313.45700073    0.98000002    2.73000002
   14.26222229  274.10800171    1.00000000    2.75000000
   14.26361084  283.29598999    1.00000000    2.75000000
   14.26500034  316.35699463    1.00000000    2.75000000
   14.26638889  297.34298706    1.00000000    2.75000000
   14.26777744  321.51000977    1.01999998    2.75000000
   14.26916599  338.27801514    1.01999998    2.73000002
   14.27055550  306.39599609    1.01999998    2.75000000
   14.27194405  334.98999023    1.01999998    2.75000000
   14.27333355  331.55999756    1.05999994    2.75000000
   14.27472210  314.19198608    1.05999994    2.75000000
   14.27611065  300.75500488    1.05999994    2.75000000
   14.27750015  318.46899414    1.05999994    2.75000000
   14.27888870  325.51599121    1.03999996    2.73000002
   14.28027725  348.00299072    1.03999996    2.73000002
   14.28166676  329.68499756    1.03999996    2.73000002
   14.28305531  280.20001221    1.03999996    2.73000002
   14.28444481  326.13800049    1.03999996    2.73000002
   14.28583336  268.03900146    1.01999998    2.75000000
   14.28722286  333.42001343    1.01999998    2.75000000
   14.28861141  322.75399780    1.01999998    2.75000000
   14.29000092  298.03298950    1.03999996    2.75000000
   14.29138947  256.13598633    1.03999996    2.75000000
   14.29277802  319.48901367    1.07000005    2.73000002
   14.29416752  358.90499878    1.09000003    2.73000002
   14.29555607  275.75698853    1.09000003    2.75000000
   14.29694462  295.96899414    1.09000003    2.75000000
   14.29833412  323.74099731    1.09000003    2.73000002
   14.29972267  307.83401489    1.09000003    2.73000002
   14.30111122  313.73800659    1.09000003    2.73000002
   14.30249977  311.83200073    1.09000003    2.73000002
   14.30388927  283.44299316    1.09000003    2.73000002
   14.30527782  288.21099854    1.09000003    2.73000002
   14.30666733  274.00100708    1.09000003    2.73000002
   14.30805588  298.14498901    1.09000003    2.73000002
   14.30944443  269.10299683    1.09000003    2.73000002
   14.31083393  293.54299927    1.09000003    2.73000002
   14.31222248  272.15100098    1.09000003    2.73000002
   14.31361103  315.03298950    1.09000003    2.73000002
   14.31500053  302.66799927    1.01999998    2.75000000
   14.31638908  284.20999146    1.01999998    2.75000000
   14.31777763  279.19400024    1.01999998    2.75000000
   14.31916618  240.81599426    1.01999998    2.75000000
   14.31916618  200.19400024    0.83999997    2.75000000
   14.31916618  195.89500427    0.80000001    2.75000000
   14.31944466  224.56700134    0.80000001    2.75000000
   14.31944466  223.92700195    0.79000002    2.75000000
   14.31944466  249.16700745    0.79000002    2.75000000
   14.31972218  240.52099609    0.94000000    2.73000002
   14.31972218  244.89100647    0.95999998    2.75000000
   14.31972218  304.71499634    0.94000000    2.75000000
   14.31999969  222.63299561    0.83999997    2.76999998
   14.32055569  319.38101196    1.01999998    2.73000002
   14.32250023  272.47900391    1.00000000    2.75000000
   14.32388878  251.32600403    1.00000000    2.75000000
   14.32527733  291.94299316    0.98000002    2.75000000
   14.32666683  266.28500366    0.98000002    2.75000000
   14.32805538  303.89001465    0.98000002    2.75000000
   14.32944393  254.41000366    0.94000000    2.75000000
   14.33083344  272.92098999    0.94000000    2.75000000
   14.33222198  275.89498901    0.98000002    2.75000000
   14.33361053  284.26199341    0.98000002    2.75000000
   14.33500004  288.89700317    0.98000002    2.75000000
   14.33638859  284.85101318    1.00000000    2.75000000
   14.33777714  237.13699341    1.00000000    2.75000000
   14.33777714  319.38101196    1.01999998    2.73000002
   14.33833313  260.69900513    1.00000000    2.75000000
   14.34166622  280.59399414    1.00000000    2.75000000
   14.34472179  207.53100586    1.00000000    2.76999998
   14.34805489  214.82600403    1.00000000    2.75000000
   14.35138893  242.98300171    0.94000000    2.75000000
   14.35444450  230.93400574    0.89999998    2.75000000
   14.35861111  230.93400574    0.89999998    2.76999998
   14.36277771  259.09500122    0.83999997    2.75000000
   14.36611176  254.76100159    0.86000001    2.75000000
   14.36916637  215.62600708    0.83999997    2.75000000
   14.37166691  253.61300659    0.81999999    2.75000000
   14.37277794  227.26600647    0.76999998    2.75000000
   14.37611103  261.70700073    0.76999998    2.76999998
   14.37944412  230.01400757    0.69000000    2.76999998
   14.38249969  228.74600220    0.69000000    2.75000000
   14.38583279  227.29800415    0.67000002    2.75000000
   14.38916683  181.40100098    0.67000002    2.75000000
   14.39222240  220.67999268    0.67000002    2.75000000
   14.39555550  191.08099365    0.67000002    2.76999998
   14.40138817  191.08099365    0.73000002    2.75000000
   14.40555477  203.64399719    0.70999998    2.75000000
   14.40888882  219.56500244    0.70999998    2.78999996
   14.41222191  242.25300598    0.69000000    2.76999998
   14.41527748  205.42199707    0.69000000    2.76999998
   14.41861153  214.75300598    0.69000000    2.75000000
   14.42166710  190.55799866    0.69000000    2.76999998
   14.42500019  220.74000549    0.69000000    2.76999998
   14.42833328  201.25700378    0.69000000    2.75000000
   14.43138885  213.08999634    0.69000000    2.76999998
   14.43472195  194.60299683    0.70999998    2.75000000
   14.43805599  228.79899597    0.70999998    2.75000000
   14.43833351  204.70500183    0.70999998    2.75000000
   14.44444466  204.70500183    0.69000000    2.76999998
   14.44861126  196.19400024    0.69000000    2.76999998
   14.45166683  184.51499939    0.69000000    2.78999996
   14.45499992  213.68200684    0.64999998    2.75000000
   14.45805550  239.93600464    0.64999998    2.76999998
   14.46138859  202.54100037    0.61000001    2.76999998
   14.46472168  200.63600159    0.61000001    2.78999996
   14.46777725  197.26899719    0.61000001    2.78999996
   14.47111034  213.14100647    0.63000000    2.76999998
   14.47194386  208.32000732    0.63000000    2.76999998
   14.47472191  215.65199280    0.63000000    2.76999998
   14.47805500  210.83599854    0.73000002    2.76999998
   14.48111057  211.83299255    0.73000002    2.76999998
   14.48722267  211.83299255    0.75000000    2.76999998
   14.49138927  214.75799561    0.75000000    2.76999998
   14.58944416   -1.00000000   -1.00000000   -1.00000000
   14.69305515   -1.00000000   -1.00000000   -1.00000000
   14.80083370   -1.00000000   -1.00000000   -1.00000000
   14.83666611   77.08599854    0.09000000    0.07000000
   14.83972168  149.86000061    0.09000000    0.07000000
   14.84305477  152.90699768    0.09000000    0.07000000
   14.84611034  153.94900513    0.09000000    0.07000000
   14.84944439  155.02099609    0.09000000    0.07000000
   14.85277843  154.11399841    0.09000000    0.07000000
   14.85694504  154.11399841    0.09000000    0.07000000
   14.86083412  159.84199524    0.09000000    0.07000000
   14.86416721  156.83099365    0.09000000    0.07000000
   14.86750031  157.96299744    0.09000000    0.07000000
   14.86999989  153.45199585    0.09000000    0.07000000
   14.87111092  133.09899902    0.09000000    0.07000000
   14.87444496  157.02900696    0.09000000    0.07000000
   14.87750053  143.70899963    0.09000000    0.07000000
   14.88083363  151.08799744    0.09000000    0.07000000
   14.88416672  140.76100159    0.09000000    0.07000000
   14.88722229  153.70399475    0.09000000    0.07000000
   14.89055538  145.79200745    0.09000000    0.07000000
   14.89388847  150.93400574    0.09000000    0.07000000
   14.89972210  150.93400574    0.09000000    0.07000000
   14.90388870  157.78900146    0.09000000    0.07000000
   14.90694427  152.49000549    0.09000000    0.07000000
   14.91027737  145.11900330    0.09000000    0.07000000
   14.91361046  149.72300720    0.09000000    0.07000000
   14.91666698  157.12300110    0.09000000    0.07000000
   14.92000008  142.49299622    0.09000000    0.07000000
   14.92305565  150.03700256    0.09000000    0.07000000
   14.92638874  151.14300537    0.09000000    0.07000000
   14.92972279  151.12699890    0.09000000    0.07000000
   14.93277836  150.26600647    0.09000000    0.07000000
   14.93611145  151.51800537    0.09000000    0.07000000
   14.93666649  149.31100464    0.09000000    0.07000000
   14.94250011  149.31100464    0.09000000    0.07000000
   14.94666672  138.48199463    0.09000000    0.07000000
   14.94999981  143.13299561    0.09000000    0.07000000
   14.95305538  147.15199280    0.09000000    0.07000000
   14.95638847  145.50199890    0.09000000    0.07000000
   14.95944405  141.23100281    0.09000000    0.07000000
   14.96277714  146.02000427    0.09000000    0.07000000
   14.96611118  143.78599548    0.09000000    0.07000000
   14.96916580  153.83900452    0.09000000    0.07000000
   14.96999931  160.69799805    0.09000000    0.07000000
   14.97305489  154.68299866    0.09000000    0.07000000
   14.97611046  143.96099854    0.09000000    0.07000000
   14.97944355  138.60499573    0.09000000    0.07000000
   14.98527813  138.60499573    0.09000000    0.07000000
   14.98944473  146.57499695    0.09000000    0.07000000
   14.99277782  148.83200073    0.09000000    0.07000000
   14.99583340  142.75999451    0.09000000    0.07000000
   14.99916649  136.84800720    0.09000000    0.07000000
   15.00249958  145.49699402    0.09000000    0.07000000
   15.00333309  145.16000366    0.09000000    0.07000000
   15.00611115  144.75700378    0.09000000    0.07000000
   15.00916672  150.28799438    0.09000000    0.07000000
   15.01249981  132.51300049    0.09000000    0.07000000
   15.01555538  138.27299500    0.09000000    0.07000000
   15.01888847  140.01400757    0.09000000    0.07000000
   15.02222157  151.59599304    0.09000000    0.07000000
   15.02833271  151.59599304    0.09000000    0.07000000
   15.03222179  149.46600342    0.09000000    0.07000000
   15.03555584  146.49600220    0.09000000    0.07000000
   15.03666687  152.44700623    0.09000000    0.07000000
   15.03944492  143.20199585    0.09000000    0.07000000
