    HOUR (UT)   FLARE FACTOR    SKY TESTER    SUN TESTER
   11.08944416   -1.00000000   -1.00000000   -1.00000000
   11.61277771   90.13269806    2.11999989    1.91999996
   11.61611176   88.57620239    2.11999989    1.91999996
   11.61944485   92.90869904    2.11999989    1.94000006
   11.62250042   88.74490356    2.09999990    1.91999996
   11.62583351   89.54850006    2.09999990    1.94000006
   11.62916660   92.39640045    2.07999992    1.94000006
   11.63333321   92.39640045    2.07999992    1.94000006
   11.63722229   99.20369720    2.07999992    1.94000006
   11.64055538   95.60369873    2.05999994    1.96000004
   11.64388847   99.56759644    2.05999994    1.96000004
   11.64611053  101.74500275    2.03999996    1.96000004
   11.64750004   97.44309998    2.03999996    1.96000004
   11.65055561   95.33969879    2.01999998    1.96000004
   11.65388870   91.83930206    2.01999998    1.98000002
   11.65722179  100.83100128    2.01999998    1.96000004
   11.66027737   94.93939972    2.01999998    1.98000002
   11.66361046   94.61250305    2.00000000    1.96000004
   11.66694450   88.25749969    1.98000002    1.96000004
   11.67000008   91.61270142    1.98000002    1.98000002
   11.67611122   91.61270142    1.96000004    2.00000000
   11.68027782   91.29930115    1.96000004    2.00000000
   11.68333340  111.36799622    1.96000004    2.00000000
   11.68666649   90.44149780    1.96000004    2.00000000
   11.68972206   88.51470184    1.96000004    2.00000000
   11.69305515  104.91100311    1.96000004    2.00000000
   11.69638920   94.14520264    1.96000004    2.00000000
   11.69972229   97.20729828    1.96000004    2.00000000
   11.70277786   97.98149872    1.94000006    2.00000000
   11.70611095   97.02279663    1.89999998    2.01999998
   11.70916653   98.38600159    1.83000004    2.01999998
   11.71249962   91.33599854    1.83000004    2.03999996
   11.71305561   86.87950134    1.83000004    2.01999998
   11.71888828   86.87950134    1.85000002    2.03999996
   11.72305489  103.76399994    1.85000002    2.03999996
   11.72611046   90.01599884    1.85000002    2.03999996
   11.72944355   98.54049683    1.85000002    2.03999996
   11.73277760   95.89250183    1.85000002    2.03999996
   11.73583317   98.52429962    1.83000004    2.03999996
   11.73916721   99.58249664    1.83000004    2.05999994
   11.74250031   91.02300262    1.80999994    2.05999994
   11.74555588  102.66600037    1.83000004    2.05999994
   11.74638939   91.89299774    1.83000004    2.05999994
   11.74944496   94.98200226    1.80999994    2.05999994
   11.75249958   91.92169952    1.80999994    2.05999994
   11.75583363   93.88099670    1.78999996    2.07999992
   11.76166630   93.88099670    1.78999996    2.07999992
   11.76583290   91.68289948    1.78999996    2.07999992
   11.76916599   91.29129791    1.78999996    2.07999992
   11.77222157   96.45230103    1.76999998    2.07999992
   11.77555561   93.21099854    1.75000000    2.07999992
   11.77888870   94.57980347    1.75000000    2.09999990
   11.77972221   93.41649628    1.75000000    2.09999990
   11.78249931   99.38559723    1.75000000    2.09999990
   11.78555584   85.46949768    1.75000000    2.09999990
   11.78888893   82.97389984    1.75000000    2.09999990
   11.79222298   84.93579865    1.71000004    2.09999990
   11.79527855   84.92980194    1.69000006    2.09999990
   11.79861164   83.33740234    1.69000006    2.09999990
   11.80472279   83.33740234    1.66999996    2.11999989
   11.80861092   89.81410217    1.66999996    2.11999989
   11.81194496   84.65550232    1.66999996    2.11999989
   11.81305599   89.81620026    1.66999996    2.11999989
   11.81555557   91.54199982    1.66999996    2.11999989
   11.81861115   87.72299957    1.66999996    2.13000011
   11.82194424   88.93199921    1.64999998    2.13000011
   11.82527733   89.38849640    1.64999998    2.13000011
   11.82833290   80.96299744    1.63000000    2.13000011
   11.83166695   88.91670227    1.63000000    2.13000011
   11.83472157   83.27829742    1.63000000    2.13000011
   11.83805561   87.56359863    1.63000000    2.13000011
   11.84138870   85.15889740    1.61000001    2.13000011
   11.84749985   85.15889740    1.61000001    2.15000010
   11.85166740   95.20249939    1.60000002    2.15000010
   11.85472298   90.67939758    1.60000002    2.15000010
   11.85805607   86.36139679    1.60000002    2.15000010
   11.86111164   86.20690155    1.58000004    2.15000010
   11.86444473   89.71620178    1.58000004    2.15000010
   11.86777782   86.50540161    1.58000004    2.17000008
   11.87083340   89.03659821    1.58000004    2.15000010
   11.87416649   86.10399628    1.55999994    2.15000010
   11.87750053   87.33319855    1.58000004    2.15000010
   11.87972260   88.40979767    1.55999994    2.17000008
   11.88111115   91.68769836    1.55999994    2.17000008
   11.88416672   86.31330109    1.55999994    2.17000008
   11.89027786   86.31330109    1.55999994    2.17000008
   11.89444447   86.90840149    1.55999994    2.17000008
   11.89750004   86.79260254    1.55999994    2.17000008
   11.90083313   85.98419952    1.53999996    2.19000006
   11.90416622   83.65419769    1.53999996    2.17000008
   11.90722179   88.49449921    1.53999996    2.19000006
   11.91055489   87.37200165    1.53999996    2.19000006
   11.91305542   86.97820282    1.51999998    2.19000006
   11.91416645   89.25800323    1.51999998    2.19000006
   11.91722298   88.72840118    1.51999998    2.19000006
   11.92055607   88.67109680    1.50000000    2.19000006
   11.92388916   91.67400360    1.50000000    2.19000006
   11.92694473   92.54170227    1.50000000    2.19000006
   11.93305588   92.54170227    1.48000002    2.21000004
   11.93722248   89.91950226    1.48000002    2.19000006
   11.94055557   92.22810364    1.46000004    2.21000004
   11.94361115   92.04309845    1.46000004    2.21000004
   11.94638920   85.97270203    1.46000004    2.21000004
   11.94750023   89.27929688    1.44000006    2.21000004
   11.95055580   82.68360138    1.44000006    2.21000004
   11.95388889   84.38159943    1.44000006    2.23000002
   11.95722198   81.63749695    1.46000004    2.21000004
   11.96027756   84.35440063    1.44000006    2.23000002
   11.96361065   86.59860229    1.44000006    2.23000002
   11.96666622   87.50409698    1.44000006    2.23000002
   11.96999931   82.68789673    1.41999996    2.23000002
   11.97583294   82.68789673    1.41999996    2.23000002
   11.97999954   84.91249847    1.41999996    2.23000002
   11.98333359   86.37889862    1.41999996    2.23000002
   11.98666668   83.37519836    1.39999998    2.25000000
   11.98972225   83.18090057    1.39999998    2.23000002
   11.99305534   87.14579773    1.39999998    2.25000000
   11.99611092   86.69100189    1.39999998    2.25000000
   11.99944496   85.73390198    1.39999998    2.25000000
   12.00277805   82.98770142    1.39999998    2.25000000
   12.00583363   88.69899750    1.39999998    2.25000000
   12.00916672   84.63289642    1.39999998    2.25000000
   12.01249981   86.17109680    1.39999998    2.25000000
   12.01305580   86.63559723    1.39999998    2.25000000
   12.01888847   86.63559723    1.38000000    2.25000000
   12.02305508   94.00460052    1.38000000    2.25000000
   12.02611065   84.91629791    1.38000000    2.25000000
   12.02944374   94.10729980    1.38000000    2.26999998
   12.03277779   88.25370026    1.36000001    2.26999998
   12.03583336   85.64880371    1.36000001    2.26999998
   12.03916740   89.48580170    1.36000001    2.26999998
   12.04222298   85.49539948    1.36000001    2.26999998
   12.04555607   84.44419861    1.34000003    2.26999998
   12.04638958   90.36750031    1.36000001    2.26999998
   12.04916668   92.01959991    1.34000003    2.26999998
   12.05222225   81.93550110    1.34000003    2.26999998
   12.05555534   84.89019775    1.34000003    2.26999998
   12.06166649   84.89019775    1.33000004    2.26999998
   12.06583309   82.93640137    1.33000004    2.28999996
   12.06888866   81.96399689    1.33000004    2.30999994
   12.07222176   85.38500214    1.34000003    2.28999996
   12.07555580   92.66280365    1.33000004    2.28999996
   12.07861137   84.28209686    1.33000004    2.28999996
   12.07972240   87.69840240    1.33000004    2.28999996
   12.08249950   86.16120148    1.30999994    2.30999994
   12.08583260   84.47779846    1.30999994    2.28999996
   12.08888817   82.10520172    1.30999994    2.30999994
   12.09222221   86.26779938    1.30999994    2.30999994
   12.09527779   92.24310303    1.30999994    2.30999994
   12.09861088   87.61299896    1.28999996    2.30999994
   12.10444450   87.61299896    1.28999996    2.32999992
   12.10861111   89.84079742    1.28999996    2.32999992
   12.11194515   93.15889740    1.28999996    2.32999992
   12.11305618   88.55699921    1.30999994    2.30999994
   12.11555576   86.12670135    1.28999996    2.30999994
   12.11861134   86.46769714    1.28999996    2.30999994
   12.12194443   86.34190369    1.28999996    2.32999992
   12.12555599   86.70809937    1.28999996    2.32999992
   12.12861156   86.59200287    1.26999998    2.32999992
   12.13194466   84.09140015    1.28999996    2.32999992
   12.13527775   89.06120300    1.26999998    2.32999992
   12.13833332   91.51290131    1.26999998    2.32999992
   12.14166641   85.57319641    1.26999998    2.32999992
   12.14722252   85.57319641    1.26999998    2.32999992
   12.15138817   82.54250336    1.26999998    2.32999992
   12.15472221   86.74710083    1.26999998    2.32999992
   12.15805531   88.80950165    1.26999998    2.32999992
   12.16111088   88.78410339    1.26999998    2.32999992
   12.16444397   85.85690308    1.26999998    2.32999992
   12.16750050   84.85900116    1.26999998    2.34999990
   12.17083359   85.74289703    1.25000000    2.34999990
   12.17416668   84.92050171    1.25000000    2.34999990
   12.17722225   92.54620361    1.25000000    2.34999990
   12.17972279   83.84100342    1.25000000    2.34999990
   12.18111134   86.84670258    1.25000000    2.34999990
   12.18416691   87.08769989    1.25000000    2.34999990
   12.19027805   87.08769989    1.23000002    2.34999990
   12.19444466   87.23789978    1.23000002    2.34999990
   12.19750023   86.67320251    1.23000002    2.34999990
   12.20083332   86.26349640    1.23000002    2.34999990
   12.20388889   84.92440033    1.21000004    2.36999989
   12.20722198   84.63970184    1.21000004    2.36999989
   12.21055508   86.78350067    1.21000004    2.34999990
   12.21305561   90.17420197    1.21000004    2.36999989
   12.21416664   86.17289734    1.21000004    2.36999989
   12.21722221   89.00420380    1.21000004    2.36999989
   12.22055531   87.02610016    1.21000004    2.36999989
   12.22388840   94.57150269    1.19000006    2.36999989
   12.22694397   86.18150330    1.19000006    2.36999989
   12.23305511   86.18150330    1.19000006    2.39000010
   12.23722267   82.16940308    1.19000006    2.36999989
   12.24055576   81.88939667    1.19000006    2.39000010
   12.24361134   83.28009796    1.16999996    2.39000010
   12.24638939   85.91010284    1.19000006    2.36999989
   12.24722290   82.82250214    1.19000006    2.36999989
   12.25055599   83.73519897    1.19000006    2.36999989
   12.25361156   85.76940155    1.19000006    2.39000010
   12.25694466   85.33280182    1.14999998    2.40000010
   12.26000023   85.04170227    1.14999998    2.39000010
   12.26333332   83.46690369    1.14999998    2.39000010
   12.26666641   82.20600128    1.14999998    2.39000010
   12.26972198   85.96309662    1.14999998    2.40000010
   12.27583313   85.96309662    1.13000000    2.40000010
   12.27999973   87.97480011    1.14999998    2.40000010
   12.28333378   83.64620209    1.13000000    2.39000010
   12.28638935   86.10109711    1.13000000    2.40000010
   12.28972244   86.67359924    1.13000000    2.39000010
   12.29305553   85.49479675    1.13000000    2.40000010
   12.29611111   87.05750275    1.13000000    2.40000010
   12.29944515   85.65319824    1.13000000    2.40000010
   12.30249977   85.94619751    1.11000001    2.40000010
   12.30583382   88.78720093    1.11000001    2.40000010
   12.30916691   82.09470367    1.11000001    2.40000010
   12.31222248   87.35079956    1.11000001    2.40000010
   12.31305599   85.58149719    1.11000001    2.40000010
   12.31916618   85.58149719    1.11000001    2.40000010
   12.32305527   85.10710144    1.11000001    2.42000008
   12.32638836   86.57499695    1.11000001    2.40000010
   12.32972240   83.24310303    1.11000001    2.40000010
   12.33277798   84.44450378    1.11000001    2.42000008
   12.33611107   83.17960358    1.11000001    2.42000008
   12.33944416   86.45760345    1.11000001    2.40000010
   12.34249973   84.88590240    1.11000001    2.42000008
   12.34583282   89.23629761    1.09000003    2.42000008
   12.34638882   86.56109619    1.09000003    2.42000008
   12.34944439   87.74030304    1.11000001    2.42000008
   12.35277843   86.68969727    1.09000003    2.42000008
   12.35583401   86.38870239    1.09000003    2.42000008
   12.36166668   86.38870239    1.09000003    2.42000008
   12.36555576   88.92669678    1.09000003    2.42000008
   12.36888885   86.34549713    1.07000005    2.42000008
   12.37222195   86.91760254    1.07000005    2.42000008
   12.37527752   84.69029999    1.07000005    2.42000008
   12.37861156   86.34690094    1.07000005    2.42000008
   12.37972260   86.10530090    1.07000005    2.42000008
   12.38222218   86.50070190    1.07000005    2.44000006
   12.38555527   88.50399780    1.07000005    2.44000006
   12.38861084   88.04429626    1.05999994    2.44000006
   12.39194393   85.67600250    1.05999994    2.44000006
   12.39499950   87.86260223    1.05999994    2.42000008
   12.39833355   83.85299683    1.05999994    2.44000006
   12.40444374   83.85299683    1.03999996    2.44000006
   12.40861034   83.99770355    1.03999996    2.44000006
   12.41166592   87.29779816    1.03999996    2.44000006
   12.41305542   85.43170166    1.03999996    2.44000006
   12.41527748   83.84339905    1.03999996    2.46000004
   12.41861153   89.72309875    1.01999998    2.46000004
   12.42166710   82.61799622    1.01999998    2.46000004
   12.42500019   85.87500000    1.01999998    2.44000006
   12.42805576   86.58740234    1.01999998    2.44000006
   12.43138885   85.38159943    1.00000000    2.46000004
   12.43472195   90.01589966    1.00000000    2.46000004
   12.43777752   86.15910339    1.00000000    2.46000004
   12.44111156   86.87460327    0.98000002    2.46000004
   12.44722271   86.87460327    0.98000002    2.46000004
   12.45138836   90.57920074    1.00000000    2.46000004
   12.45472240   84.64060211    0.98000002    2.46000004
   12.45777798   81.55290222    1.00000000    2.46000004
   12.46111107   84.94370270    1.00000000    2.46000004
   12.46444416   82.09359741    1.00000000    2.46000004
   12.46749973   81.63569641    1.00000000    2.46000004
   12.47083282   83.75309753    0.98000002    2.46000004
   12.47416592   84.18699646    0.98000002    2.46000004
   12.47722149   83.97380066    0.98000002    2.46000004
   12.47972202   84.46070099    0.98000002    2.46000004
   12.48083305   85.54209900    0.98000002    2.46000004
   12.48416710   86.69529724    0.95999998    2.46000004
   12.49000072   86.69529724    0.95999998    2.48000002
   12.49416733   85.54589844    0.95999998    2.46000004
   12.49750042   93.36920166    0.95999998    2.48000002
   12.50083351   88.35870361    0.95999998    2.48000002
   12.50388908   84.45549774    0.95999998    2.46000004
   12.50722218   84.08059692    0.94000000    2.48000002
   12.51055527   85.96479797    0.95999998    2.48000002
   12.51305580   89.64330292    0.94000000    2.48000002
   12.51416683   86.69400024    0.94000000    2.48000002
   12.51749992   84.22699738    0.94000000    2.48000002
   12.52055550   86.47709656    0.94000000    2.48000002
   12.52388859   82.90889740    0.94000000    2.48000002
   12.52750015   84.31169891    0.92000002    2.48000002
   12.53305531   84.31169891    0.92000002    2.48000002
   12.53694534   86.67790222    0.94000000    2.48000002
   12.54027843   87.97830200    0.94000000    2.48000002
   12.54361153   83.47519684    0.92000002    2.48000002
   12.54638958   86.39250183    0.92000002    2.48000002
   12.54722309   87.17970276    0.92000002    2.48000002
   12.55055618   86.83000183    0.92000002    2.50000000
   12.55361176   86.41220093    0.94000000    2.50000000
   12.55694485   84.02739716    0.92000002    2.50000000
   12.56027794   84.21309662    0.92000002    2.50000000
   12.56333351   83.19689941    0.92000002    2.50000000
   12.56666660   84.44760132    0.89999998    2.50000000
   12.56972218   81.64610291    0.89999998    2.50000000
   12.57583332   81.64610291    0.89999998    2.50000000
   12.57999992   87.65100098    0.89999998    2.50000000
   12.58333302   86.39510345    0.88000000    2.50000000
   12.58638859   88.66519928    0.89999998    2.50000000
   12.58972168   85.34819794    0.89999998    2.51999998
   12.59277725   87.18170166    0.88000000    2.51999998
   12.59611034   85.78589630    0.88000000    2.50000000
   12.59944439   87.62770081    0.89999998    2.50000000
   12.60249996   90.57460022    0.88000000    2.50000000
   12.60583401   84.66750336    0.89999998    2.50000000
   12.60916710   85.51239777    0.89999998    2.50000000
   12.61222267   87.47329712    0.88000000    2.50000000
   12.61305618   86.07080078    0.89999998    2.50000000
   12.63388920   86.07080078    0.89999998    2.50000000
   12.63805580   82.68070221    0.88000000    2.51999998
   12.64111137   85.05290222    0.89999998    2.51999998
   12.64444447   83.96730042    0.88000000    2.51999998
   12.64638901   89.87609863    0.88000000    2.51999998
   12.64805508   83.72560120    0.88000000    2.51999998
   12.65138817   86.31459808    0.88000000    2.51999998
   12.65444374   87.92289734    0.88000000    2.51999998
   12.65777779   84.09030151    0.88000000    2.51999998
   12.66111088   84.24549866    0.88000000    2.51999998
   12.66416645   89.18060303    0.88000000    2.51999998
   12.66750050   83.43340302    0.88000000    2.51999998
   12.67055607   86.76699829    0.88000000    2.51999998
   12.67666721   86.76699829    0.86000001    2.51999998
   12.68083382   85.72339630    0.86000001    2.51999998
   12.68388939   84.26580048    0.88000000    2.53999996
   12.68722248   86.88559723    0.86000001    2.53999996
   12.69055557   84.16690063    0.86000001    2.53999996
   12.69361115   84.91979980    0.86000001    2.51999998
   12.69694424   85.42810059    0.86000001    2.53999996
   12.70027733   85.68289948    0.86000001    2.53999996
   12.70333290   84.44069672    0.86000001    2.53999996
   12.70666695   82.91909790    0.86000001    2.53999996
   12.70972157   92.11280060    0.86000001    2.53999996
   12.71305561   86.12290192    0.86000001    2.53999996
   12.71361065   82.68360138    0.86000001    2.53999996
   12.71944427   82.68360138    0.86000001    2.53999996
   12.72361088   80.85030365    0.86000001    2.53999996
   12.72694397   81.57689667    0.86000001    2.55999994
   12.72999954   83.75450134    0.86000001    2.53999996
   12.73333359   85.79589844    0.86000001    2.53999996
   12.73638916   85.52590179    0.86000001    2.55999994
   12.73972225   81.21410370    0.86000001    2.55999994
   12.74305534   83.70449829    0.86000001    2.55999994
   12.74638939   86.85179901    0.86000001    2.53999996
   12.74694443   84.70390320    0.86000001    2.53999996
   12.75000000   86.42279816    0.86000001    2.53999996
   12.75305557   84.26129913    0.86000001    2.53999996
   12.75638866   82.88520050    0.86000001    2.55999994
   12.76222229   82.88520050    0.86000001    2.55999994
   12.76638889   85.08699799    0.86000001    2.55999994
   12.76972198   84.19460297    0.86000001    2.53999996
   12.77277756   81.94020081    0.86000001    2.55999994
   12.77611065   83.76969910    0.86000001    2.55999994
   12.77944374   80.40429688    0.86000001    2.55999994
   12.78027725   84.64869690    0.86000001    2.55999994
   12.78305531   85.45210266    0.86000001    2.55999994
   12.78611183   84.41690063    0.88000000    2.55999994
   12.78944492   88.55860138    0.88000000    2.55999994
   12.79277802   86.93869781    0.88000000    2.55999994
   12.79583359   81.03959656    0.88000000    2.55999994
   12.79916668   84.82679749    0.86000001    2.55999994
   12.80527782   84.82679749    0.86000001    2.55999994
   12.80916691   82.50420380    0.86000001    2.55999994
   12.81250000   86.63189697    0.89999998    2.55999994
   12.81361103   86.97810364    0.88000000    2.55999994
   12.81611156   84.65370178    0.89999998    2.55999994
   12.81916618   80.52339935    0.88000000    2.55999994
   12.82250023   87.71479797    0.88000000    2.55999994
   12.82583332   86.48079681    0.88000000    2.57999992
   12.82916641   82.29239655    0.88000000    2.57999992
   12.83222198   81.61180115    0.88000000    2.55999994
   12.83555508   86.91020203    0.88000000    2.55999994
   12.83888817   88.13030243    0.88000000    2.55999994
   12.84194374   88.67639923    0.88000000    2.55999994
   12.84805489   88.67639923    0.88000000    2.57999992
   12.85222244   83.51419830    0.88000000    2.57999992
   12.85527802   83.92389679    0.86000001    2.57999992
   12.85861111   83.31279755    0.86000001    2.55999994
   12.86194515   86.11180115    0.86000001    2.57999992
   12.86500072   78.23290253    0.88000000    2.57999992
   12.86833382   85.23590088    0.88000000    2.59999990
   12.87138939   84.07240295    0.88000000    2.57999992
   12.87472248   82.82720184    0.88000000    2.57999992
   12.87805557   82.58159637    0.88000000    2.57999992
   12.88027763   81.89320374    0.88000000    2.57999992
   12.88166714   80.00370026    0.89999998    2.57999992
   12.88472176   86.19779968    0.89999998    2.57999992
   12.89083290   86.19779968    0.88000000    2.57999992
   12.89499950   86.82949829    0.88000000    2.57999992
   12.89833355   83.07759857    0.88000000    2.59999990
   12.90138817   84.50589752    0.88000000    2.59999990
   12.90472221   92.11669922    0.86000001    2.59999990
   12.90777779   82.41470337    0.88000000    2.59999990
   12.91111088   88.70159912    0.86000001    2.59999990
   12.91361046   85.65360260    0.86000001    2.57999992
   12.91472149   83.25160217    0.86000001    2.59999990
   12.91777802   83.33979797    0.88000000    2.57999992
   12.92111111   79.15599823    0.88000000    2.57999992
   12.92444515   83.26349640    0.88000000    2.57999992
   12.92750072   86.10829926    0.89999998    2.59999990
   12.93361092   86.10829926    0.88000000    2.57999992
   12.93777752   79.64279938    0.89999998    2.59999990
   12.94111156   79.97399902    0.89999998    2.59999990
   12.94416714   84.83180237    0.92000002    2.59999990
   12.94694424   78.24189758    0.92000002    2.59999990
   12.94805527   85.16809845    0.92000002    2.59999990
   12.95111084   86.17749786    0.94000000    2.59999990
   12.95444393   80.60590363    0.94000000    2.59999990
   12.95777798   84.78990173    0.98000002    2.59999990
   12.96083355   81.06999969    1.00000000    2.59999990
   12.96416664   82.11879730    1.00000000    2.59999990
   12.96749973   81.09120178    1.01999998    2.59999990
   12.97055531   81.85030365    1.00000000    2.59999990
   12.97666645   81.85030365    1.01999998    2.61999989
   12.98055553   80.54029846    1.00000000    2.59999990
   12.98388958   78.82450104    0.95999998    2.59999990
   12.98722267   82.12629700    0.94000000    2.59999990
   12.99027824   78.76909637    0.94000000    2.59999990
   12.99361134   82.48930359    0.92000002    2.59999990
   12.99694443   84.48519897    0.92000002    2.59999990
   13.00000000   81.67150116    0.89999998    2.61999989
   13.00333309   83.75009918    0.89999998    2.59999990
   13.00638866   79.29460144    0.88000000    2.61999989
   13.00972176   84.49620056    0.88000000    2.61999989
   13.01305580   80.21499634    0.88000000    2.59999990
   13.01361084   80.01000214    0.88000000    2.59999990
   13.01944447   80.01000214    0.88000000    2.59999990
   13.02361107   83.29460144    0.88000000    2.61999989
   13.02666664   84.25890350    0.88000000    2.59999990
   13.02999973   88.97660065    0.88000000    2.59999990
   13.03333378   82.54250336    0.88000000    2.59999990
   13.03638935   81.80529785    0.88000000    2.61999989
   13.03972244   78.40699768    0.88000000    2.61999989
   13.04277802   82.20690155    0.88000000    2.61999989
   13.04611111   79.35639954    0.88000000    2.61999989
   13.04694462   83.08779907    0.88000000    2.61999989
   13.04972267   83.75469971    0.88000000    2.61999989
   13.05305576   80.76999664    0.88000000    2.61999989
   13.05611134   77.21279907    0.88000000    2.61999989
   13.06222248   77.21279907    0.86000001    2.61999989
   13.06638908   78.18509674    0.86000001    2.61999989
   13.06972218   78.24829865    0.86000001    2.61999989
   13.07277775   81.35379791    0.86000001    2.61999989
   13.07611084   87.80729675    0.86000001    2.61999989
   13.07916641   81.89050293    0.86000001    2.64000010
   13.08027744   80.37670135    0.88000000    2.64000010
   13.08305550   84.04299927    0.88000000    2.61999989
   13.08611107   78.15499878    0.88000000    2.61999989
   13.08944416   78.78279877    0.86000001    2.61999989
   13.09277725   87.86289978    0.88000000    2.61999989
   13.09583282   79.89920044    0.88000000    2.61999989
   13.09916592   78.58300018    0.88000000    2.61999989
   13.10500050   78.58300018    0.88000000    2.61999989
   13.10916710   80.61810303    0.88000000    2.61999989
   13.11250019   82.80940247    0.89999998    2.64000010
   13.11361122   83.26149750    0.88000000    2.61999989
   13.11611176   80.76470184    0.88000000    2.61999989
   13.11916637   77.21450043    0.89999998    2.61999989
   13.12250042   81.00160217    0.88000000    2.61999989
   13.12583351   82.67179871    0.88000000    2.64000010
   13.12888908   83.07379913    0.89999998    2.61999989
   13.13222218   80.05159760    0.88000000    2.61999989
   13.13555527   84.37110138    0.88000000    2.61999989
   13.13861084   80.91329956    0.86000001    2.64000010
   13.14194393   85.86450195    0.88000000    2.64000010
   13.14805508   85.86450195    0.86000001    2.64000010
   13.15194416   85.79550171    0.83999997    2.61999989
   13.15527725   78.36579895    0.83999997    2.64000010
   13.15861034   85.33219910    0.83999997    2.64000010
   13.16166592   77.21170044    0.81999999    2.64000010
   13.16499996   78.24700165    0.81999999    2.64000010
   13.16833401   79.48239899    0.80000001    2.64000010
   13.17138958   81.34989929    0.80000001    2.64000010
   13.17472267   85.05899811    0.80000001    2.64000010
   13.17777824   87.81030273    0.80000001    2.64000010
   13.18027782   83.28450012    0.80000001    2.64000010
   13.18166733   79.23179626    0.80000001    2.64000010
   13.18500042   84.21080017    0.80000001    2.64000010
   13.19083309   84.21080017    0.80000001    2.64000010
   13.19499969   81.20829773    0.80000001    2.64000010
   13.19805527   83.89779663    0.79000002    2.64000010
   13.20138836   85.22920227    0.79000002    2.66000009
   13.20472240   81.31639862    0.79000002    2.66000009
   13.20777798   85.09279633    0.79000002    2.64000010
   13.21111107   89.86060333    0.79000002    2.64000010
   13.21361065   84.10379791    0.79000002    2.64000010
   13.21472168   79.49430084    0.79000002    2.64000010
   13.21805477   85.01989746    0.79000002    2.64000010
   13.22111034   80.71029663    0.79000002    2.66000009
   13.22444439   80.12860107    0.79000002    2.64000010
   13.22777748   83.56050110    0.79000002    2.64000010
   13.23361111   83.56050110    0.79000002    2.66000009
   13.23777771   78.22480011    0.79000002    2.66000009
   13.24111176   85.75080109    0.79000002    2.66000009
   13.24416733   77.92590332    0.76999998    2.66000009
   13.24694443   76.12560272    0.76999998    2.64000010
   13.24777794   80.15080261    0.76999998    2.64000010
   13.25111103   81.82409668    0.75000000    2.66000009
   13.25416660   80.65899658    0.75000000    2.66000009
   13.25749969   87.19429779    0.75000000    2.67000008
   13.26055527   82.66480255    0.75000000    2.66000009
   13.26388931   91.17150116    0.75000000    2.66000009
   13.26722240   83.66899872    0.75000000    2.66000009
   13.27027798   89.34799957    0.75000000    2.66000009
   13.27638817   89.34799957    0.75000000    2.66000009
   13.28055573   80.14209747    0.73000002    2.66000009
   13.28388977   83.63829803    0.73000002    2.66000009
   13.28694534   80.43869781    0.73000002    2.66000009
   13.29027843   87.46160126    0.73000002    2.66000009
   13.29361153   83.21179962    0.73000002    2.66000009
   13.29666710   83.01239777    0.70999998    2.66000009
   13.30000019   84.58689880    0.70999998    2.66000009
   13.30333328   85.03649902    0.70999998    2.66000009
   13.30638885   89.35430145    0.70999998    2.66000009
   13.30972195   78.00299835    0.70999998    2.66000009
   13.31277752   85.69879913    0.73000002    2.66000009
   13.31361103   88.92199707    0.73000002    2.66000009
   13.31944466   88.92199707    0.70999998    2.66000009
   13.32333374   93.17250061    0.70999998    2.67000008
   13.32666683   93.27159882    0.73000002    2.67000008
   13.32999992   79.99449921    0.73000002    2.67000008
   13.33305550   81.49919891    0.70999998    2.67000008
   13.33638859   76.13220215    0.70999998    2.66000009
   13.33972168   87.25910187    0.73000002    2.66000009
   13.34277725   85.38649750    0.70999998    2.66000009
   13.34611034   77.95179749    0.70999998    2.66000009
   13.34694386   83.43049622    0.70999998    2.66000009
   13.34972191   79.09559631    0.70999998    2.66000009
   13.35305595   78.76450348    0.70999998    2.67000008
   13.35611153   77.14409637    0.70999998    2.67000008
   13.36222267   77.14409637    0.70999998    2.67000008
   13.36638927   80.96690369    0.70999998    2.67000008
   13.36944485   81.34919739    0.70999998    2.67000008
   13.37277794   82.49220276    0.70999998    2.67000008
   13.37611103   79.59649658    0.70999998    2.66000009
   13.37916660   87.10820007    0.70999998    2.66000009
   13.38027763   82.38690186    0.70999998    2.66000009
   13.38277817   82.13999939    0.70999998    2.66000009
   13.38611126   80.77919769    0.70999998    2.67000008
   13.38916683   76.52660370    0.70999998    2.67000008
   13.39249992   80.25229645    0.70999998    2.67000008
   13.39555550   78.50569916    0.70999998    2.67000008
   13.39888859   79.37729645    0.70999998    2.67000008
   13.40499973   79.37729645    0.69000000    2.67000008
   13.40916634   81.52559662    0.70999998    2.67000008
   13.41222191   95.58090210    0.70999998    2.67000008
   13.41361046   81.24469757    0.70999998    2.67000008
   13.41611099   89.05490112    0.69000000    2.67000008
   13.41944504   92.10759735    0.69000000    2.67000008
   13.42250061   88.04759979    0.69000000    2.67000008
   13.42583370   81.49069977    0.69000000    2.67000008
   13.42916679   83.16300201    0.69000000    2.67000008
   13.43222237   92.90480042    0.69000000    2.67000008
   13.43555546   79.89849854    0.67000002    2.67000008
   13.43861103   90.07890320    0.69000000    2.67000008
   13.44194412   80.51029968    0.67000002    2.67000008
   13.44777775   80.51029968    0.69000000    2.67000008
   13.45194435   90.16670227    0.67000002    2.67000008
   13.45527744   89.03679657    0.67000002    2.67000008
   13.45833302   86.36900330    0.67000002    2.67000008
   13.46166611   87.65789795    0.67000002    2.69000006
   13.46500015   90.92279816    0.67000002    2.67000008
   13.46805477   93.78869629    0.69000000    2.69000006
   13.47138882   89.30860138    0.67000002    2.67000008
   13.47472191   87.88529968    0.69000000    2.67000008
   13.47777748   76.62100220    0.69000000    2.69000006
   13.48027706   84.53250122    0.67000002    2.67000008
   13.48138809   89.65280151    0.69000000    2.67000008
   13.48472214   88.29930115    0.67000002    2.69000006
   13.49055576   88.29930115    0.67000002    2.69000006
   13.49472237   79.25070190    0.67000002    2.67000008
   13.49805546   82.86119843    0.67000002    2.69000006
   13.50138855   87.94370270    0.67000002    2.69000006
   13.50444412   83.65550232    0.64999998    2.69000006
   13.50777817   77.73709869    0.64999998    2.69000006
   13.51083374   79.47599792    0.64999998    2.69000006
   13.51361084   78.52619934    0.64999998    2.69000006
   13.51472187   77.40709686    0.64999998    2.69000006
   13.51805496   82.16819763    0.64999998    2.69000006
   13.52111053   85.61170197    0.64999998    2.69000006
   13.52444458   89.71340179    0.64999998    2.69000006
   13.52777767   80.03340149    0.64999998    2.69000006
   13.53361130   80.03340149    0.64999998    2.69000006
   13.53777790   97.05069733    0.64999998    2.69000006
   13.54111195   95.18959808    0.64999998    2.69000006
   13.54416752   83.08640289    0.64999998    2.69000006
   13.54694462   80.29429626    0.64999998    2.69000006
   13.54777813   85.64299774    0.64999998    2.69000006
   13.55111122   98.88439941    0.64999998    2.69000006
   13.55416679   83.57189941    0.64999998    2.69000006
   13.55749989   89.04229736    0.63000000    2.69000006
   13.56083393   86.04049683    0.63000000    2.69000006
   13.56388950   84.16120148    0.63000000    2.69000006
   13.56722260   77.52559662    0.63000000    2.69000006
   13.57027817   84.86840057    0.64999998    2.69000006
   13.57638836   84.86840057    0.63000000    2.69000006
   13.58055592   92.41929626    0.63000000    2.69000006
   13.58361053   84.19110107    0.63000000    2.69000006
   13.58694458   80.01149750    0.63000000    2.69000006
   13.59027767   90.73200226    0.63000000    2.71000004
   13.59333324   85.23639679    0.63000000    2.69000006
   13.59666634   88.60540009    0.63000000    2.69000006
   13.60000038   89.15029907    0.63000000    2.71000004
   13.60305595   94.75279999    0.63000000    2.71000004
   13.60638905   94.66549683    0.63000000    2.71000004
   13.60944462   94.36370087    0.61000001    2.69000006
   13.61277771   81.61640167    0.63000000    2.71000004
   13.61361122   90.13659668    0.63000000    2.71000004
   13.61916637   90.13659668    0.63000000    2.71000004
   13.62333393   93.31759644    0.63000000    2.69000006
   13.62666702   88.23760223    0.63000000    2.69000006
   13.62972260   93.95780182    0.63000000    2.69000006
   13.64750004   88.82369995    0.63000000    2.69000006
   13.64972210   89.82740021    0.63000000    2.69000006
   13.65305519  101.91000366    0.63000000    2.69000006
   13.65638828   97.12509918    0.63000000    2.69000006
   13.66222191   97.12509918    0.63000000    2.69000006
   13.66638851   84.67089844    0.63000000    2.69000006
   13.66972256   98.13240051    0.63000000    2.69000006
   13.67277813   88.13430023    0.63000000    2.69000006
   13.67611122   84.21759796    0.63000000    2.71000004
   13.67916679   92.58350372    0.64999998    2.71000004
   13.68055630   91.93260193    0.64999998    2.69000006
   13.68277836   89.40110016    0.64999998    2.69000006
   13.68611145   97.89869690    0.64999998    2.71000004
   13.68916702   83.86820221    0.64999998    2.69000006
   13.69250011   93.59870148    0.64999998    2.69000006
   13.69583321   93.13110352    0.67000002    2.71000004
   13.69888878  102.28299713    0.67000002    2.69000006
   13.70499992  102.28299713    0.67000002    2.71000004
   13.70916653   89.83209991    0.67000002    2.71000004
   13.71249962   80.55180359    0.67000002    2.71000004
   13.71388912   84.27749634    0.64999998    2.71000004
   13.71611118   93.58350372    0.67000002    2.71000004
   13.71944427   85.57070160    0.64999998    2.71000004
   13.72249985   93.95639801    0.64999998    2.69000006
   13.72583294   84.14420319    0.64999998    2.69000006
   13.72916603   76.77829742    0.64999998    2.71000004
   13.73222160   89.72010040    0.64999998    2.71000004
   13.73555565   89.22949982    0.67000002    2.71000004
   13.73888874   83.99629974    0.64999998    2.71000004
   13.74194431   77.00820160    0.64999998    2.71000004
   13.74805546   77.00820160    0.67000002    2.71000004
   13.75222206   84.87100220    0.64999998    2.71000004
   13.75527763   82.63220215    0.67000002    2.71000004
   13.75861073   85.42630005    0.67000002    2.69000006
   13.76166630   82.31469727    0.67000002    2.71000004
   13.76500034   85.55909729    0.67000002    2.71000004
   13.76833344   93.90209961    0.67000002    2.71000004
   13.77138901   86.62979889    0.67000002    2.71000004
   13.77472210   85.77549744    0.64999998    2.71000004
   13.77805519   85.19319916    0.64999998    2.71000004
   13.78055573   75.13009644    0.64999998    2.71000004
   13.78166676   86.01940155    0.64999998    2.71000004
   13.78500080   77.13860321    0.64999998    2.71000004
   13.79083347   77.13860321    0.64999998    2.71000004
   13.79500008   83.76290131    0.64999998    2.71000004
   13.79805565   83.90350342    0.63000000    2.71000004
   13.80138874   83.88899994    0.63000000    2.71000004
   13.80472279   89.17919922    0.63000000    2.71000004
   13.80777836   83.65519714    0.63000000    2.71000004
   13.81111145   82.54859924    0.63000000    2.71000004
   13.81388950   90.86489868    0.61000001    2.71000004
   13.81472206   91.46199799    0.61000001    2.71000004
   13.81805515   83.36389923    0.61000001    2.71000004
   13.82111073   77.58730316    0.61000001    2.73000002
   13.82444477   92.87670135    0.61000001    2.71000004
   13.82777786   86.29769897    0.61000001    2.71000004
   13.83361053   86.29769897    0.61000001    2.73000002
   13.83777714   89.62190247    0.61000001    2.73000002
   13.84111118   89.10649872    0.61000001    2.71000004
   13.84416676   83.61229706    0.61000001    2.71000004
   13.84722233   79.35849762    0.61000001    2.73000002
   13.84777737   76.15219879    0.61000001    2.73000002
   13.85111141   80.56449890    0.58999997    2.71000004
   13.85416698   85.53150177    0.58999997    2.73000002
   13.85750008   76.97640228    0.61000001    2.73000002
   13.86083412   77.29319763    0.61000001    2.73000002
   13.86388969   82.26339722    0.63000000    2.71000004
   13.86722279   79.97059631    0.61000001    2.71000004
   13.87027836   87.06990051    0.61000001    2.73000002
   13.87638855   87.06990051    0.61000001    2.73000002
   13.88055611   81.02760315    0.61000001    2.73000002
   13.88111115   80.79530334    0.63000000    2.73000002
   13.88444424   81.19120026    0.61000001    2.71000004
   13.88749981   85.91619873    0.61000001    2.73000002
   13.89083290   86.49430084    0.61000001    2.73000002
   13.89416695   90.56639862    0.63000000    2.73000002
   13.89722252   86.93699646    0.63000000    2.73000002
   13.90055561   85.15319824    0.63000000    2.71000004
   13.90388870   82.12960052    0.64999998    2.73000002
   13.90694427   83.27870178    0.63000000    2.73000002
   13.91027737   81.24330139    0.64999998    2.73000002
   13.91333294   86.51399994    0.64999998    2.73000002
   13.91388893   81.62830353    0.64999998    2.73000002
   13.91944504   81.62830353    0.64999998    2.73000002
   13.92333412   82.21920013    0.64999998    2.73000002
   13.92666721   87.45449829    0.63000000    2.73000002
   13.93000031   89.17769623    0.63000000    2.73000002
   13.93305588   83.48390198    0.63000000    2.73000002
   13.93638897   84.81469727    0.63000000    2.73000002
   13.93972206   80.33329773    0.64999998    2.73000002
   13.94277763   81.22850037    0.64999998    2.73000002
   13.94611073   80.35949707    0.64999998    2.73000002
   13.94722271   86.97519684    0.64999998    2.73000002
   13.94972229   85.44419861    0.64999998    2.73000002
   13.95305538   80.01249695    0.64999998    2.73000002
   13.95611095   91.42620087    0.64999998    2.73000002
   13.96222210   91.42620087    0.64999998    2.73000002
   13.96638870   80.12239838    0.67000002    2.73000002
   13.96944427   85.30480194    0.69000000    2.73000002
   13.97277737   92.19300079    0.67000002    2.71000004
   13.97611046   75.90560150    0.69000000    2.73000002
   13.97916603   84.67459869    0.67000002    2.73000002
   13.98083305   78.01699829    0.67000002    2.73000002
   13.98277760   75.89360046    0.67000002    2.73000002
   13.98611164   87.99089813    0.67000002    2.73000002
   13.98916721   78.47630310    0.67000002    2.73000002
   13.99250031   79.86949921    0.67000002    2.73000002
   13.99583340   87.49099731    0.69000000    2.73000002
   13.99888897   84.41609955    0.70999998    2.73000002
   14.00500011   84.41609955    0.73000002    2.73000002
   14.00916672   87.95420074    0.70999998    2.73000002
   14.01249981   88.92780304    0.70999998    2.73000002
   14.01416683   81.20079803    0.70999998    2.73000002
   14.01583290   83.59349823    0.70999998    2.73000002
   14.01916599   95.73899841    0.70999998    2.73000002
   14.02222157   85.21920013    0.69000000    2.73000002
   14.02555561   86.15280151    0.69000000    2.73000002
   14.02888870   91.33159637    0.69000000    2.73000002
   14.03194427   77.76490021    0.69000000    2.73000002
   14.03527832   85.07389832    0.69000000    2.73000002
   14.03861141   87.99279785    0.67000002    2.75000000
   14.04166698   86.79799652    0.67000002    2.73000002
   14.04777813   86.79799652    0.67000002    2.73000002
   14.05194473   90.94879913    0.67000002    2.73000002
   14.05527782   75.93070221    0.64999998    2.75000000
   14.05861092   89.68959808    0.64999998    2.75000000
   14.06166649   83.77310181    0.64999998    2.73000002
   14.06500053   79.38809967    0.63000000    2.73000002
   14.06833363   88.40589905    0.63000000    2.73000002
   14.07138920   82.62899780    0.63000000    2.73000002
   14.07472229   85.27940369    0.63000000    2.73000002
   14.07777786   82.95549774    0.63000000    2.73000002
   14.08083344   88.46279907    0.63000000    2.73000002
   14.08138847   85.34390259    0.63000000    2.73000002
   14.08472157   92.19619751    0.63000000    2.73000002
   14.09083271   92.19619751    0.63000000    2.75000000
   14.09499931   89.10089874    0.63000000    2.75000000
   14.09805489   83.56839752    0.63000000    2.73000002
   14.10138893   84.77809906    0.67000002    2.73000002
   14.10444450   83.16999817    0.69000000    2.73000002
   14.10777855   91.56670380    0.69000000    2.73000002
   14.11111164   81.91970062    0.67000002    2.73000002
   14.11416721   81.07109833    0.67000002    2.73000002
   14.11472225   83.57630157    0.67000002    2.73000002
   14.11805534   82.58110046    0.67000002    2.75000000
   14.12111092   86.49739838    0.67000002    2.73000002
   14.12444496   81.21080017    0.67000002    2.73000002
   14.12777805   78.60959625    0.64999998    2.73000002
   14.13361073   78.60959625    0.64999998    2.75000000
   14.13777733   76.99919891    0.61000001    2.73000002
   14.14083290   84.33149719    0.61000001    2.75000000
   14.14416695   83.28459930    0.58999997    2.75000000
   14.14750004   79.47640228    0.58999997    2.75000000
   14.14777756   84.46720123    0.58999997    2.75000000
   14.15111065   82.39140320    0.58999997    2.75000000
   14.15416622   83.40670013    0.58999997    2.75000000
   14.15749931   81.79509735    0.56999999    2.75000000
   14.16083336   83.13529968    0.56999999    2.75000000
   14.16388893   89.19840240    0.55000001    2.75000000
   14.16722298   81.11889648    0.56999999    2.75000000
   14.17055607   82.17790222    0.56999999    2.75000000
   14.17638874   82.17790222    0.56999999    2.75000000
   14.18055630   85.78109741    0.56999999    2.75000000
   14.18111134   88.28739929    0.56999999    2.75000000
   14.18444443   80.49160004    0.56999999    2.75000000
   14.18777752   83.81069946    0.56999999    2.75000000
   14.19083309   86.86799622    0.58999997    2.75000000
   14.19416714   77.06690216    0.58999997    2.75000000
   14.19750023   84.19969940    0.61000001    2.75000000
   14.20055580   80.04519653    0.61000001    2.75000000
   14.20388889   86.22299957    0.58999997    2.75000000
   14.20694447   86.49939728    0.58999997    2.75000000
   14.21027756   79.92060089    0.61000001    2.75000000
   14.21361065   79.45279694    0.63000000    2.75000000
   14.21444416   82.02110291    0.63000000    2.75000000
   14.21916580   82.02110291    0.64999998    2.75000000
   14.22333336   77.57659912    0.64999998    2.75000000
   14.22666645   79.45439911    0.64999998    2.75000000
   14.22972202   79.49859619    0.64999998    2.75000000
   14.23305511   78.81999969    0.67000002    2.75000000
   14.23638916   81.61250305    0.67000002    2.75000000
   14.23972225   76.67910004    0.67000002    2.75000000
   14.24277782   80.66310120    0.64999998    2.75000000
   14.24611092   76.03980255    0.67000002    2.75000000
   14.24777794   81.14669800    0.64999998    2.75000000
   14.24972248   81.25029755    0.64999998    2.75000000
   14.25277805   81.79799652    0.64999998    2.75000000
   14.25611115   82.77480316    0.64999998    2.75000000
   14.26222229   82.77480316    0.63000000    2.75000000
   14.26611137   83.00610352    0.63000000    2.75000000
   14.26944447   83.03769684    0.63000000    2.75000000
   14.27277756   83.59519958    0.63000000    2.75000000
   14.27583313   82.32379913    0.63000000    2.75000000
   14.27916622   75.79470062    0.61000001    2.75000000
   14.28111076   79.46640015    0.63000000    2.75000000
   14.28277779   79.68019867    0.61000001    2.75000000
   14.28583336   81.10369873    0.61000001    2.75000000
   14.28916740   81.56539917    0.61000001    2.75000000
   14.29222298   83.83969879    0.63000000    2.75000000
   14.29555607   80.49500275    0.63000000    2.75000000
   14.29888916   83.41510010    0.63000000    2.75000000
   14.30500031   83.41510010    0.63000000    2.75000000
   14.30916691   81.96469879    0.63000000    2.75000000
   14.31222248   81.89369965    0.63000000    2.75000000
   14.31444454   82.62909698    0.63000000    2.75000000
   14.31611156   87.44940186    0.63000000    2.75000000
   14.31916618   78.65190125    0.63000000    2.75000000
   14.32250023   81.60440063    0.63000000    2.75000000
   14.32583332   82.36460114    0.63000000    2.75000000
   14.32888889   79.98950195    0.63000000    2.75000000
   14.33222198   82.10870361    0.63000000    2.75000000
   14.33527756   82.34839630    0.63000000    2.76999998
   14.33861065   81.36560059    0.63000000    2.75000000
   14.34194374   84.58689880    0.63000000    2.75000000
   14.34777737   84.58689880    0.64999998    2.76999998
   14.35194492   79.03289795    0.64999998    2.75000000
   14.35527802   83.83950043    0.64999998    2.75000000
   14.35833359   95.82440186    0.64999998    2.76999998
   14.36166668   79.99230194    0.64999998    2.75000000
   14.36472225   79.64099884    0.64999998    2.75000000
   14.36805534   78.90000153    0.64999998    2.75000000
   14.37138939   85.26979828    0.64999998    2.75000000
   14.37444496   88.83149719    0.64999998    2.75000000
   14.37777805   78.74949646    0.64999998    2.76999998
   14.38111115   83.72010040    0.64999998    2.75000000
   14.38277817   79.19339752    0.64999998    2.75000000
   14.38472176   79.73670197    0.64999998    2.75000000
   14.39055538   79.73670197    0.67000002    2.75000000
   14.39472198   78.21279907    0.67000002    2.75000000
   14.39805508   78.24929810    0.67000002    2.76999998
   14.40111065   80.22579956    0.67000002    2.75000000
   14.40444374   78.31729889    0.67000002    2.75000000
   14.40777779   89.61360168    0.64999998    2.75000000
   14.41083336   82.47570038    0.64999998    2.75000000
   14.41416645   74.00559998    0.64999998    2.75000000
   14.41611099   76.93589783    0.64999998    2.75000000
   14.41777802   78.51219940    0.64999998    2.75000000
   14.42111111   81.69709778    0.63000000    2.76999998
   14.42416668   78.67810059    0.64999998    2.75000000
   14.42750072   81.92330170    0.63000000    2.76999998
   14.43361092   81.92330170    0.64999998    2.75000000
   14.43750000   78.24240112    0.64999998    2.75000000
   14.44083309   74.89810181    0.64999998    2.75000000
   14.44416714   89.27159882    0.67000002    2.75000000
   14.44722271   82.08709717    0.67000002    2.76999998
   14.44972229   84.04119873    0.64999998    2.75000000
   14.45111084   79.69920349    0.64999998    2.75000000
   14.45416641   77.33380127    0.64999998    2.76999998
   14.45749950   76.48989868    0.64999998    2.76999998
   14.46083355   81.06500244    0.63000000    2.75000000
   14.46388912   79.38379669    0.63000000    2.76999998
   14.46722221   85.32180023    0.63000000    2.75000000
   14.47027779   82.57050323    0.61000001    2.75000000
   14.47638798   82.57050323    0.58999997    2.76999998
   14.48055553   78.57330322    0.58999997    2.76999998
   14.48305511   81.72660065    0.61000001    2.76999998
   14.48416710   79.61609650    0.61000001    2.76999998
   14.48722267   81.61250305    0.61000001    2.76999998
   14.49055576   78.23660278    0.58999997    2.76999998
   14.49388885   81.64959717    0.58999997    2.76999998
   14.49694443   75.69809723    0.56999999    2.76999998
   14.50027752   84.28500366    0.56999999    2.76999998
   14.50333309   84.98370361    0.56999999    2.76999998
   14.50666714   79.76170349    0.56999999    2.76999998
   14.51000023   85.86239624    0.58999997    2.76999998
   14.51305580   81.61100006    0.58999997    2.76999998
   14.51916599   81.61100006    0.56999999    2.76999998
   14.52333355   84.17050171    0.56999999    2.76999998
   14.52666664   84.26519775    0.58999997    2.76999998
   14.52972221   83.24520111    0.61000001    2.76999998
   14.53305531   80.73829651    0.61000001    2.76999998
   14.53611183   80.57720184    0.61000001    2.76999998
   14.53944492   78.64969635    0.61000001    2.76999998
   14.54277802   83.01899719    0.63000000    2.76999998
   14.54583359   75.90720367    0.61000001    2.76999998
   14.54916668   80.38200378    0.63000000    2.76999998
   14.55000019   83.76840210    0.63000000    2.76999998
   14.55277824   79.87439728    0.63000000    2.75000000
   14.55611134   83.58010101    0.64999998    2.76999998
   14.56194496   83.58010101    0.64999998    2.76999998
   14.56611156   80.60959625    0.64999998    2.76999998
   14.56944466   81.23269653    0.64999998    2.76999998
   14.57250023   80.62210083    0.64999998    2.76999998
   14.57583332   84.88179779    0.63000000    2.76999998
   14.57916641   78.42340088    0.64999998    2.76999998
   14.58222198   81.45690155    0.64999998    2.76999998
   14.58333302   81.98400116    0.64999998    2.76999998
   14.58611107   85.83760071    0.64999998    2.76999998
   14.58944416   83.87770081    0.64999998    2.76999998
   14.59249973   82.75319672    0.63000000    2.76999998
   14.59583282   81.18199921    0.63000000    2.76999998
   14.59888840   86.33750153    0.63000000    2.76999998
   14.60472298   86.33750153    0.61000001    2.76999998
   14.60888958   88.86029816    0.56999999    2.78999996
   14.61222267   93.58730316    0.56999999    2.76999998
   14.61555576   86.29219818    0.55000001    2.76999998
   14.61694431   88.96779633    0.55000001    2.78999996
   14.61916637   81.60420227    0.55000001    2.78999996
   14.62222195   82.70619965    0.55000001    2.78999996
   14.62555599   86.04190063    0.55000001    2.76999998
   14.62888908   88.73130035    0.55000001    2.76999998
   14.63194466   84.18309784    0.56999999    2.76999998
   14.63527775   76.13339996    0.58999997    2.76999998
   14.63833332   82.84999847    0.61000001    2.76999998
   14.64166641   77.42120361    0.61000001    2.76999998
   14.64777756   77.42120361    0.61000001    2.76999998
   14.66611099   80.00679779    0.63000000    2.76999998
   14.66944504   79.50659943    0.63000000    2.76999998
   14.67250061   77.80560303    0.61000001    2.76999998
   14.67583370   82.95130157    0.58999997    2.76999998
   14.67916679   83.13459778    0.58999997    2.78999996
   14.68222237   86.07759857    0.56999999    2.78999996
   14.68555546   78.59629822    0.55000001    2.78999996
   14.69083309   78.59629822    0.56999999    2.78999996
   14.69499969   85.26969910    0.52999997    2.78999996
   14.69833374   81.45780182    0.51999998    2.78999996
   14.69916630   79.62359619    0.51999998    2.78999996
   14.70194435   77.37149811    0.52999997    2.78999996
   14.70499992   89.54969788    0.50000000    2.76999998
   14.70833302   86.81990051    0.50000000    2.78999996
   14.71166611   86.19529724    0.50000000    2.78999996
   14.71472168   78.37850189    0.50000000    2.78999996
   14.71805477   78.29550171    0.50000000    2.78999996
   14.72111034   83.19059753    0.50000000    2.78999996
   14.72444439   81.92209625    0.51999998    2.78999996
   14.72777748   80.95839691    0.51999998    2.78999996
   14.73361111   80.95839691    0.52999997    2.78999996
   14.73777771   81.75980377    0.51999998    2.78999996
   14.74111176   77.60729980    0.51999998    2.78999996
   14.74416733   82.06860352    0.52999997    2.78999996
   14.74750042   81.33090210    0.56999999    2.78999996
   14.75083351   83.42089844    0.55000001    2.78999996
   14.75388908   82.06179810    0.56999999    2.78999996
   14.75722218   81.33550262    0.56999999    2.78999996
   14.76027775   85.30490112    0.58999997    2.78999996
   14.76361084   83.01529694    0.58999997    2.78999996
   14.76583290   82.44860077    0.58999997    2.78999996
   14.76722240   82.46589661    0.58999997    2.78999996
   14.77027798   80.14469910    0.61000001    2.78999996
   14.77638817   80.14469910    0.63000000    2.76999998
   14.78055573   78.87570190    0.63000000    2.76999998
   14.78388977   81.45159912    0.61000001    2.78999996
   14.78722286   82.92469788    0.61000001    2.78999996
   14.79027843   79.65950012    0.63000000    2.78999996
   14.79361153   86.25080109    0.63000000    2.78999996
   14.79694462   83.22250366    0.61000001    2.78999996
   14.79916668   86.79170227    0.61000001    2.78999996
   14.80055618   78.92099762    0.61000001    2.78999996
   14.80361176   85.30789948    0.58999997    2.78999996
   14.80694485   80.48020172    0.58999997    2.78999996
   14.81000042   80.62989807    0.58999997    2.78999996
   14.81333351   82.11329651    0.58999997    2.78999996
   14.81944466   82.11329651    0.56999999    2.78999996
   14.82361126   90.40319824    0.56999999    2.78999996
   14.82666683   82.86710358    0.56999999    2.78999996
   14.82999992   83.53859711    0.56999999    2.78999996
   14.83249950   83.80460358    0.56999999    2.78999996
   14.83361053   84.90879822    0.56999999    2.78999996
   14.83666611   78.62989807    0.56999999    2.78999996
   14.84000015   80.78669739    0.56999999    2.78999996
   14.84333324   81.49909973    0.56999999    2.78999996
   14.84638882   86.43090057    0.56999999    2.78999996
   14.84972191   89.70110321    0.56999999    2.78999996
   14.85277843   87.59639740    0.58999997    2.78999996
   14.85611153   86.85739899    0.58999997    2.78999996
   14.86222267   86.85739899    0.56999999    2.78999996
   14.86638927   85.95040131    0.55000001    2.78999996
   14.86944485   80.44899750    0.52999997    2.78999996
   14.87277794   86.64679718    0.55000001    2.78999996
   14.87611103   76.64340210    0.55000001    2.78999996
   14.87916660   79.91660309    0.52999997    2.78999996
   14.88249969   79.50330353    0.52999997    2.78999996
   14.88583279   79.10099792    0.55000001    2.78999996
   14.88888836   76.88760376    0.55000001    2.78999996
   14.89222240   84.19470215    0.55000001    2.78999996
   14.89527798   86.39520264    0.55000001    2.78999996
   14.89861107   83.95469666    0.55000001    2.78999996
   14.89916611   87.13420105    0.55000001    2.78999996
   14.90499973   87.13420105    0.52999997    2.78999996
   14.90916634   82.56310272    0.55000001    2.78999996
   14.91249943   85.79550171    0.55000001    2.78999996
   14.91555500   80.34760284    0.55000001    2.78999996
   14.91888905   78.44319916    0.55000001    2.78999996
   14.92222214   83.92489624    0.56999999    2.78999996
   14.92527771   88.57360077    0.55000001    2.78999996
   14.92861176   77.71980286    0.56999999    2.78999996
   14.93194485   79.05580139    0.56999999    2.78999996
   14.93249989   79.91040039    0.58999997    2.78999996
   14.93555546   82.90609741    0.56999999    2.78999996
   14.93861103   86.76470184    0.55000001    2.78999996
   14.94194412   81.78019714    0.55000001    2.78999996
   14.94777775   81.78019714    0.52999997    2.80999994
   14.95194435   82.43979645    0.52999997    2.80999994
   14.95527744   79.53869629    0.51999998    2.80999994
   14.95833302   77.32029724    0.51999998    2.78999996
   14.96166611   74.63240051    0.51999998    2.78999996
   14.96500015   82.67559814    0.51999998    2.80999994
   14.96583271   76.26319885    0.51999998    2.80999994
   14.96861076   75.12270355    0.50000000    2.80999994
   14.97166634   74.48149872    0.50000000    2.80999994
   14.97499943   74.04199982    0.50000000    2.78999996
   14.97833252   75.29170227    0.50000000    2.80999994
   14.98138809   78.69999695    0.47999999    2.80999994
   14.98472214   77.05740356    0.50000000    2.82999992
   14.99083328   77.05740356    0.50000000    2.80999994
   14.99472237   75.95919800    0.50000000    2.78999996
   14.99805546   75.15889740    0.50000000    2.80999994
   14.99916649   80.63379669    0.50000000    2.80999994
   15.00166702   76.46730042    0.50000000    2.80999994
   15.00472260   79.58550262    0.50000000    2.80999994
   15.00805569   80.83879852    0.50000000    2.80999994
   15.01138878   85.21520233    0.50000000    2.78999996
   15.01444435   88.04550171    0.50000000    2.80999994
   15.01777744   83.11470032    0.51999998    2.80999994
   15.02111053   75.88439941    0.51999998    2.80999994
   15.02416611   79.88179779    0.51999998    2.80999994
   15.02750015   76.46499634    0.51999998    2.80999994
   15.03361130   76.46499634    0.51999998    2.80999994
   15.03777790   84.18800354    0.51999998    2.80999994
   15.04111195   83.64610291    0.52999997    2.80999994
   15.04416752   82.78990173    0.51999998    2.80999994
   15.04750061   83.80979919    0.52999997    2.80999994
   15.05055618   81.85009766    0.52999997    2.80999994
   15.05388927   82.29620361    0.51999998    2.80999994
   15.05722237   79.20670319    0.51999998    2.80999994
   15.06027794   80.01820374    0.51999998    2.80999994
   15.06361103   85.19840240    0.51999998    2.80999994
   15.06583309   84.77510071    0.51999998    2.80999994
   15.06722260   92.01570129    0.51999998    2.80999994
   15.07027817   84.62390137    0.55000001    2.80999994
   15.07638836   84.62390137    0.56999999    2.78999996
   15.08055592   88.18879700    0.56999999    2.80999994
   15.08388901   86.77410126    0.58999997    2.78999996
   15.08694458   88.41899872    0.61000001    2.80999994
   15.09027767   79.81690216    0.58999997    2.80999994
   15.09361076   78.24839783    0.58999997    2.80999994
   15.09666634   82.33889771    0.61000001    2.80999994
   15.09916592   84.29949951    0.61000001    2.80999994
   15.10055637   80.99369812    0.63000000    2.78999996
   15.10361195   84.45749664    0.63000000    2.78999996
   15.10694504   82.47779846    0.63000000    2.80999994
   15.11027813   85.40419769    0.64999998    2.80999994
   15.11333370   78.79190063    0.64999998    2.80999994
   15.11916637   78.79190063    0.64999998    2.80999994
   15.12333393   76.02539825    0.64999998    2.80999994
   15.12666702   79.15119934    0.69000000    2.80999994
   15.12972260   77.04440308    0.67000002    2.80999994
   15.13249969   79.44599915    0.69000000    2.78999996
   15.13361073   88.26090240    0.69000000    2.78999996
   15.13666630   78.46559906    0.69000000    2.80999994
   15.14000034   83.27200317    0.70999998    2.78999996
   15.14333344   79.37010193    0.70999998    2.80999994
   15.14638901   81.06590271    0.73000002    2.78999996
   15.14972210   81.52429962    0.73000002    2.80999994
   15.15277767   73.27989960    0.69000000    2.80999994
   15.15611076   75.12670135    0.69000000    2.80999994
   15.16222191   75.12670135    0.67000002    2.80999994
   15.16638851   76.08869934    0.63000000    2.80999994
   15.16944504   77.74210358    0.63000000    2.80999994
   15.17277813   78.94580078    0.61000001    2.80999994
   15.17611122   87.80370331    0.58999997    2.82999992
   15.17916679   82.96140289    0.58999997    2.80999994
   15.18249989   80.68620300    0.58999997    2.80999994
   15.18583298   79.65049744    0.56999999    2.80999994
   15.18916702   83.69309998    0.56999999    2.80999994
   15.19222260   75.38780212    0.55000001    2.82999992
   15.19555569   76.35559845    0.55000001    2.82999992
   15.19861126   81.23680115    0.55000001    2.80999994
   15.19916630   75.18689728    0.55000001    2.80999994
   15.20499992   75.18689728    0.55000001    2.80999994
   15.20916653   81.89320374    0.56999999    2.80999994
   15.21222210   79.74680328    0.52999997    2.82999992
   15.21555519   80.12480164    0.52999997    2.80999994
   15.21888828   77.68650055    0.51999998    2.80999994
   15.22194386   76.37039948    0.52999997    2.80999994
   15.22527695   80.02380371    0.52999997    2.80999994
   15.22833252   72.07209778    0.51999998    2.80999994
   15.23166656   83.29859924    0.50000000    2.82999992
   15.23249912   75.11589813    0.50000000    2.82999992
   15.23527813   85.17420197    0.50000000    2.82999992
   15.23861122   73.48470306    0.51999998    2.80999994
   15.24166679   75.25370026    0.51999998    2.82999992
   15.24777794   75.25370026    0.51999998    2.80999994
   15.25194454   81.18990326    0.52999997    2.82999992
   15.34749985   -1.00000000   -1.00000000   -1.00000000
   15.47083282   -1.00000000   -1.00000000   -1.00000000
   15.60388947   -1.00000000   -1.00000000   -1.00000000
   15.77027798   69.18789673    0.56999999    2.84999990
   15.77333355   81.95970154    0.58999997    2.84999990
   15.77666664   81.30999756    0.61000001    2.84999990
   15.77999973   83.25109863    0.61000001    2.84999990
   15.78305531   81.53610229    0.61000001    2.82999992
   15.78638935   79.69529724    0.63000000    2.82999992
   15.79055595   79.69529724    0.64999998    2.82999992
   15.79472256   77.29669952    0.63000000    2.84999990
   15.79777813   78.71530151    0.63000000    2.84999990
   15.80111122   81.33020020    0.63000000    2.82999992
   15.80361176   73.89869690    0.64999998    2.84999990
   15.80472279   75.91660309    0.64999998    2.84999990
   15.80805588   75.69390106    0.63000000    2.84999990
   15.81138897   78.32749939    0.64999998    2.82999992
   15.81444454   79.53520203    0.64999998    2.82999992
   15.81777763   78.14980316    0.64999998    2.84999990
   15.82111073   76.77349854    0.67000002    2.84999990
   15.82416630   75.04740143    0.64999998    2.84999990
   15.82750034   75.73090363    0.64999998    2.84999990
   15.83333302   75.73090363    0.63000000    2.84999990
   15.83749962   81.54109955    0.63000000    2.84999990
   15.84083271   74.73650360    0.63000000    2.84999990
   15.84388828   77.88269806    0.63000000    2.84999990
   15.84722233   76.25050354    0.63000000    2.82999992
   15.85027790   76.83129883    0.61000001    2.84999990
   15.85361195   79.79959869    0.61000001    2.84999990
   15.85694504   76.54810333    0.61000001    2.84999990
   15.86000061   79.19190216    0.61000001    2.84999990
   15.86333370   76.72560120    0.58999997    2.82999992
   15.86666679   82.43910217    0.56999999    2.82999992
   15.86972237   78.61489868    0.56999999    2.84999990
   15.87027836   77.89610291    0.56999999    2.84999990
   15.87611103   77.89610291    0.55000001    2.84999990
   15.88027763   82.64530182    0.55000001    2.84999990
   15.88361073   78.45429993    0.52999997    2.82999992
   15.88694477   78.13990021    0.56999999    2.84999990
   15.89000034   78.02410126    0.56999999    2.84999990
   15.89333344   75.40399933    0.56999999    2.82999992
   15.89638901   80.01730347    0.56999999    2.84999990
   15.89972210   78.03289795    0.56999999    2.82999992
   15.90305519   78.88860321    0.56999999    2.84999990
   15.90361118   78.06610107    0.56999999    2.84999990
   15.90666676   76.73400116    0.58999997    2.82999992
   15.90972137   77.82150269    0.58999997    2.84999990
   15.91305542   78.59439850    0.58999997    2.84999990
   15.91916656   78.59439850    0.51999998    2.84999990
   15.92305565   71.70359802    0.51999998    2.84999990
   15.92638874   75.84230042    0.51999998    2.84999990
   15.92972279   78.98819733    0.50000000    2.84999990
   15.93277836   81.22380066    0.50000000    2.84999990
   15.93611145   78.15899658    0.47999999    2.84999990
   15.93694496   79.61239624    0.47999999    2.84999990
   15.93972206   78.99829865    0.50000000    2.84999990
   15.94277763   76.11519623    0.51999998    2.84999990
   15.94611073   75.88580322    0.52999997    2.82999992
   15.94944477   81.15419769    0.52999997    2.82999992
   15.95249939   74.90440369    0.51999998    2.84999990
   15.95583344   75.26229858    0.51999998    2.84999990
   15.96194458   75.26229858    0.51999998    2.82999992
   15.96611118   78.85600281    0.51999998    2.84999990
   15.96916580   77.90699768    0.50000000    2.82999992
   15.97027779   76.80670166    0.50000000    2.82999992
   15.97305489   76.35299683    0.50000000    2.84999990
   15.97611046   79.19219971    0.50000000    2.84999990
   15.97944355   74.93730164    0.51999998    2.84999990
   15.98277760   75.25199890    0.51999998    2.82999992
   15.98583317   76.42140198    0.50000000    2.84999990
   15.98916721   75.42600250    0.50000000    2.84999990
   15.99250031   75.23169708    0.50000000    2.82999992
   15.99555588   81.27459717    0.50000000    2.84999990
   15.99888897   75.75340271    0.50000000    2.84999990
   16.00472260   75.75340271    0.50000000    2.82999992
   16.00888824   75.40000153    0.47999999    2.84999990
   16.01222229   82.20439911    0.47999999    2.82999992
   16.01527786   77.32759857    0.47999999    2.84999990
   16.01861000   77.71150208    0.47999999    2.84999990
   16.02194405   79.42819977    0.47999999    2.84999990
   16.02499962   76.46980286    0.50000000    2.84999990
   16.02833366   77.51889801    0.47999999    2.84999990
   16.03138924   78.25849915    0.47999999    2.84999990
   16.03472137   77.91490173    0.47999999    2.84999990
   16.03694344   73.12519836    0.47999999    2.84999990
   16.03833199   75.27390289    0.47999999    2.84999990
   16.04166603   75.01480103    0.47999999    2.82999992
   16.04749870   75.01480103    0.47999999    2.84999990
   16.05166626   78.61239624    0.47999999    2.84999990
   16.05499840   76.91490173    0.47999999    2.82999992
   16.05805397   78.37670135    0.47999999    2.82999992
   16.06138802   76.47709656    0.47999999    2.84999990
   16.06472206   74.94400024    0.50000000    2.84999990
   16.06777954   79.86370087    0.47999999    2.84999990
   16.07027817   72.35330200    0.47999999    2.84999990
   16.07166672   75.72280121    0.47999999    2.84999990
   16.07472229   75.34369659    0.47999999    2.84999990
   16.07805634   79.37799835    0.47999999    2.84999990
   16.08139038   74.00550079    0.50000000    2.84999990
   16.08444595   81.97530365    0.50000000    2.84999990
   16.09055710   81.97530365    0.51999998    2.84999990
   16.09444427   82.85169983    0.52999997    2.82999992
   16.09777832   73.76789856    0.55000001    2.82999992
   16.10111237   80.75170135    0.56999999    2.82999992
   16.10361099   73.31659698    0.56999999    2.82999992
   16.10472298   73.12680054    0.56999999    2.82999992
   16.10777855   73.71109772    0.56999999    2.84999990
   16.11111069   73.00019836    0.52999997    2.84999990
   16.11444473   74.48619843    0.51999998    2.82999992
   16.11750031   74.51000214    0.52999997    2.84999990
   16.12083435   79.20770264    0.52999997    2.84999990
   16.12416649   79.68759918    0.51999998    2.84999990
   16.12722206   76.19619751    0.51999998    2.84999990
   16.13333321   76.19619751    0.51999998    2.84999990
   16.13750076   78.98190308    0.51999998    2.84999990
   16.14055634   78.07849884    0.51999998    2.84999990
   16.14388847   76.10700226    0.51999998    2.84999990
   16.14722252   74.63089752    0.51999998    2.84999990
   16.15027809   78.84130096    0.50000000    2.84999990
   16.15361023   75.19570160    0.50000000    2.84999990
   16.15666580   75.32530212    0.47999999    2.84999990
   16.15999985   73.23459625    0.47999999    2.84999990
   16.16333389   76.06600189    0.47999999    2.84999990
   16.16638756   76.46820068    0.47999999    2.84999990
   16.16972160   74.16860199    0.46000001    2.84999990
   16.17027664   76.93759918    0.46000001    2.84999990
   16.17611122   76.93759918    0.46000001    2.84999990
   16.18027687   76.51660156    0.46000001    2.84999990
   16.18361092   75.60250092    0.46000001    2.84999990
   16.18666649   78.72029877    0.46000001    2.84999990
   16.18999863   77.08730316    0.46000001    2.84999990
   16.19333267   75.86710358    0.46000001    2.84999990
   16.19638824   80.20890045    0.47999999    2.84999990
   16.19972038   76.06520081    0.47999999    2.84999990
   16.20277786   78.50689697    0.47999999    2.84999990
   16.20361137   77.80529785    0.47999999    2.84999990
   16.20666695   75.07279968    0.47999999    2.84999990
   16.21000099   76.30539703    0.47999999    2.84999990
   16.21305656   75.58390045    0.47999999    2.84999990
   16.21888924   75.58390045    0.47999999    2.84999990
   16.22305679   73.83630371    0.47999999    2.84999990
   16.22638893   73.92070007    0.50000000    2.84999990
   16.22944450   77.32270050    0.50000000    2.84999990
   16.23277855   75.69989777    0.50000000    2.82999992
   16.23611069   76.13590240    0.50000000    2.84999990
   16.23694420   77.47139740    0.50000000    2.84999990
   16.23972321   77.85089874    0.50000000    2.84999990
   16.24305534   72.02760315    0.51999998    2.84999990
   16.24611092   74.77069855    0.52999997    2.84999990
   16.24944496   75.81819916    0.52999997    2.84999990
   16.25250053   75.36460114    0.55000001    2.84999990
   16.25583267   75.00270081    0.52999997    2.84999990
   16.26194382   75.00270081    0.51999998    2.84999990
   16.26583290   73.99710083    0.51999998    2.84999990
   16.26916695   76.85469818    0.51999998    2.84999990
   16.27027702   78.31050110    0.51999998    2.84999990
   16.27277756   73.74440002    0.51999998    2.84999990
   16.27611160   78.63110352    0.52999997    2.84999990
   16.27916718   72.59580231    0.52999997    2.84999990
   16.28249931   76.02700043    0.52999997    2.84999990
   16.28583336   73.04180145    0.52999997    2.84999990
   16.28888893   73.91600037    0.55000001    2.84999990
   16.29222107   73.19100189    0.52999997    2.84999990
   16.29527664   79.28869629    0.52999997    2.84999990
   16.29861069   72.72630310    0.51999998    2.84999990
   16.30472183   72.72630310    0.50000000    2.84999990
   16.30888748   76.85030365    0.47999999    2.84999990
   16.31194305   74.69270325    0.47999999    2.84999990
   16.31527710   73.56510162    0.50000000    2.84999990
   16.31861115   73.24369812    0.47999999    2.84999990
   16.32166672   72.77980042    0.47999999    2.84999990
   16.32500076   74.63289642    0.47999999    2.84999990
   16.32805634   75.67520142    0.47999999    2.84999990
   16.33139038   75.67060089    0.46000001    2.82999992
   16.33472252   76.31950378    0.46000001    2.84999990
   16.33694458   75.25499725    0.46000001    2.84999990
   16.33833313   77.75340271    0.46000001    2.84999990
   16.34166718   78.22660065    0.46000001    2.84999990
   16.34749985   78.22660065    0.44000000    2.84999990
   16.35166740   74.14749908    0.44000000    2.84999990
   16.35499954   75.83799744    0.44000000    2.84999990
   16.35805511   81.24819946    0.44000000    2.84999990
   16.36138916   76.03710175    0.41999999    2.84999990
   16.36444473   81.92559814    0.44000000    2.84999990
   16.36777878   80.94149780    0.44000000    2.84999990
   16.37027740   76.05870056    0.41999999    2.84999990
   16.37138939   76.38919830    0.41999999    2.84999990
   16.37472153   78.54730225    0.41999999    2.84999990
   16.37777710   79.01119995    0.44000000    2.84999990
   16.38111115   80.06770325    0.44000000    2.84999990
   16.38416672   75.96959686    0.46000001    2.84999990
   16.39027786   75.96959686    0.46000001    2.84999990
   16.39444351   80.33840179    0.46000001    2.84999990
   16.39777756   80.13349915    0.46000001    2.84999990
   16.40083313   78.36430359    0.47999999    2.84999990
   16.40388870   79.78379822    0.47999999    2.84999990
   16.40499878   80.17400360    0.47999999    2.84999990
   16.40805435   78.33589935    0.47999999    2.84999990
   16.41138840   82.10209656    0.50000000    2.84999990
   16.41444397   78.13890076    0.47999999    2.84999990
   16.41777802   75.55460358    0.47999999    2.84999990
   16.42111015   77.93070221    0.47999999    2.84999990
   16.42416573   74.82969666    0.47999999    2.84999990
   16.42749977   76.90779877    0.50000000    2.84999990
   16.43333244   76.90779877    0.47999999    2.84999990
   16.43722153   74.81770325    0.47999999    2.84999990
   16.44055557   76.72329712    0.50000000    2.84999990
   16.44388771   75.54429626    0.50000000    2.84999990
   16.44694328   76.23290253    0.50000000    2.84999990
   16.45027924   80.30719757    0.50000000    2.84999990
   16.45361137   75.76110077    0.50000000    2.84999990
   16.45666695   78.35710144    0.50000000    2.84999990
   16.46000099   74.14440155    0.50000000    2.84999990
   16.46333504   76.85160065    0.50000000    2.84999990
   16.46638870   73.13690186    0.50000000    2.84999990
   16.46972275   75.50820160    0.50000000    2.84999990
   16.47027779   77.60260010    0.51999998    2.84999990
   16.47611237   77.60260010    0.50000000    2.84999990
   16.48027802   82.46119690    0.50000000    2.84999990
   16.48333359   75.39920044    0.50000000    2.84999990
   16.48666763   79.88649750    0.47999999    2.84999990
   16.48999977   75.63339996    0.47999999    2.84999990
   16.49305534   74.41539764    0.47999999    2.84999990
   16.49638939   79.26830292    0.47999999    2.84999990
   16.49944496   76.60839844    0.47999999    2.84999990
   16.50277710   75.77449799    0.47999999    2.84999990
   16.50361061   74.42340088    0.47999999    2.84999990
   16.50638962   73.52660370    0.47999999    2.84999990
   16.50972176   75.94280243    0.47999999    2.86999989
   16.51277733   73.05660248    0.47999999    2.86999989
   16.51888847   73.05660248    0.46000001    2.84999990
   16.52305603   76.76300049    0.46000001    2.84999990
   16.52638817   79.94670105    0.46000001    2.84999990
   16.52944374   76.54949951    0.46000001    2.84999990
   16.53277779   76.69950104    0.46000001    2.84999990
   16.53583336   75.90959930    0.46000001    2.84999990
   16.53722191   76.32150269    0.46000001    2.84999990
   16.53972244   76.33319855    0.46000001    2.84999990
   16.54277802   74.82029724    0.47999999    2.84999990
   16.54611015   75.46829987    0.50000000    2.84999990
   16.54944420   77.56210327    0.47999999    2.86999989
   16.55249977   76.87570190    0.50000000    2.86999989
   16.55583191   74.11609650    0.51999998    2.84999990
   16.56166649   74.11609650    0.50000000    2.84999990
   16.56583214   74.85160065    0.51999998    2.84999990
   16.56916809   73.69670105    0.51999998    2.84999990
   16.57055664   73.76280212    0.51999998    2.84999990
   16.57277870   72.52700043    0.51999998    2.84999990
   16.57611275   74.57969666    0.51999998    2.84999990
   16.57916832   73.75019836    0.50000000    2.84999990
   16.58250046   74.52110291    0.50000000    2.84999990
   16.58583450   76.96050262    0.51999998    2.84999990
   16.58889008   72.47859955    0.51999998    2.86999989
   16.59222221   73.16850281    0.51999998    2.80999994
   16.59555626   72.81739807    0.51999998    2.84999990
   16.59861183   77.26300049    0.51999998    2.84999990
   16.60472298   77.26300049    0.50000000    2.84999990
   16.60861206   85.49230194    0.50000000    2.86999989
   16.61194420   72.63420105    0.50000000    2.86999989
   16.61527824   73.80259705    0.50000000    2.84999990
   16.61833382   74.45050049    0.50000000    2.84999990
   16.62166595   75.43460083    0.50000000    2.84999990
   16.62500000   74.28900146    0.47999999    2.84999990
   16.62805557   75.85389709    0.47999999    2.82999992
   16.63138962   75.09059906    0.47999999    2.84999990
   16.63444519   74.50309753    0.47999999    2.84999990
   16.63694382   74.05190277    0.47999999    2.84999990
   16.63805580   73.40760040    0.47999999    2.84999990
   16.64138794   73.42690277    0.47999999    2.84999990
   16.64749908   73.42690277    0.47999999    2.82999992
   16.65166664   75.55940247    0.47999999    2.84999990
   16.65472221   75.72979736    0.50000000    2.84999990
   16.65805435   73.83450317    0.50000000    2.84999990
   16.66138840   75.96040344    0.50000000    2.84999990
   16.66444397   74.36990356    0.50000000    2.84999990
   16.66777802   77.63379669    0.50000000    2.82999992
   16.67055511   73.84049988    0.47999999    2.84999990
   16.67138863   76.56069946    0.47999999    2.84999990
   16.67472076   78.90129852    0.50000000    2.84999990
   16.67777634   74.51529694    0.47999999    2.84999990
   16.68111038   78.65899658    0.47999999    2.84999990
   16.68444443   78.49179840    0.47999999    2.84999990
   16.69027710   78.49179840    0.47999999    2.84999990
   16.69444275   75.74829865    0.46000001    2.84999990
   16.69749832   72.61380005    0.46000001    2.84999990
   16.70083427   76.23860168    0.46000001    2.84999990
   16.70388985   73.87619781    0.46000001    2.86999989
   16.70444489   78.65390015    0.46000001    2.86999989
   16.70777893   73.32659912    0.47999999    2.84999990
   16.71111107   75.94270325    0.47999999    2.84999990
   16.71416664   76.44090271    0.47999999    2.84999990
   16.71750069   74.76709747    0.47999999    2.84999990
   16.72055626   79.58139801    0.50000000    2.84999990
   16.72389030   77.35980225    0.50000000    2.84999990
   16.72722244   74.79029846    0.50000000    2.84999990
   16.73305511   74.79029846    0.51999998    2.84999990
   16.73722267   73.12619781    0.51999998    2.84999990
   16.74055672   72.83699799    0.51999998    2.84999990
   16.74361229   74.90180206    0.51999998    2.84999990
   16.74694443   79.65540314    0.51999998    2.84999990
   16.75027847   78.18750000    0.51999998    2.84999990
   16.75333405   76.21700287    0.51999998    2.84999990
   16.75666618   75.74040222    0.51999998    2.84999990
   16.76000023   72.36949921    0.51999998    2.84999990
   16.76305580   82.66819763    0.51999998    2.84999990
   16.76638794   75.40959930    0.52999997    2.82999992
   16.76944351   77.85700226    0.51999998    2.84999990
   16.77055550   78.52130127    0.51999998    2.84999990
   16.79111099   78.52130127    0.50000000    2.84999990
   16.79527664   73.37480164    0.50000000    2.86999989
   16.79861069   76.82420349    0.50000000    2.86999989
   16.80166626   77.90080261    0.51999998    2.86999989
   16.80388832   74.65799713    0.51999998    2.84999990
   16.80527687   75.79479980    0.51999998    2.84999990
   16.80861092   74.27269745    0.51999998    2.84999990
   16.81194305   71.47570038    0.52999997    2.84999990
   16.81499863   74.73780060    0.51999998    2.84999990
   16.81833458   77.53070068    0.51999998    2.84999990
   16.82139015   74.21040344    0.52999997    2.84999990
   16.82472229   77.97380066    0.51999998    2.84999990
   16.82805634   76.01609802    0.52999997    2.84999990
   16.83388901   76.01609802    0.52999997    2.84999990
   16.83805656   75.73280334    0.52999997    2.84999990
   16.84138870   78.62210083    0.52999997    2.84999990
   16.84444427   75.07469940    0.52999997    2.86999989
   16.84777832   75.59850311    0.52999997    2.84999990
   16.85083389   78.47779846    0.52999997    2.84999990
   16.85416794   74.73739624    0.52999997    2.84999990
   16.85750008   74.25029755    0.52999997    2.84999990
   16.86055565   78.16639709    0.52999997    2.84999990
   16.86388969   76.46379852    0.55000001    2.84999990
   16.86722183   75.58940125    0.55000001    2.84999990
   16.87027740   75.00309753    0.55000001    2.82999992
   16.87083435   75.89830017    0.55000001    2.82999992
   16.87666702   75.89830017    0.55000001    2.84999990
   16.88083267   75.69170380    0.56999999    2.82999992
   16.88416672   73.76689911    0.56999999    2.82999992
   16.88722229   74.77290344    0.56999999    2.84999990
   16.89055634   80.21849823    0.56999999    2.84999990
   16.89388847   75.55960083    0.58999997    2.82999992
   16.89694405   74.71420288    0.56999999    2.84999990
   16.90027809   75.29589844    0.56999999    2.84999990
   16.90361023   74.10279846    0.58999997    2.84999990
   16.90416718   75.83750153    0.58999997    2.84999990
   16.90722275   78.12480164    0.58999997    2.84999990
   16.91027832   75.09619904    0.58999997    2.84999990
   16.91361046   73.39839935    0.56999999    2.84999990
   16.91972160   73.39839935    0.56999999    2.82999992
   16.92361069   74.87709808    0.56999999    2.82999992
   16.92694473   73.65170288    0.56999999    2.84999990
   16.93027687   74.23619843    0.56999999    2.82999992
   16.93333244   73.04100037    0.55000001    2.82999992
   16.93666649   74.79119873    0.55000001    2.84999990
   16.93750000   74.03900146    0.55000001    2.84999990
   16.94027710   76.17810059    0.52999997    2.84999990
   16.94333267   75.58540344    0.55000001    2.84999990
   16.94666672   72.76219940    0.52999997    2.84999990
   16.95000076   73.98760223    0.52999997    2.84999990
   16.95305634   74.53959656    0.52999997    2.82999992
   16.95639038   72.99500275    0.52999997    2.84999990
   16.96250153   72.99500275    0.51999998    2.84999990
   16.96666718   73.79979706    0.51999998    2.84999990
   16.96972275   76.54000092    0.51999998    2.84999990
   16.97083473   77.66860199    0.51999998    2.84999990
   16.97361183   74.95749664    0.51999998    2.82999992
   16.97666740   74.32089996    0.51999998    2.84999990
   16.98000145   75.31479645    0.51999998    2.82999992
   16.98333359   73.80529785    0.51999998    2.86999989
   16.98638916   74.21759796    0.52999997    2.84999990
   16.98972321   74.16120148    0.51999998    2.84999990
   16.99305534   76.53189850    0.51999998    2.86999989
   16.99611092   74.13950348    0.51999998    2.84999990
   16.99944496   73.50849915    0.50000000    2.84999990
   17.00527763   73.50849915    0.50000000    2.82999992
   17.00944519   76.57720184    0.50000000    2.84999990
   17.01277733   72.44860077    0.47999999    2.84999990
   17.01583290   75.89179993    0.47999999    2.84999990
   17.01916695   74.33390045    0.47999999    2.84999990
   17.02222252   78.08719635    0.47999999    2.84999990
   17.02555466   80.10289764    0.47999999    2.84999990
   17.02888870   79.35659790    0.47999999    2.82999992
   17.03194427   76.23139954    0.47999999    2.84999990
   17.03527641   75.20860291    0.47999999    2.84999990
   17.03750038   75.45140076    0.47999999    2.84999990
   17.03888893   72.03340149    0.47999999    2.84999990
   17.04222107   73.55159760    0.47999999    2.84999990
   17.04805565   73.55159760    0.46000001    2.84999990
   17.05222130   72.72470093    0.46000001    2.86999989
   17.05555534   75.05370331    0.46000001    2.84999990
   17.05861092   75.65979767    0.46000001    2.84999990
   17.06194305   76.62729645    0.46000001    2.84999990
   17.06527710   74.64779663    0.46000001    2.84999990
   17.06861115   77.25199890    0.46000001    2.84999990
   17.07083511   75.38249969    0.44000000    2.84999990
   17.07222366   80.29129791    0.44000000    2.84999990
   17.07555580   78.83460236    0.46000001    2.84999990
   17.07861137   73.64589691    0.46000001    2.84999990
   17.08194542   75.01640320    0.46000001    2.84999990
   17.08500099   75.00959778    0.46000001    2.84999990
   17.09111214   75.00959778    0.47999999    2.84999990
   17.09500122   74.33879852    0.46000001    2.84999990
   17.09833336   75.77970123    0.46000001    2.84999990
   17.10166740   73.05370331    0.46000001    2.84999990
   17.10416794   77.49710083    0.46000001    2.84999990
   17.10527802   76.20770264    0.46000001    2.84999990
   17.10861206   73.23400116    0.44000000    2.84999990
   17.11166763   75.20159912    0.44000000    2.84999990
   17.11499977   74.53040314    0.44000000    2.84999990
   17.11805534   72.09120178    0.44000000    2.84999990
   17.12138939   73.11900330    0.44000000    2.86999989
   17.12472153   73.13880157    0.44000000    2.84999990
   17.12805557   73.99189758    0.44000000    2.84999990
   17.13388824   73.99189758    0.46000001    2.84999990
   17.13805580   73.57039642    0.46000001    2.84999990
   17.14111137   76.40820313    0.46000001    2.84999990
   17.14444351   74.00350189    0.46000001    2.84999990
   17.14749908   75.37059784    0.46000001    2.84999990
   17.15083313   74.77330017    0.46000001    2.84999990
   17.15416718   73.67849731    0.46000001    2.84999990
   17.15722275   75.18489838    0.46000001    2.84999990
   17.16055489   74.71279907    0.46000001    2.86999989
   17.16388893   75.26390076    0.46000001    2.84999990
   17.16694450   74.94879913    0.47999999    2.84999990
   17.17027664   76.37889862    0.47999999    2.84999990
   17.17083359   71.60130310    0.47999999    2.84999990
   17.17666626   71.60130310    0.47999999    2.84999990
   17.18083191   73.97969818    0.47999999    2.84999990
   17.18416595   75.66989899    0.47999999    2.84999990
   17.18722153   77.77050018    0.47999999    2.84999990
   17.19055557   75.93630219    0.47999999    2.84999990
   17.19361115   74.14620209    0.50000000    2.84999990
   17.19694328   74.12760162    0.47999999    2.84999990
   17.20027924   75.41459656    0.50000000    2.84999990
   17.20333481   77.09279633    0.50000000    2.84999990
   17.20416832   78.69960022    0.50000000    2.84999990
   17.20694542   76.72239685    0.50000000    2.84999990
   17.21027946   75.91719818    0.50000000    2.86999989
   17.21333504   75.72309875    0.51999998    2.84999990
   17.21944427   75.72309875    0.52999997    2.84999990
   17.22361183   73.85019684    0.51999998    2.84999990
   17.22694588   73.49880219    0.51999998    2.86999989
   17.23000145   72.01069641    0.51999998    2.84999990
   17.23333359   75.12920380    0.51999998    2.84999990
   17.23666763   76.49819946    0.52999997    2.84999990
   17.23750114   77.77439880    0.52999997    2.84999990
   17.24027824   75.00409698    0.51999998    2.84999990
   17.24361229   76.73850250    0.51999998    2.84999990
   17.24666786   74.47149658    0.51999998    2.84999990
   17.25000000   75.47059631    0.51999998    2.84999990
   17.25305557   73.58959961    0.52999997    2.84999990
   17.25638962   73.82589722    0.51999998    2.86999989
   17.26222229   73.82589722    0.52999997    2.84999990
   17.26638794   75.88899994    0.51999998    2.84999990
   17.27000046   74.76139832    0.51999998    2.84999990
   17.27083397   72.64559937    0.51999998    2.84999990
   17.27361107   76.08170319    0.50000000    2.84999990
   17.27694511   74.75949860    0.50000000    2.84999990
   17.28000069   74.11239624    0.50000000    2.84999990
   17.28333282   75.50620270    0.50000000    2.84999990
   17.28638840   75.74410248    0.50000000    2.82999992
   17.28972244   75.17810059    0.50000000    2.84999990
   17.29305458   72.67859650    0.50000000    2.84999990
   17.29611015   73.38849640    0.50000000    2.84999990
   17.29944420   76.12400055    0.50000000    2.84999990
   17.30527687   76.12400055    0.50000000    2.84999990
   17.30944443   74.84059906    0.51999998    2.84999990
   17.31250000   78.09519958    0.50000000    2.84999990
   17.31583214   81.25350189    0.50000000    2.86999989
   17.31888962   76.26650238    0.50000000    2.84999990
   17.32222366   74.36309814    0.50000000    2.84999990
   17.32555580   75.32009888    0.50000000    2.84999990
   17.32861137   78.18070221    0.50000000    2.82999992
   17.33194542   76.48429871    0.50000000    2.84999990
   17.33527756   76.08580017    0.47999999    2.84999990
   17.33750153   73.59929657    0.50000000    2.84999990
   17.33889008   77.01249695    0.47999999    2.84999990
   17.34222221   75.40699768    0.47999999    2.84999990
   17.34805679   75.40699768    0.47999999    2.84999990
   17.35222244   73.30509949    0.46000001    2.84999990
   17.35555649   73.41359711    0.46000001    2.84999990
   17.35861206   74.95880127    0.46000001    2.84999990
   17.36194420   76.15450287    0.44000000    2.84999990
   17.36499977   76.93250275    0.46000001    2.84999990
   17.36833382   75.35929871    0.46000001    2.84999990
   17.37083435   79.63749695    0.46000001    2.84999990
   17.37194443   77.77369690    0.46000001    2.84999990
   17.37527847   74.90299988    0.46000001    2.84999990
   17.37833405   74.05889893    0.46000001    2.84999990
   17.38166618   73.70169830    0.46000001    2.84999990
   17.38500023   76.97740173    0.46000001    2.84999990
   17.39083290   76.97740173    0.46000001    2.82999992
   17.39500046   74.08429718    0.46000001    2.84999990
   17.39833260   75.19709778    0.46000001    2.84999990
   17.40138817   76.53479767    0.46000001    2.84999990
   17.40416718   73.81759644    0.44000000    2.84999990
   17.40499878   74.58399963    0.44000000    2.84999990
   17.40833282   78.04900360    0.46000001    2.84999990
   17.41138840   74.68859863    0.46000001    2.84999990
   17.41472244   74.74320221    0.44000000    2.84999990
   17.41805458   75.26519775    0.44000000    2.84999990
   17.42111015   75.20999908    0.44000000    2.84999990
   17.42444420   78.01180267    0.44000000    2.84999990
   17.42749977   75.60919952    0.44000000    2.84999990
   17.43361092   75.60919952    0.46000001    2.86999989
   17.43777657   74.35739899    0.46000001    2.84999990
   17.44111061   77.43579865    0.44000000    2.84999990
   17.44444275   79.92400360    0.44000000    2.84999990
   17.44749832   75.46920013    0.44000000    2.84999990
   17.45083427   75.39540100    0.44000000    2.86999989
   17.45388985   74.62529755    0.44000000    2.84999990
   17.45722389   75.26999664    0.44000000    2.84999990
   17.46055603   72.97149658    0.44000000    2.84999990
   17.46361160   73.87049866    0.46000001    2.84999990
   17.46694565   74.60939789    0.44000000    2.84999990
   17.47027779   76.13030243    0.44000000    2.84999990
   17.47083473   74.33090210    0.44000000    2.84999990
   17.47666740   74.33090210    0.44000000    2.84999990
   17.48083305   76.96829987    0.44000000    2.84999990
   17.48388863   73.66829681    0.41999999    2.84999990
   17.48722267   75.13320160    0.41999999    2.84999990
   17.49027824   73.59140015    0.41999999    2.84999990
   17.49361229   75.47869873    0.41999999    2.84999990
   17.49694443   73.68160248    0.41999999    2.84999990
   17.50000000   75.82279968    0.40000001    2.84999990
   17.50333405   79.87000275    0.41999999    2.84999990
   17.50416756   76.21990204    0.41999999    2.84999990
   17.50694466   74.03910065    0.40000001    2.84999990
   17.51027870   77.53849792    0.41999999    2.84999990
   17.51333427   76.79810333    0.41999999    2.84999990
   17.51944351   76.79810333    0.40000001    2.84999990
   17.52361107   74.90489960    0.40000001    2.84999990
   17.52666664   75.29949951    0.40000001    2.84999990
   17.53000069   76.96600342    0.40000001    2.84999990
   17.53333282   76.72409821    0.40000001    2.84999990
   17.53638840   76.98829651    0.40000001    2.84999990
   17.53750038   72.27719879    0.40000001    2.84999990
   17.53999901   75.07900238    0.40000001    2.82999992
   17.54333305   76.32430267    0.40000001    2.84999990
   17.54638863   75.52629852    0.40000001    2.82999992
   17.54972076   74.49549866    0.40000001    2.84999990
   17.55305481   75.63569641    0.40000001    2.84999990
   17.55611038   74.20819855    0.40000001    2.84999990
   17.56222153   74.20819855    0.38000000    2.84999990
   17.56638718   81.16780090    0.40000001    2.84999990
   17.56972313   75.26640320    0.40000001    2.84999990
   17.57083511   77.60440063    0.40000001    2.84999990
   17.57333374   76.06500244    0.40000001    2.84999990
   17.57666779   76.86599731    0.41999999    2.84999990
   17.57972336   75.30069733    0.41999999    2.84999990
   17.58305550   74.20690155    0.41999999    2.84999990
   17.58638954   76.90360260    0.41999999    2.82999992
   17.58944511   80.29599762    0.41999999    2.84999990
   17.59277916   73.95590210    0.41999999    2.84999990
   17.59583473   75.54429626    0.44000000    2.84999990
   17.59916687   74.50559998    0.44000000    2.82999992
   17.60499954   74.50559998    0.41999999    2.84999990
   17.60916710   72.97619629    0.44000000    2.84999990
   17.61250114   76.84140015    0.41999999    2.84999990
   17.61583328   76.37090302    0.41999999    2.82999992
   17.61888885   75.98300171    0.41999999    2.84999990
   17.62222290   76.77140045    0.41999999    2.84999990
   17.62555504   74.29039764    0.41999999    2.84999990
   17.62861061   74.36830139    0.44000000    2.84999990
   17.63194466   76.46679688    0.44000000    2.84999990
   17.63500023   74.61560059    0.44000000    2.84999990
   17.63750076   74.74030304    0.46000001    2.82999992
   17.63861084   75.09239960    0.46000001    2.82999992
   17.64194489   78.48110199    0.46000001    2.84999990
   17.64805603   78.48110199    0.46000001    2.86999989
   17.65194321   76.29889679    0.46000001    2.84999990
   17.65527725   74.56819916    0.46000001    2.84999990
   17.65861130   76.41259766    0.46000001    2.84999990
   17.66166687   74.35040283    0.46000001    2.84999990
   17.66499901   76.65519714    0.44000000    2.84999990
   17.66833305   76.92870331    0.44000000    2.82999992
   17.67083359   75.87609863    0.44000000    2.82999992
   17.67194366   77.78949738    0.44000000    2.84999990
   17.67527771   73.43399811    0.46000001    2.84999990
   17.67833328   75.78700256    0.44000000    2.82999992
   17.68166542   78.93460083    0.44000000    2.84999990
   17.68499947   74.27790070    0.44000000    2.82999992
   17.69083214   74.27790070    0.44000000    2.82999992
   17.69499969   75.87460327    0.44000000    2.84999990
   17.69805527   75.18139648    0.46000001    2.84999990
   17.70138931   76.49800110    0.46000001    2.84999990
   17.70444489   74.09549713    0.46000001    2.82999992
   17.70499992   75.86599731    0.46000001    2.84999990
   17.70833397   73.29219818    0.44000000    2.84999990
   17.71138954   77.01159668    0.46000001    2.84999990
   17.71472359   74.52999878    0.44000000    2.84999990
   17.71805573   75.67759705    0.44000000    2.84999990
   17.72111130   75.79820251    0.46000001    2.84999990
   17.72444534   76.64630127    0.46000001    2.84999990
   17.72777748   78.43070221    0.46000001    2.84999990
   17.73361206   78.43070221    0.46000001    2.82999992
   17.73777771   74.30149841    0.46000001    2.84999990
   17.74111176   77.59909821    0.46000001    2.84999990
   17.74416733   74.08110046    0.46000001    2.84999990
   17.74749947   76.03029633    0.46000001    2.82999992
   17.75055504   74.08959961    0.47999999    2.82999992
   17.75388908   77.12550354    0.51999998    2.84999990
   17.75722313   75.48059845    0.50000000    2.84999990
   17.76027870   75.66169739    0.51999998    2.82999992
   17.76361084   74.43840027    0.52999997    2.82999992
   17.76694489   77.06670380    0.52999997    2.82999992
   17.77000046   73.14499664    0.55000001    2.84999990
   17.77111053   75.52870178    0.55000001    2.84999990
   17.77638817   75.52870178    0.52999997    2.82999992
   17.78055573   74.00949860    0.55000001    2.82999992
   17.78388786   75.74800110    0.56999999    2.82999992
   17.78694344   73.80130005    0.55000001    2.82999992
   17.80472183   74.29879761    0.51999998    2.84999990
   17.80722237   77.12239838    0.52999997    2.84999990
   17.81027794   76.37650299    0.52999997    2.84999990
   17.81361008   74.98660278    0.52999997    2.82999992
   17.81944466   74.98660278    0.52999997    2.82999992
   17.82361221   73.32980347    0.51999998    2.82999992
   17.82694626   77.10839844    0.51999998    2.82999992
   17.83000183   77.03160095    0.52999997    2.82999992
   17.83333397   73.57669830    0.51999998    2.84999990
   17.83666801   73.38059998    0.50000000    2.82999992
   17.83805656   79.14859772    0.51999998    2.84999990
   17.84027863   72.35070038    0.51999998    2.84999990
   17.84361267   74.36199951    0.47999999    2.80999994
   17.84666824   73.56289673    0.47999999    2.82999992
   17.85000038   74.14089966    0.47999999    2.84999990
   17.85333443   77.17150116    0.47999999    2.82999992
   17.85639000   76.52269745    0.47999999    2.84999990
   17.86222267   76.52269745    0.47999999    2.82999992
   17.86638832   79.24220276    0.50000000    2.82999992
   17.86972237   72.63259888    0.50000000    2.84999990
   17.87138939   74.96739960    0.50000000    2.82999992
   17.87333298   75.74469757    0.50000000    2.84999990
   17.87666702   75.90339661    0.50000000    2.82999992
   17.87972260   78.07170105    0.50000000    2.84999990
   17.88305473   77.49579620    0.50000000    2.84999990
   17.88638878   75.36679840    0.50000000    2.84999990
   17.88944435   75.71869659    0.51999998    2.82999992
   17.89277840   74.58339691    0.50000000    2.82999992
   17.89611053   79.25289917    0.51999998    2.82999992
   17.89916611   76.43869781    0.51999998    2.82999992
   17.90527725   76.43869781    0.52999997    2.82999992
   17.90944481   77.49680328    0.52999997    2.84999990
   17.91250038   79.33280182    0.51999998    2.84999990
   17.91583252   75.95680237    0.51999998    2.82999992
   17.91888809   76.85590363    0.51999998    2.82999992
   17.92222214   73.51999664    0.51999998    2.84999990
   17.92555428   74.13210297    0.51999998    2.82999992
   17.92860985   75.19960022    0.51999998    2.84999990
   17.93194389   74.97630310    0.51999998    2.82999992
   17.93527603   77.00910187    0.51999998    2.82999992
   17.93805504   74.81759644    0.51999998    2.82999992
   17.93861008   72.42690277    0.51999998    2.82999992
   17.94194412   76.66120148    0.52999997    2.82999992
   17.94805527   76.66120148    0.52999997    2.82999992
   17.95222282   75.36350250    0.51999998    2.82999992
   17.95527840   75.86280060    0.55000001    2.82999992
   17.95861244   75.38189697    0.55000001    2.82999992
   17.96194458   73.35990143    0.55000001    2.84999990
   17.96500015   73.60929871    0.55000001    2.82999992
   17.96833420   73.90789795    0.55000001    2.84999990
   17.97138977   75.01950073    0.55000001    2.82999992
   17.97194481   78.89800262    0.55000001    2.82999992
   17.97555542   73.40740204    0.55000001    2.82999992
   17.97861099   79.13210297    0.55000001    2.82999992
   17.98194504   78.26860046    0.55000001    2.82999992
   17.98500061   75.20040131    0.55000001    2.82999992
   17.99083328   75.20040131    0.55000001    2.82999992
   17.99500084   78.60710144    0.55000001    2.82999992
   17.99833298   74.22049713    0.55000001    2.82999992
   18.00138855   78.30500031    0.55000001    2.82999992
   18.00472260   76.16510010    0.55000001    2.84999990
   18.00499916   74.97460175    0.55000001    2.84999990
   18.00833321   79.10040283    0.56999999    2.80999994
   18.01138878   75.09770203    0.55000001    2.84999990
   18.01472282   77.58630371    0.55000001    2.82999992
   18.01805496   76.05529785    0.55000001    2.82999992
   18.02111053   75.59780121    0.55000001    2.84999990
   18.02444458   75.10399628    0.55000001    2.82999992
   18.02777672   76.21410370    0.55000001    2.82999992
   18.03361130   76.21410370    0.55000001    2.84999990
   18.03805542   75.66819763    0.56999999    2.82999992
   18.03833199   77.04730225    0.56999999    2.82999992
   18.04166603   77.96050262    0.56999999    2.82999992
   18.04472160   78.90180206    0.56999999    2.84999990
   18.04805565   75.74990082    0.58999997    2.84999990
   18.05138779   74.48750305    0.56999999    2.82999992
   18.05444336   74.58190155    0.56999999    2.84999990
   18.05777740   74.76550293    0.56999999    2.82999992
   18.06110954   77.82849884    0.56999999    2.82999992
   18.06416512   76.49469757    0.56999999    2.82999992
   18.06750107   75.82460022    0.56999999    2.82999992
   18.07083511   80.00229645    0.56999999    2.82999992
   18.07139015   78.05030060    0.56999999    2.82999992
   18.07666779   78.05030060    0.56999999    2.84999990
   18.08083344   75.54270172    0.55000001    2.82999992
   18.08388901   81.88659668    0.56999999    2.82999992
   18.08722305   76.79540253    0.56999999    2.82999992
   18.09027863   81.86489868    0.58999997    2.82999992
   18.09361267   78.72959900    0.61000001    2.80999994
   18.09694481   77.97660065    0.61000001    2.82999992
   18.10000038   75.17359924    0.61000001    2.80999994
   18.10333443   74.96669769    0.61000001    2.82999992
   18.10472298   76.23639679    0.61000001    2.82999992
   18.10694504   77.52079773    0.61000001    2.82999992
   18.11027908   75.14559937    0.61000001    2.82999992
   18.11361122   74.06659698    0.61000001    2.82999992
   18.11944389   74.06659698    0.61000001    2.82999992
   18.12361145   75.86640167    0.63000000    2.82999992
   18.12666702   72.76709747    0.63000000    2.82999992
   18.13000107   78.92579651    0.63000000    2.82999992
   18.13333321   77.64890289    0.63000000    2.80999994
   18.13638878   77.80789948    0.63000000    2.82999992
   18.13805580   75.55280304    0.63000000    2.82999992
   18.13999939   74.39230347    0.63000000    2.80999994
   18.14361191   74.42880249    0.64999998    2.82999992
   18.14666748   73.51280212    0.64999998    2.80999994
   18.14999962   72.95549774    0.64999998    2.80999994
   18.15305519   74.97640228    0.64999998    2.82999992
   18.15638924   74.22679901    0.67000002    2.82999992
   18.16222191   74.22679901    0.64999998    2.82999992
   18.16638756   74.41010284    0.64999998    2.82999992
   18.16972160   72.50250244    0.64999998    2.82999992
   18.17138863   77.46360016    0.64999998    2.82999992
   18.17305565   74.33209991    0.64999998    2.82999992
   18.17638779   73.62490082    0.64999998    2.82999992
   18.17972183   73.10389709    0.67000002    2.82999992
   18.18277740   74.72229767    0.67000002    2.82999992
   18.18610954   75.04139709    0.67000002    2.82999992
   18.18916512   75.63490295    0.67000002    2.82999992
   18.19249916   72.62570190    0.67000002    2.82999992
   18.19583321   72.64830017    0.69000000    2.82999992
   18.19888878   73.67070007    0.69000000    2.82999992
   18.20527840   73.67070007    0.69000000    2.82999992
   18.20916748   78.29759979    0.69000000    2.80999994
   18.21250153   75.94259644    0.70999998    2.82999992
   18.21583366   75.11350250    0.70999998    2.82999992
   18.21888924   72.27519989    0.70999998    2.82999992
   18.22222328   73.54989624    0.70999998    2.80999994
   18.22555542   73.68939972    0.70999998    2.80999994
   18.22861099   75.11699677    0.73000002    2.80999994
   18.23194504   76.89610291    0.73000002    2.80999994
   18.23527718   75.30930328    0.73000002    2.82999992
   18.23805618   73.95719910    0.73000002    2.80999994
   18.23861122   72.90119934    0.73000002    2.82999992
   18.24194527   75.42209625    0.73000002    2.82999992
   18.24805641   75.42209625    0.73000002    2.82999992
   18.25222206   74.86609650    0.73000002    2.82999992
   18.25527763   74.75810242    0.73000002    2.80999994
   18.25861168   71.59100342    0.73000002    2.82999992
   18.26194382   74.91709900    0.73000002    2.82999992
   18.26499939   75.15609741    0.70999998    2.82999992
   18.26833344   75.80429840    0.70999998    2.80999994
   18.27138901   72.55020142    0.73000002    2.82999992
   18.27194405   79.34590149    0.73000002    2.82999992
   18.27527809   76.20310211    0.70999998    2.80999994
   18.27861023   77.65149689    0.70999998    2.82999992
   18.28166580   75.02809906    0.70999998    2.80999994
   18.28499985   74.50099945    0.70999998    2.80999994
   18.29083252   74.50099945    0.70999998    2.80999994
   18.29500008   73.24590302    0.73000002    2.80999994
   18.29833221   73.08020020    0.75000000    2.80999994
   18.30138779   78.02600098    0.75000000    2.80999994
   18.30472183   77.59230042    0.75000000    2.80999994
   18.30499840   76.38829803    0.75000000    2.80999994
   18.30833244   74.64710236    0.73000002    2.82999992
   18.31166649   74.60919952    0.73000002    2.80999994
   18.31472206   74.41220093    0.73000002    2.80999994
   18.31805611   73.57879639    0.75000000    2.80999994
   18.32111168   72.55740356    0.75000000    2.80999994
   18.32444572   72.18530273    0.76999998    2.80999994
   18.32777786   73.38050079    0.76999998    2.82999992
   18.33361244   73.38050079    0.80000001    2.80999994
   18.33777809   75.42089844    0.80000001    2.82999992
   18.33833313   80.10800171    0.81999999    2.80999994
   18.34166718   74.39189911    0.81999999    2.80999994
   18.34472275   74.97630310    0.81999999    2.80999994
   18.34805679   75.91829681    0.81999999    2.80999994
   18.35138893   75.69680023    0.83999997    2.78999996
   18.35444450   74.30840302    0.81999999    2.80999994
   18.35777855   75.21130371    0.81999999    2.80999994
   18.36111069   75.88880157    0.83999997    2.80999994
   18.36416626   73.27459717    0.83999997    2.78999996
   18.36750031   76.91699982    0.83999997    2.80999994
   18.37083435   73.11440277    0.83999997    2.80999994
   18.37166595   77.14119720    0.83999997    2.80999994
   18.37638855   77.14119720    0.81999999    2.80999994
   18.38055611   81.66649628    0.81999999    2.80999994
   18.38388824   75.72679901    0.81999999    2.80999994
   18.38722229   78.85119629    0.83999997    2.80999994
   18.39027786   76.49909973    0.86000001    2.80999994
   18.39361191   76.05539703    0.86000001    2.80999994
   18.39694405   73.76360321    0.86000001    2.80999994
   18.40027809   73.92199707    0.86000001    2.80999994
   18.40333366   72.89489746    0.86000001    2.80999994
   18.40499878   73.04509735    0.86000001    2.78999996
   18.40722275   74.76640320    0.83999997    2.80999994
   18.41027832   76.31240082    0.86000001    2.82999992
   18.41361046   74.14849854    0.83999997    2.80999994
   18.41944313   74.14849854    0.81999999    2.80999994
   18.42361069   76.06990051    0.81999999    2.80999994
   18.42666626   74.15270233    0.81999999    2.78999996
   18.43000031   74.15329742    0.81999999    2.78999996
   18.43305397   72.26989746    0.80000001    2.80999994
   18.43638802   75.95580292    0.79000002    2.80999994
   18.43833160   77.42990112    0.79000002    2.80999994
   18.43999863   75.46900177    0.76999998    2.80999994
   18.44305420   76.62709808    0.76999998    2.80999994
   18.44638824   78.78610229    0.76999998    2.80999994
   18.44972038   77.72309875    0.75000000    2.80999994
   18.45277786   77.77989960    0.75000000    2.80999994
   18.45611191   74.75450134    0.75000000    2.80999994
   18.46222305   74.75450134    0.73000002    2.80999994
   18.46638870   76.48840332    0.73000002    2.80999994
   18.46944427   75.58390045    0.73000002    2.80999994
   18.47166634   75.41850281    0.73000002    2.80999994
   18.47333336   73.72679901    0.73000002    2.80999994
   18.47666740   74.42489624    0.70999998    2.80999994
   18.47972298   74.99220276    0.70999998    2.80999994
   18.48305511   73.91719818    0.69000000    2.80999994
   18.48611069   73.73130035    0.69000000    2.80999994
   18.48944473   72.41139984    0.67000002    2.80999994
   18.49277878   74.91639709    0.67000002    2.80999994
   18.49583435   77.28469849    0.64999998    2.80999994
   18.49916649   74.67130280    0.64999998    2.80999994
   18.50499916   74.67130280    0.64999998    2.82999992
   18.50916672   70.94170380    0.64999998    2.80999994
   18.51250076   74.88230133    0.63000000    2.80999994
   18.51555634   75.09719849    0.63000000    2.80999994
   18.51888847   73.54669952    0.63000000    2.80999994
   18.52194405   75.73239899    0.63000000    2.80999994
   18.52527809   74.78710175    0.63000000    2.80999994
   18.52861023   74.41639709    0.64999998    2.80999994
   18.53166580   76.05429840    0.67000002    2.80999994
   18.53499985   76.36280060    0.69000000    2.80999994
   18.53833199   75.29209900    0.69000000    2.80999994
   18.53999901   73.07679749    0.69000000    2.80999994
   18.54194450   76.72090149    0.70999998    2.82999992
   18.54777718   76.72090149    0.70999998    2.80999994
   18.55194283   78.08950043    0.73000002    2.80999994
   18.55527687   74.07620239    0.75000000    2.78999996
   18.55861092   75.29149628    0.75000000    2.80999994
   18.56194305   75.97380066    0.75000000    2.78999996
   18.56499863   73.01550293    0.75000000    2.78999996
   18.56833458   74.98930359    0.73000002    2.80999994
   18.57139015   74.26850128    0.73000002    2.80999994
   18.57333374   76.02839661    0.73000002    2.80999994
   18.57500076   74.70200348    0.73000002    2.80999994
   18.57833481   75.59010315    0.73000002    2.80999994
   18.58139038   73.05860138    0.75000000    2.78999996
   18.58472252   75.52439880    0.75000000    2.80999994
   18.59083366   75.52439880    0.75000000    2.78999996
   18.59500122   76.66560364    0.76999998    2.80999994
   18.59805679   75.81990051    0.79000002    2.80999994
   18.60138893   75.70739746    0.79000002    2.80999994
   18.60444450   72.48459625    0.80000001    2.78999996
   18.60694504   74.88420105    0.79000002    2.78999996
   18.60833359   71.27349854    0.79000002    2.78999996
   18.61138916   73.85109711    0.80000001    2.78999996
   18.61472321   75.56929779    0.81999999    2.78999996
   18.61805534   74.78420258    0.81999999    2.78999996
   18.62111092   72.15969849    0.83999997    2.78999996
   18.62444496   74.04879761    0.83999997    2.78999996
   18.62777710   74.02619934    0.81999999    2.78999996
   18.63361168   74.02619934    0.83999997    2.80999994
   18.63777733   76.49230194    0.83999997    2.78999996
   18.64027786   75.34200287    0.81999999    2.78999996
   18.64138794   75.64219666    0.81999999    2.78999996
   18.64444351   74.88099670    0.81999999    2.78999996
   18.64777756   76.05529785    0.81999999    2.80999994
   18.65111160   75.79029846    0.81999999    2.78999996
   18.65416718   73.98449707    0.83999997    2.80999994
   18.65749931   73.65809631    0.83999997    2.78999996
   18.66083336   74.33419800    0.83999997    2.78999996
   18.66388893   76.34110260    0.86000001    2.80999994
   18.66722107   75.64499664    0.92000002    2.80999994
   18.67027664   73.86350250    0.89999998    2.78999996
   18.67638779   73.86350250    0.89999998    2.78999996
   18.68055534   76.00109863    0.88000000    2.78999996
   18.68388748   75.43699646    0.88000000    2.78999996
   18.68694305   75.08300018    0.89999998    2.78999996
   18.69027710   73.13999939    0.88000000    2.78999996
   18.69361115   77.28309631    0.89999998    2.80999994
   18.69666672   74.95950317    0.88000000    2.78999996
   18.70000076   77.81939697    0.89999998    2.78999996
   18.70305634   73.31140137    0.89999998    2.78999996
   18.70639038   75.27500153    0.89999998    2.78999996
   18.70722389   74.93450165    0.89999998    2.78999996
   18.71000099   76.79650116    0.89999998    2.78999996
   18.71333504   79.38559723    0.89999998    2.78999996
   18.71916771   79.38559723    0.89999998    2.78999996
   18.72333336   74.96289825    0.92000002    2.78999996
   18.72666740   74.33950043    0.94000000    2.78999996
   18.73000145   79.19960022    0.94000000    2.78999996
   18.73305511   74.80319977    0.95999998    2.78999996
   18.73638916   74.30850220    0.95999998    2.78999996
   18.73972321   77.94889832    0.95999998    2.78999996
   18.74055672   73.39129639    0.95999998    2.78999996
   18.74333382   75.18049622    0.95999998    2.78999996
   18.74666786   75.34269714    0.95999998    2.78999996
   18.74972153   73.69229889    0.95999998    2.78999996
   18.75305557   74.06030273    0.95999998    2.78999996
   18.75638962   77.34390259    0.95999998    2.78999996
   18.76222229   77.34390259    0.98000002    2.78999996
   18.76638794   73.66030121    1.03999996    2.78999996
   18.76944351   73.80239868    1.05999994    2.78999996
   18.77277756   73.29460144    1.05999994    2.78999996
   18.77416611   75.31069946    1.05999994    2.78999996
   18.77638817   74.56469727    1.05999994    2.78999996
   18.77944374   74.19599915    1.11000001    2.78999996
   18.78277779   74.13159943    1.13000000    2.78999996
   18.78610992   75.84690094    1.13000000    2.78999996
   18.78916550   76.20690155    1.07000005    2.78999996
   18.79249954   72.10939789    1.07000005    2.78999996
   18.79583359   73.70760345    0.98000002    2.78999996
   18.79888916   74.14820099    0.95999998    2.78999996
   18.80499840   74.14820099    0.94000000    2.78999996
   18.82333374   76.00009918    0.95999998    2.78999996
   18.82666779   78.38580322    0.98000002    2.80999994
   18.82972336   76.28160095    0.98000002    2.80999994
   18.83305550   75.63110352    0.95999998    2.78999996
   18.83638954   77.12670135    0.95999998    2.78999996
   18.83944511   75.46130371    0.94000000    2.78999996
   18.84277916   75.39800262    0.92000002    2.78999996
   18.84805679   75.39800262    0.92000002    2.78999996
   18.85222244   75.99369812    0.92000002    2.76999998
   18.85527802   75.54810333    0.92000002    2.76999998
   18.85639000   75.06420135    0.92000002    2.78999996
   18.85916710   75.33139801    0.88000000    2.78999996
   18.86222267   75.45520020    0.86000001    2.76999998
   18.86555672   76.40760040    0.88000000    2.78999996
   18.86888885   77.79820251    0.88000000    2.78999996
   18.87194443   76.47290039    0.88000000    2.78999996
   18.87527847   74.02420044    0.88000000    2.78999996
   18.87833405   72.81529999    0.81999999    2.78999996
   18.88166618   75.87860107    0.81999999    2.78999996
   18.88500023   74.93060303    0.81999999    2.78999996
   18.89083290   74.93060303    0.79000002    2.78999996
   18.89500046   74.17870331    0.79000002    2.78999996
   18.89833260   76.92410278    0.80000001    2.78999996
   18.90138817   73.53759766    0.81999999    2.78999996
   18.90472221   75.79669952    0.86000001    2.78999996
   18.90805435   78.79720306    0.88000000    2.78999996
   18.91110992   72.09880066    0.88000000    2.76999998
   18.91444397   75.20610046    0.76999998    2.78999996
   18.91749954   76.01519775    0.76999998    2.78999996
   18.92083359   75.89199829    0.76999998    2.78999996
   18.92305565   75.38770294    0.76999998    2.78999996
   18.92472076   72.96649933    0.83999997    2.78999996
   18.92777634   74.59860229    0.83999997    2.78999996
   18.93388748   74.59860229    0.88000000    2.78999996
   18.93777657   71.72560120    0.88000000    2.78999996
   18.94111061   72.25749969    0.88000000    2.78999996
   18.94444275   78.02230072    0.92000002    2.78999996
   18.94749832   74.21779633    0.95999998    2.78999996
   18.95083427   75.56510162    1.03999996    2.76999998
   18.95388985   74.65910339    1.07000005    2.78999996
   18.95639038   75.09660339    0.95999998    2.78999996
   18.95777893   74.66660309    0.92000002    2.76999998
   18.96083450   74.49440002    0.92000002    2.76999998
   18.96416664   74.52870178    0.89999998    2.78999996
   18.96750069   75.26039886    0.88000000    2.78999996
   18.97055626   75.85690308    0.89999998    2.78999996
   18.97666740   75.85690308    0.92000002    2.76999998
   18.98083305   76.47699738    0.92000002    2.78999996
   18.98388863   74.73459625    0.89999998    2.78999996
   18.98722267   75.53099823    0.89999998    2.76999998
   18.98972321   77.72540283    0.88000000    2.76999998
   18.99083328   78.71739960    0.88000000    2.76999998
   18.99388885   80.43360138    0.81999999    2.78999996
   18.99722290   77.65039825    0.81999999    2.76999998
   19.00055504   80.62270355    0.80000001    2.76999998
   19.00361061   75.98739624    0.79000002    2.76999998
   19.00694466   76.79900360    0.79000002    2.76999998
   19.01027870   77.71080017    0.79000002    2.76999998
   19.01333427   76.52670288    0.79000002    2.76999998
   19.01944351   76.52670288    0.80000001    2.78999996
   19.02361107   79.03089905    0.80000001    2.78999996
   19.02694511   77.14779663    0.80000001    2.78999996
   19.03000069   80.63700104    0.81999999    2.78999996
   19.03333282   76.38860321    0.83999997    2.76999998
   19.03638840   75.76229858    0.86000001    2.76999998
   19.03972244   73.95210266    0.88000000    2.78999996
   19.04305458   73.49440002    0.86000001    2.78999996
   19.04611015   77.00579834    0.86000001    2.76999998
   19.04944420   74.01419830    0.86000001    2.78999996
   19.05277634   77.20819855    0.89999998    2.76999998
   19.05583191   76.89579773    0.89999998    2.76999998
   19.05638885   76.81670380    0.89999998    2.76999998
   19.06222153   76.81670380    0.92000002    2.76999998
   19.06638718   78.50559998    0.92000002    2.76999998
   19.06972313   77.51020050    0.94000000    2.76999998
   19.07277870   75.24099731    0.98000002    2.76999998
   19.07611275   76.21640015    0.98000002    2.76999998
   19.07944489   74.22760010    0.98000002    2.75000000
   19.08250046   75.81390381    0.98000002    2.76999998
   19.08583450   77.33339691    0.95999998    2.76999998
   19.08916664   74.69760132    0.95999998    2.76999998
   19.08972359   76.11640167    0.95999998    2.76999998
   19.09277916   77.74479675    0.95999998    2.75000000
   19.09583473   76.38120270    0.95999998    2.76999998
   19.09916687   75.65789795    0.95999998    2.75000000
   19.10499954   75.65789795    0.95999998    2.76999998
   19.10916710   73.45629883    0.95999998    2.76999998
   19.11250114   75.01110077    0.95999998    2.76999998
   19.11583328   74.59380341    0.95999998    2.76999998
   19.11888885   78.12190247    0.94000000    2.76999998
   19.12222290   75.53260040    0.94000000    2.75000000
   19.12305641   75.34600067    0.94000000    2.75000000
   19.12583351   74.19029999    0.94000000    2.76999998
   19.12888908   78.01989746    0.94000000    2.76999998
   19.13222313   74.51789856    0.94000000    2.76999998
   19.13555527   76.04479980    0.92000002    2.75000000
   19.13861084   78.44840240    0.92000002    2.76999998
   19.14194489   76.69599915    0.92000002    2.76999998
   19.14805603   76.69599915    0.92000002    2.76999998
   19.15222168   76.97830200    0.89999998    2.76999998
   19.15527725   77.89420319    0.89999998    2.78999996
   19.15638924   74.85890198    0.89999998    2.78999996
   19.15888786   74.08580017    0.89999998    2.76999998
   19.16194344   76.92859650    0.88000000    2.76999998
   19.16527748   77.77799988    0.88000000    2.76999998
   19.16860962   76.71170044    0.86000001    2.76999998
   19.17166519   76.11049652    0.88000000    2.76999998
   19.17499924   73.26640320    0.88000000    2.76999998
   19.17833328   75.02770233    0.88000000    2.76999998
   19.18138885   74.76670074    0.88000000    2.75000000
   19.18472099   73.67800140    0.88000000    2.76999998
   19.19083214   73.67800140    0.88000000    2.75000000
   19.19499969   76.66380310    0.88000000    2.75000000
   19.19833183   75.48470306    0.88000000    2.76999998
   19.20166779   77.82710266    0.86000001    2.75000000
   19.20472336   76.05879974    0.83999997    2.76999998
   19.20805550   75.09700012    0.83999997    2.76999998
   19.21138954   74.64029694    0.81999999    2.76999998
   19.21444511   76.12180328    0.83999997    2.75000000
   19.21777916   77.34020233    0.81999999    2.75000000
   19.22083473   77.55989838    0.81999999    2.75000000
   19.22305679   74.32399750    0.81999999    2.75000000
   19.22472191   78.37280273    0.81999999    2.75000000
   19.22777748   74.94110107    0.83999997    2.75000000
   19.23361206   74.94110107    0.81999999    2.76999998
   19.23777771   77.64499664    0.81999999    2.76999998
   19.24111176   79.27660370    0.83999997    2.75000000
   19.24416733   77.39189911    0.83999997    2.76999998
   19.24749947   75.42769623    0.86000001    2.75000000
   19.25083351   79.07959747    0.86000001    2.75000000
   19.25388908   75.21880341    0.86000001    2.75000000
   19.25638962   77.38369751    0.86000001    2.75000000
   19.25749969   74.56179810    0.86000001    2.75000000
   19.26055527   74.14129639    0.86000001    2.75000000
   19.26388931   77.69200134    0.86000001    2.75000000
   19.26722145   76.57260132    0.86000001    2.75000000
   19.27027702   84.46430206    0.86000001    2.75000000
   19.27666664   84.46430206    0.88000000    2.75000000
   19.28111076   75.24449921    0.88000000    2.75000000
   19.28416634   77.05059814    0.88000000    2.75000000
   19.28750038   78.15149689    0.89999998    2.75000000
   19.28972244   80.20659637    0.89999998    2.75000000
   19.29111099   77.05220032    0.89999998    2.75000000
   19.29444313   78.59889984    0.89999998    2.76999998
   19.29749870   77.23280334    0.92000002    2.75000000
   19.30083275   80.42569733    0.92000002    2.75000000
   19.30388832   79.77559662    0.89999998    2.75000000
   19.30722237   78.62729645    0.92000002    2.75000000
   19.31055450   77.25779724    0.89999998    2.75000000
   19.31361008   76.51599884    0.89999998    2.75000000
   19.31944466   76.51599884    0.92000002    2.75000000
   19.32361221   78.72519684    0.92000002    2.75000000
   19.32666779   76.68560028    0.92000002    2.75000000
   19.33000183   75.40190125    0.92000002    2.75000000
   19.33333397   76.44930267    0.92000002    2.75000000
   19.33638954   76.74120331    0.92000002    2.75000000
   19.33972359   75.84729767    0.92000002    2.75000000
   19.34277916   78.05650330    0.89999998    2.75000000
   19.34611130   74.47339630    0.92000002    2.76999998
   19.34944534   76.87359619    0.89999998    2.75000000
   19.35250092   75.36180115    0.89999998    2.75000000
   19.35583305   78.73380280    0.92000002    2.75000000
   19.35639000   81.63710022    0.92000002    2.75000000
   19.36222267   81.63710022    0.94000000    2.75000000
   19.36638832   76.51770020    0.94000000    2.75000000
   19.36944389   76.14170074    0.94000000    2.75000000
   19.37277794   76.24600220    0.94000000    2.75000000
   19.37611198   76.29709625    0.95999998    2.73000002
   19.37916756   75.58650208    0.95999998    2.73000002
   19.38249969   77.11910248    0.95999998    2.75000000
   19.38583374   77.96839905    0.94000000    2.73000002
   19.38888931   78.60710144    0.94000000    2.73000002
   19.38972282   75.19830322    0.94000000    2.73000002
   19.39249992   75.30889893    0.95999998    2.75000000
   19.39583397   73.98780060    0.95999998    2.75000000
   19.39888954   82.78780365    0.94000000    2.75000000
   19.40499878   82.78780365    0.95999998    2.75000000
   19.40916634   75.65709686    0.95999998    2.75000000
   19.41250038   76.36380005    0.95999998    2.73000002
   19.41555595   74.65550232    0.95999998    2.73000002
   19.41888809   81.18730164    0.95999998    2.73000002
   19.42222214   76.84929657    0.95999998    2.73000002
   19.42305565   75.19349670    0.95999998    2.73000002
   19.42583275   74.05619812    0.95999998    2.73000002
   19.42916679   74.98339844    0.98000002    2.73000002
   19.43222237   77.25579834    0.98000002    2.73000002
   19.43555450   75.97250366    0.98000002    2.75000000
   19.43861008   81.24109650    0.98000002    2.75000000
   19.44194412   77.91950226    0.98000002    2.75000000
   19.44805527   77.91950226    1.00000000    2.75000000
   19.45194435   77.33609772    1.01999998    2.73000002
   19.45527840   74.73370361    1.01999998    2.73000002
   19.45639038   75.57569885    1.01999998    2.73000002
   19.45888901   78.97979736    1.01999998    2.73000002
   19.46222305   72.48320007    1.01999998    2.73000002
   19.46555710   76.68800354    1.01999998    2.73000002
   19.46861076   73.63210297    1.03999996    2.73000002
   19.47194481   77.42819977    1.05999994    2.75000000
   19.47527885   80.57969666    1.05999994    2.73000002
   19.47833443   76.32150269    1.05999994    2.73000002
   19.48166656   76.07910156    1.03999996    2.73000002
   19.48500061   75.95089722    1.03999996    2.73000002
   19.49083328   75.95089722    1.01999998    2.73000002
   19.49500084   75.93240356    1.01999998    2.73000002
   19.49805641   78.43080139    1.01999998    2.73000002
   19.50138855   79.55760193    1.01999998    2.73000002
   19.50444412   76.12899780    1.01999998    2.75000000
   19.50777817   74.13639832    1.03999996    2.75000000
   19.51111031   79.76609802    1.05999994    2.73000002
   19.51416588   81.10910034    1.05999994    2.73000002
   19.51749992   75.80429840    1.09000003    2.73000002
   19.52111053   77.16049957    1.07000005    2.73000002
   19.52305603   79.78399658    1.07000005    2.73000002
   19.52472115   75.86540222    1.07000005    2.73000002
   19.52805519   80.65370178    1.09000003    2.73000002
   19.53361130   80.65370178    1.13000000    2.71000004
   19.53777695   78.31710052    1.14999998    2.73000002
   19.54083252   82.24579620    1.16999996    2.71000004
   19.54416656   80.41000366    1.16999996    2.73000002
   19.54749870   77.13379669    1.14999998    2.73000002
   19.55055428   79.10569763    1.16999996    2.73000002
   19.55388832   77.60030365    1.14999998    2.71000004
   19.55638885   75.27459717    1.13000000    2.73000002
   19.55749893   77.69239807    1.13000000    2.73000002
   19.56083298   75.29889679    1.14999998    2.71000004
   19.56388855   79.95619965    1.13000000    2.73000002
   19.56722260   79.89179993    1.14999998    2.71000004
   19.57055664   76.20439911    1.14999998    2.73000002
   19.57638931   76.20439911    1.13000000    2.71000004
   19.58055687   75.91200256    1.13000000    2.73000002
   19.58388901   75.28029633    1.13000000    2.73000002
   19.58694458   80.73100281    1.11000001    2.73000002
   19.58972359   79.06050110    1.11000001    2.71000004
   19.59055710   74.44010162    1.11000001    2.71000004
   19.59388924   76.51529694    1.11000001    2.71000004
   19.59694481   75.05699921    1.09000003    2.71000004
   19.60027885   74.09719849    1.09000003    2.73000002
   19.60333443   74.01499939    1.09000003    2.73000002
   19.60666656   76.23310089    1.09000003    2.71000004
   19.61000061   75.71890259    1.09000003    2.71000004
   19.61305618   77.00910187    1.07000005    2.73000002
   19.61944389   77.00910187    1.09000003    2.71000004
   19.62333298   74.26409912    1.09000003    2.71000004
   19.62666702   74.63800049    1.09000003    2.71000004
   19.63000107   76.17980194    1.09000003    2.71000004
   19.63305473   75.59639740    1.09000003    2.73000002
   19.63638878   73.33309937    1.09000003    2.71000004
   19.63972282   74.25360107    1.11000001    2.71000004
   19.64277840   77.53630066    1.11000001    2.71000004
   19.64611053   73.86550140    1.11000001    2.71000004
   19.64916611   76.56469727    1.11000001    2.71000004
   19.65250015   77.06890106    1.13000000    2.71000004
   19.65583229   76.78019714    1.13000000    2.71000004
   19.65638924   79.28720093    1.14999998    2.71000004
   19.66222191   79.28720093    1.14999998    2.71000004
   19.66638756   75.45140076    1.14999998    2.71000004
   19.66944313   76.48339844    1.16999996    2.71000004
   19.67277718   77.07080078    1.16999996    2.71000004
   19.67583275   76.52200317    1.16999996    2.71000004
   19.67916679   82.77339935    1.16999996    2.71000004
   19.68249893   79.09140015    1.16999996    2.71000004
   19.68583298   76.55860138    1.19000006    2.71000004
   19.68888855   75.18240356    1.19000006    2.71000004
   19.68972206   75.22109985    1.19000006    2.71000004
   19.69249916   75.53500366    1.19000006    2.71000004
   19.69583321   76.19400024    1.21000004    2.71000004
   19.69888878   79.08830261    1.19000006    2.71000004
   19.70499992   79.08830261    1.19000006    2.71000004
   19.70916748   75.62870026    1.16999996    2.71000004
   19.71250153   78.79049683    1.16999996    2.71000004
   19.71555710   80.07759857    1.14999998    2.71000004
   19.71888924   74.39830017    1.14999998    2.71000004
   19.72194481   78.18810272    1.14999998    2.71000004
   19.72305679   75.27480316    1.14999998    2.71000004
   19.72555542   77.56220245    1.14999998    2.71000004
   19.72888947   79.79450226    1.14999998    2.69000006
   19.73194504   74.31759644    1.14999998    2.71000004
   19.73527718   77.50450134    1.13000000    2.71000004
   19.73861122   77.62020111    1.13000000    2.69000006
   19.74166679   76.76760101    1.13000000    2.71000004
   19.74777794   76.76760101    1.14999998    2.71000004
   19.75194359   76.67369843    1.16999996    2.71000004
   19.75527763   76.98780060    1.14999998    2.69000006
   19.75638962   79.44689941    1.14999998    2.69000006
   19.75888824   78.40429688    1.16999996    2.71000004
   19.76222229   74.12439728    1.16999996    2.69000006
   19.76527786   77.78520203    1.16999996    2.69000006
   19.76861000   78.49949646    1.16999996    2.69000006
   19.77194405   77.32050323    1.16999996    2.69000006
   19.77499962   75.92539978    1.16999996    2.69000006
   19.77833366   78.69930267    1.19000006    2.69000006
   19.78138924   76.35970306    1.19000006    2.69000006
   19.78472137   79.89089966    1.19000006    2.71000004
   19.79083252   79.89089966    1.19000006    2.71000004
   19.79472160   78.56220245    1.19000006    2.69000006
   19.79805565   75.84230042    1.19000006    2.71000004
   19.80138779   81.99939728    1.19000006    2.69000006
   19.80444336   79.65209961    1.19000006    2.71000004
   19.80777740   79.77510071    1.21000004    2.69000006
   19.81083298   78.09549713    1.21000004    2.69000006
   19.81416512   80.19429779    1.21000004    2.69000006
   19.81750107   77.73349762    1.23000002    2.69000006
   19.82055664   77.95539856    1.23000002    2.71000004
   19.82333374   78.14720154    1.25000000    2.71000004
   19.84388924   78.14720154    1.26999998    2.69000006
   19.84805679   81.72319794    1.28999996    2.69000006
   19.85111237   74.79850006    1.28999996    2.69000006
   19.85444450   76.99050140    1.28999996    2.69000006
   19.85666656   78.04129791    1.28999996    2.69000006
   19.85805511   75.83260345    1.30999994    2.69000006
   19.86138916   75.30139923    1.30999994    2.71000004
   19.86472321   76.00170135    1.30999994    2.71000004
   19.86777878   75.10330200    1.30999994    2.69000006
   19.87111092   75.63089752    1.30999994    2.69000006
   19.87416649   77.64489746    1.30999994    2.69000006
   19.87750053   80.29060364    1.33000004    2.69000006
   19.88083267   75.63610077    1.33000004    2.69000006
   19.88666725   75.63610077    1.33000004    2.69000006
   19.89083290   74.65760040    1.33000004    2.69000006
   19.89388847   78.48979950    1.33000004    2.69000006
   19.89722252   77.78669739    1.33000004    2.67000008
   19.90055466   77.84200287    1.33000004    2.67000008
   19.90361023   77.63140106    1.33000004    2.69000006
   19.90694427   78.89309692    1.34000003    2.67000008
   19.90999985   79.82820129    1.34000003    2.67000008
   19.91333389   77.38899994    1.36000001    2.69000006
   19.91666603   83.53739929    1.39999998    2.67000008
   19.91972160   80.90039825    1.41999996    2.67000008
   19.92305565   77.82810211    1.46000004    2.67000008
   19.92361069   77.41339874    1.44000006    2.67000008
   19.92944336   77.41339874    1.50000000    2.67000008
   19.93361092   76.87270355    1.51999998    2.67000008
   19.93666649   79.51740265    1.51999998    2.67000008
   19.93999863   81.33039856    1.51999998    2.67000008
   19.94333267   74.60030365    1.53999996    2.67000008
   19.94638824   78.68460083    1.53999996    2.67000008
   19.94972038   78.00319672    1.58000004    1.91999996
   19.95305634   77.43499756    1.58000004    2.67000008
   19.95611191   80.02159882    1.58000004    2.67000008
   19.95694542   81.52839661    1.60000002    2.67000008
   19.96000099   77.63379669    1.60000002    2.67000008
   19.96305656   79.86540222    1.63000000    2.67000008
   19.96638870   78.72180176    1.64999998    2.67000008
   19.97222328   78.72180176    1.64999998    2.67000008
   19.97638893   77.09899902    1.66999996    2.67000008
   19.97972298   79.20520020    1.66999996    2.67000008
   19.98277855   79.52780151    1.66999996    2.67000008
   19.98611069   76.68720245    1.66999996    2.66000009
   19.98944473   78.50350189    1.66999996    2.67000008
   19.99027824   80.41840363    1.69000006    2.67000008
   19.99305534   78.85729980    1.69000006    2.67000008
   19.99611092   84.91819763    1.69000006    2.66000009
   19.99944496   78.30729675    1.71000004    2.66000009
   20.00250053   77.47339630    1.69000006    2.67000008
   20.00583267   76.46520233    1.66999996    2.67000008
   20.00916672   76.53359985    1.64999998    2.67000008
   20.01499939   76.53359985    1.63000000    2.67000008
   20.01916695   82.03369904    1.63000000    2.67000008
   20.02249908   75.89869690    1.63000000    2.67000008
   20.02361107   79.39630127    1.64999998    2.66000009
   20.02611160   76.78540039    1.64999998    2.66000009
   20.02916718   80.03040314    1.64999998    2.66000009
   20.03249931   76.44419861    1.64999998    2.67000008
   20.03555489   76.29019928    1.63000000    2.67000008
   20.03888893   81.60240173    1.63000000    2.64000010
   20.04222107   78.27140045    1.61000001    2.67000008
   20.04527664   79.67459869    1.61000001    2.67000008
   20.04861069   76.98760223    1.60000002    2.67000008
   20.05194283   80.37760162    1.60000002    2.67000008
   20.05805397   80.37760162    1.63000000    2.66000009
   20.06194305   78.99050140    1.64999998    2.66000009
   20.06527710   79.07440186    1.66999996    2.66000009
   20.06861115   75.48950195    1.66999996    2.66000009
   20.07166672   78.50330353    1.69000006    2.66000009
   20.07500076   77.28350067    1.69000006    2.66000009
   20.07833481   77.78379822    1.71000004    2.66000009
   20.08139038   80.41120148    1.69000006    2.64000010
   20.08472252   78.11930084    1.69000006    2.64000010
   20.08805656   77.42040253    1.73000002    2.66000009
   20.09027863   80.77780151    1.75000000    2.66000009
   20.09166718   81.05879974    1.76999998    2.64000010
   20.09472275   78.17900085    1.76999998    2.64000010
   20.10083389   78.17900085    1.85000002    2.66000009
   20.10499954   78.29000092    1.80999994    2.64000010
   20.10805511   78.50389862    1.76999998    2.64000010
   20.11138916   80.34429932    1.75000000    2.64000010
   20.11472321   80.65139771    1.75000000    2.64000010
   20.11777878   79.06320190    1.75000000    2.66000009
   20.12111092   75.01509857    1.76999998    2.64000010
   20.12361145   80.18379974    1.76999998    2.64000010
   20.12472153   77.72460175    1.75000000    2.64000010
   20.12777710   82.50379944    1.75000000    2.66000009
   20.13111115   76.71620178    1.73000002    2.64000010
   20.13416672   77.29989624    1.75000000    2.64000010
   20.13750076   76.57430267    1.75000000    2.64000010
   20.14361191   76.57430267    1.73000002    2.64000010
   20.14777756   76.08969879    1.73000002    2.64000010
   20.15111160   77.80130005    1.71000004    2.64000010
   20.15416718   81.25640106    1.73000002    2.64000010
   20.15694427   79.44190216    1.73000002    2.64000010
   20.15805435   82.33830261    1.73000002    2.64000010
   20.16110992   79.45159912    1.73000002    2.64000010
   20.16444397   75.24909973    1.73000002    2.64000010
   20.16777802   77.70999908    1.73000002    2.64000010
   20.17083359   76.75830078    1.73000002    2.64000010
   20.17416573   78.78739929    1.71000004    2.64000010
   20.17722130   77.66429901    1.71000004    2.64000010
   20.18055534   76.44960022    1.71000004    2.64000010
   20.18638802   76.44960022    1.73000002    2.64000010
   20.19055557   78.10030365    1.73000002    2.64000010
   20.19388771   81.00489807    1.73000002    2.64000010
   20.19694328   77.61969757    1.73000002    2.61999989
   20.20027924   75.77729797    1.73000002    2.64000010
   20.20361137   78.12740326    1.73000002    2.64000010
   20.20666695   76.80680084    1.73000002    2.64000010
   20.21000099   77.17849731    1.75000000    2.64000010
   20.21333504   79.73829651    1.75000000    2.61999989
   20.21638870   79.77590179    1.75000000    2.64000010
   20.21972275   79.61199951    1.75000000    2.64000010
   20.22277832   79.18119812    1.75000000    2.64000010
   20.22361183   77.99320221    1.75000000    2.64000010
   20.22944450   77.99320221    1.75000000    2.64000010
   20.23333359   79.91210175    1.75000000    2.64000010
   20.23666763   77.93800354    1.76999998    2.64000010
   20.23999977   77.90579987    1.76999998    2.61999989
   20.24305534   78.69550323    1.76999998    2.61999989
   20.24638939   84.48970032    1.78999996    2.61999989
   20.24972153   77.75140381    1.78999996    2.61999989
   20.25277710   75.27210236    1.78999996    2.61999989
   20.25611115   76.21730042    1.78999996    2.61999989
   20.25694466   77.51499939    1.78999996    2.61999989
   20.25972176   77.42900085    1.78999996    2.64000010
   20.26277733   77.52839661    1.78999996    2.61999989
   20.26611137   76.83869934    1.78999996    2.61999989
   20.27222252   76.83869934    1.78999996    2.61999989
   20.27638817   77.82689667    1.78999996    2.61999989
