    HOUR (UT)   FLARE FACTOR    SKY TESTER    SUN TESTER
   11.11444473   -1.00000000   -1.00000000   -1.00000000
   11.13472176  150.10099792    1.19000006    2.55999994
   11.13972187  141.59399414    1.16999996    2.55999994
   11.14388847  147.69900513    1.16999996    2.55999994
   11.14722252  136.11500549    1.16999996    2.55999994
   11.15027714   98.73190308    1.16999996    2.55999994
   11.15361118  142.27799988    1.16999996    2.55999994
   11.15694427  140.92199707    1.16999996    2.55999994
   11.15999985  154.35299683    1.14999998    2.55999994
   11.16333294  144.42399597    1.16999996    2.55999994
   11.16638851  145.94900513    1.16999996    2.55999994
   11.16805553  152.39799500    1.16999996    2.55999994
   11.17000008  143.71899414    1.16999996    2.55999994
   11.17333412  144.61099243    1.16999996    2.55999994
   11.17638874  142.38699341    1.14999998    2.55999994
   11.17972279  145.10600281    1.16999996    2.57999992
   11.18472195  146.12300110    1.14999998    2.55999994
   11.18805599  143.09100342    1.14999998    2.55999994
   11.19138908  140.83200073    1.14999998    2.57999992
   11.19444466  153.09800720    1.14999998    2.55999994
   11.19777775  140.79299927    1.16999996    2.57999992
   11.20083332  140.61500549    1.14999998    2.57999992
   11.20138836  137.73199463    1.14999998    2.57999992
   11.20499992  150.69099426    1.14999998    2.57999992
   11.20805550  147.64199829    1.14999998    2.57999992
   11.21138859  143.59899902    1.14999998    2.57999992
   11.21444416  139.80400085    1.14999998    2.59999990
   11.21777725  147.73800659    1.13000000    2.57999992
   11.22111034  139.42300415    1.13000000    2.57999992
   11.22416592  139.00300598    1.13000000    2.57999992
   11.22749996  137.31900024    1.13000000    2.57999992
   11.23083305  135.99299622    1.13000000    2.57999992
   11.23388958  138.44700623    1.14999998    2.57999992
   11.23472214  139.88499451    1.14999998    2.59999990
   11.23750019  143.54800415    1.14999998    2.57999992
   11.24083328  138.86199951    1.14999998    2.59999990
   11.24388885  144.03500366    1.13000000    2.57999992
   11.24722290  143.40400696    1.13000000    2.59999990
   11.25055599  135.24000549    1.13000000    2.59999990
   11.25361156  140.19900513    1.13000000    2.57999992
   11.25694466  133.32099915    1.13000000    2.59999990
   11.26000023  139.91299438    1.14999998    2.59999990
   11.26333332  139.30000305    1.13000000    2.59999990
   11.26666641  131.92500305    1.13000000    2.59999990
   11.26805496  136.86500549    1.13000000    2.59999990
   11.27027798  139.72000122    1.13000000    2.59999990
   11.27361107  134.61300659    1.13000000    2.59999990
   11.27666664  142.27799988    1.13000000    2.61999989
   11.27999973  133.89599609    1.14999998    2.59999990
   11.28333378  138.52099609    1.14999998    2.61999989
   11.28638935  136.72500610    1.14999998    2.59999990
   11.28972244  131.66799927    1.14999998    2.59999990
   11.29277802  136.00100708    1.14999998    2.61999989
   11.29611111  132.67199707    1.14999998    2.59999990
   11.29944515  129.20300293    1.14999998    2.59999990
   11.30138874  140.51300049    1.14999998    2.59999990
   11.30305576  136.69500732    1.13000000    2.59999990
   11.30638885  137.78599548    1.13000000    2.61999989
   11.30944443  137.85000610    1.14999998    2.61999989
   11.31277752  127.82900238    1.13000000    2.61999989
   11.31611156  139.99499512    1.13000000    2.61999989
   11.31916618  128.95399475    1.13000000    2.61999989
   11.32250023  134.91799927    1.13000000    2.59999990
   11.32555580  135.66499329    1.13000000    2.61999989
   11.32888889  134.14900208    1.13000000    2.61999989
   11.33222198  132.49699402    1.13000000    2.61999989
   11.33500004  132.89500427    1.13000000    2.59999990
   11.33583260  141.29699707    1.13000000    2.61999989
   11.33916664  134.66000366    1.13000000    2.61999989
   11.34222221  139.66799927    1.13000000    2.61999989
   11.34555531  132.35000610    1.13000000    2.61999989
   11.34888840  126.71900177    1.11000001    2.61999989
   11.35194492  127.52899933    1.11000001    2.61999989
   11.35527802  133.86500549    1.13000000    2.64000010
   11.35861111  137.07899475    1.11000001    2.64000010
   11.36166668  130.82200623    1.11000001    2.61999989
   11.36500072  130.61999512    1.13000000    2.61999989
   11.36833382  141.58799744    1.11000001    2.61999989
   11.36861134  136.69799805    1.11000001    2.61999989
   11.37194443  139.37199402    1.11000001    2.64000010
   11.37527752  143.88999939    1.11000001    2.61999989
   11.37833309  139.52200317    1.11000001    2.61999989
   11.38166714  132.99699402    1.11000001    2.64000010
   11.38500023  142.49499512    1.11000001    2.64000010
   11.38805580  170.94599915    1.11000001    2.64000010
   11.39138889  175.19700623    1.11000001    2.64000010
   11.39444447  161.36599731    1.09000003    2.64000010
   11.39777756  199.81799316    1.09000003    2.64000010
   11.40111065  185.60099792    1.09000003    2.64000010
   11.40166664  197.85499573    1.09000003    2.64000010
   11.40444374  208.20899963    1.09000003    2.64000010
   11.40777779  194.22500610    1.09000003    2.64000010
   11.41111088  200.76199341    1.09000003    2.64000010
   11.41416645  172.83299255    1.09000003    2.64000010
   11.41750050  177.57400513    1.09000003    2.64000010
   11.42055607  176.85600281    1.09000003    2.64000010
   11.42388916  184.63499451    1.09000003    2.64000010
   11.42722225  190.20300293    1.09000003    2.64000010
   11.43027782  174.00300598    1.09000003    2.66000009
   11.43361092  160.12899780    1.09000003    2.64000010
   11.43500042  196.73399353    1.09000003    2.64000010
   11.43722248  172.34599304    1.09000003    2.64000010
   11.44055557  161.67900085    1.09000003    2.66000009
   11.44388866  163.07499695    1.09000003    2.64000010
   11.44694424  164.38200378    1.09000003    2.64000010
   11.45027733  147.93200684    1.09000003    2.66000009
   11.45333290  160.78300476    1.09000003    2.64000010
   11.45666695  160.94700623    1.09000003    2.66000009
   11.46000004  168.30900574    1.09000003    2.66000009
   11.46305561  151.48899841    1.09000003    2.66000009
   11.46638870  164.98300171    1.09000003    2.66000009
   11.46833324  158.36799622    1.07000005    2.66000009
   11.46999931  156.04899597    1.09000003    2.64000010
   11.47333336  165.19900513    1.07000005    2.66000009
   11.47666645  144.74499512    1.07000005    2.66000009
   11.47972202  154.36199951    1.07000005    2.64000010
   11.48305511  156.70199585    1.07000005    2.66000009
   11.48611164  146.44799805    1.07000005    2.66000009
   11.48944473  145.18099976    1.07000005    2.66000009
   11.49277782  151.20500183    1.07000005    2.67000008
   11.49583340  143.29899597    1.07000005    2.66000009
   11.49916649  139.32400513    1.07000005    2.66000009
   11.50166702  144.43899536    1.07000005    2.66000009
   11.50277805  160.53100586    1.07000005    2.66000009
   11.50611115  133.94400024    1.05999994    2.66000009
   11.50944424  136.99800110    1.05999994    2.66000009
   11.51249981  153.64999390    1.05999994    2.67000008
   11.51583290  143.96400452    1.05999994    2.66000009
   11.51888847  135.98300171    1.05999994    2.67000008
   11.52222157  138.53399658    1.05999994    2.67000008
   11.52555561  138.31100464    1.05999994    2.67000008
   11.52861118  141.07600403    1.03999996    2.67000008
   11.53194427  138.34300232    1.03999996    2.67000008
   11.53500080  136.97099304    1.05999994    2.67000008
   11.53555584  130.59300232    1.05999994    2.67000008
   11.53888893  140.53100586    1.03999996    2.67000008
   11.54222298  139.36399841    1.03999996    2.67000008
   11.54527855  136.57200623    1.03999996    2.67000008
   11.54861164  144.94900513    1.03999996    2.67000008
   11.55166721  147.82099915    1.03999996    2.67000008
   11.55500031  148.49600220    1.03999996    2.67000008
   11.55833340  136.44000244    1.03999996    2.67000008
   11.56138897  138.21400452    1.03999996    2.67000008
   11.56472206  134.06500244    1.03999996    2.67000008
   11.56805515  138.31100464    1.03999996    2.69000006
   11.56833363  133.60600281    1.03999996    2.67000008
   11.57166672  146.96699524    1.03999996    2.67000008
   11.57499981  125.81999969    1.03999996    2.67000008
   11.57805538  127.65200043    1.03999996    2.67000008
   11.58138847  134.08799744    1.03999996    2.69000006
   11.58472157  129.14399719    1.03999996    2.69000006
   11.58777714  137.79400635    1.03999996    2.67000008
   11.59111118  133.64700317    1.03999996    2.67000008
   11.59444427  148.09700012    1.03999996    2.67000008
   11.59749985  136.21800232    1.03999996    2.69000006
   11.60083389  127.95600128    1.03999996    2.69000006
   11.60166740  137.34800720    1.01999998    2.67000008
   11.60472298  122.63300323    1.01999998    2.67000008
   11.60805607  126.15699768    1.01999998    2.69000006
   11.61138916  128.70300293    1.01999998    2.67000008
   11.61444473  128.11999512    1.03999996    2.69000006
   11.61777782  135.30499268    1.01999998    2.69000006
   11.62111092  130.69999695    1.01999998    2.69000006
   11.62416649  121.37400055    1.01999998    2.69000006
   11.62750053  122.33000183    1.00000000    2.69000006
   11.63055611  123.91799927    1.00000000    2.69000006
   11.63388920  121.54100037    0.98000002    2.69000006
   11.63500023  129.05499268    0.98000002    2.69000006
   11.63749981  130.54800415    0.98000002    2.69000006
   11.64083290  131.84800720    0.98000002    2.71000004
   11.64388847  124.88800049    0.98000002    2.69000006
   11.64722252  120.62000275    0.98000002    2.69000006
   11.65055561  131.08700562    0.98000002    2.71000004
   11.65361118  121.58599854    0.98000002    2.71000004
   11.65694427  131.55700684    0.98000002    2.69000006
   11.66027737  127.81600189    0.95999998    2.69000006
   11.66333294  131.74099731    0.95999998    2.69000006
   11.66666698  143.83700562    0.95999998    2.71000004
   11.66833401  135.59700012    0.95999998    2.69000006
   11.67027855  126.44000244    0.95999998    2.71000004
   11.67361164  133.23100281    0.95999998    2.71000004
   11.67666721  125.35299683    0.95999998    2.71000004
   11.68000031  144.64799500    0.95999998    2.71000004
   11.68333340  129.38400269    0.95999998    2.71000004
   11.68638897  134.49600220    0.94000000    2.71000004
   11.68972206  138.67300415    0.94000000    2.71000004
   11.69305515  133.23699951    0.94000000    2.71000004
   11.69611073  138.74200439    0.95999998    2.71000004
   11.69944477  122.54799652    0.94000000    2.71000004
   11.70166683  129.63999939    0.94000000    2.71000004
   11.70305538  144.44900513    0.94000000    2.71000004
   11.70638847  141.99499512    0.94000000    2.71000004
   11.70972157  135.08099365    0.95999998    2.71000004
   11.71305561  141.77200317    0.94000000    2.71000004
   11.71611118  127.67800140    0.94000000    2.69000006
   11.71944427  128.03100586    0.94000000    2.71000004
   11.72277737  133.63499451    0.94000000    2.71000004
   11.72583294  132.39300537    0.94000000    2.71000004
   11.72916603  132.83799744    0.94000000    2.71000004
   11.73249912  124.77200317    0.94000000    2.71000004
   11.73527813  128.68200684    0.94000000    2.71000004
   11.73611164  125.64700317    0.94000000    2.71000004
   11.73944473  123.55100250    0.94000000    2.71000004
   11.74250031  129.98899841    0.94000000    2.71000004
   11.74583340  123.57800293    0.94000000    2.71000004
   11.74916649  119.76899719    0.92000002    2.71000004
   11.75222206  123.98300171    0.92000002    2.71000004
   11.75555515  133.52600098    0.89999998    2.71000004
   11.75888920  122.17500305    0.89999998    2.71000004
   11.76194477  125.31099701    0.89999998    2.71000004
   11.76527786  120.40799713    0.89999998    2.71000004
   11.76861095  142.73599243    0.88000000    2.73000002
   11.76888847  116.67500305    0.88000000    2.73000002
   11.77222157  127.23600006    0.88000000    2.73000002
   11.77527714  129.63299561    0.88000000    2.71000004
   11.77861118  110.89299774    0.88000000    2.73000002
   11.78194427  132.13600159    0.88000000    2.73000002
   11.78500080  125.78199768    0.88000000    2.73000002
   11.78833389  120.98799896    0.88000000    2.73000002
   11.79166698  124.65299988    0.88000000    2.73000002
   11.79472256  123.31900024    0.88000000    2.73000002
   11.79805565  132.33299255    0.88000000    2.73000002
   11.80111122  125.17199707    0.88000000    2.73000002
   11.80194473  119.07199860    0.89999998    2.73000002
   11.80472279  120.89600372    0.89999998    2.73000002
   11.80805588  125.78500366    0.88000000    2.73000002
   11.81111145  128.35699463    0.88000000    2.73000002
   11.81444454  117.77899933    0.89999998    2.75000000
   11.81777763  131.22300720    0.89999998    2.73000002
   11.82083321  126.32399750    0.89999998    2.73000002
   11.82416630  126.84300232    0.89999998    2.73000002
   11.82750034  122.76000214    0.89999998    2.73000002
   11.83055592  123.09600067    0.89999998    2.73000002
   11.83388901  120.75399780    0.89999998    2.73000002
   11.83527756  125.83899689    0.89999998    2.73000002
   11.83749962  123.79499817    0.89999998    2.73000002
   11.84083271  125.05599976    0.89999998    2.75000000
   11.84416676  121.32399750    0.88000000    2.73000002
   11.84722233  121.90399933    0.88000000    2.75000000
   11.85055637  128.16200256    0.88000000    2.73000002
   11.85361195  120.72399902    0.88000000    2.73000002
   11.85694504  124.40299988    0.86000001    2.73000002
   11.86027813  122.07499695    0.88000000    2.73000002
   11.86333370  121.15299988    0.88000000    2.75000000
   11.86666679  125.54199982    0.86000001    2.73000002
   11.86861134  121.65000153    0.86000001    2.75000000
   11.87027836  118.37899780    0.86000001    2.75000000
   11.87361145  126.47499847    0.86000001    2.75000000
   11.87694454  125.16000366    0.83999997    2.75000000
   11.88000011  144.27200317    0.83999997    2.75000000
   11.88333321  116.01699829    0.86000001    2.75000000
   11.88638878  128.29800415    0.83999997    2.75000000
   11.88972187  123.59999847    0.83999997    2.73000002
   11.89305496  129.35899353    0.83999997    2.75000000
   11.89611053  121.10099792    0.83999997    2.73000002
   11.89944458  117.26300049    0.83999997    2.73000002
   11.90194416  129.38999939    0.83999997    2.75000000
   11.90305519  121.47899628    0.86000001    2.75000000
   11.90638828  123.42800140    0.83999997    2.75000000
   11.90972137  122.59200287    0.83999997    2.75000000
   11.91277695  124.40100098    0.86000001    2.75000000
   11.91611099  118.93900299    0.83999997    2.75000000
   11.91916656  122.97399902    0.83999997    2.75000000
   11.92250061  120.33499908    0.83999997    2.75000000
   11.92583370  116.70099640    0.81999999    2.75000000
   11.92888927  119.90799713    0.83999997    2.76999998
   11.93222237  123.86199951    0.81999999    2.75000000
   11.93527794  119.35099792    0.81999999    2.75000000
   11.93583298  109.27400208    0.81999999    2.75000000
   11.93916702  116.14700317    0.81999999    2.75000000
   11.94250011  114.68099976    0.81999999    2.76999998
   11.94555569  117.99400330    0.81999999    2.75000000
   11.94888878  117.47799683    0.81999999    2.75000000
   11.95194435  114.20200348    0.81999999    2.76999998
   11.95527744  117.92099762    0.81999999    2.75000000
   11.95861053  124.71099854    0.81999999    2.76999998
   11.96166611  114.54799652    0.81999999    2.75000000
   11.96500015  113.68099976    0.81999999    2.76999998
   11.96833324  117.63600159    0.81999999    2.75000000
   11.96861076   99.88780212    0.81999999    2.75000000
   11.97194386  108.76499939    0.81999999    2.75000000
   11.97527695  116.26599884    0.81999999    2.76999998
   11.97833252  115.33000183    0.81999999    2.76999998
   11.98166656  112.11699677    0.81999999    2.76999998
   11.98500061  113.71600342    0.81999999    2.75000000
   11.98805618  117.09500122    0.81999999    2.75000000
   11.99138927  116.10099792    0.81999999    2.75000000
   11.99472237  112.72499847    0.81999999    2.75000000
   11.99777794  107.43599701    0.81999999    2.76999998
   12.00111103  116.57299805    0.81999999    2.76999998
   12.00194454  115.31300354    0.81999999    2.76999998
   12.00500011  110.48400116    0.80000001    2.76999998
   12.00805569  109.65699768    0.80000001    2.76999998
   12.01138878  112.20099640    0.80000001    2.78999996
   12.01472187  115.40100098    0.79000002    2.76999998
   12.01777744  114.91400146    0.79000002    2.76999998
   12.02111053  111.56999969    0.79000002    2.78999996
   12.02444458  111.04499817    0.76999998    2.76999998
   12.02750015  111.49099731    0.79000002    2.76999998
   12.03083324  107.84400177    0.79000002    2.76999998
   12.03388977  111.99400330    0.76999998    2.78999996
   12.03527832  105.87300110    0.79000002    2.76999998
   12.03750038  110.86000061    0.79000002    2.76999998
   12.04083347   99.59790039    0.79000002    2.76999998
   12.04388905  105.62500000    0.79000002    2.76999998
   12.04722309  113.68199921    0.79000002    2.76999998
   12.05055618  109.25599670    0.79000002    2.76999998
   12.05388927  105.50000000    0.79000002    2.78999996
   12.05694485  108.78900146    0.79000002    2.78999996
   12.06027794  114.20200348    0.80000001    2.76999998
   12.06333351  108.42900085    0.80000001    2.78999996
   12.06666660  105.68599701    0.80000001    2.78999996
   12.06861115  110.13200378    0.80000001    2.78999996
   12.07027817  112.55100250    0.80000001    2.76999998
   12.07361126  110.13300323    0.80000001    2.78999996
   12.07666683  118.11900330    0.80000001    2.76999998
   12.07999992  110.28399658    0.80000001    2.76999998
   12.08333302  117.43299866    0.80000001    2.78999996
   12.08638859  104.91100311    0.80000001    2.78999996
   12.08972168  109.49900055    0.80000001    2.78999996
   12.09305477  118.37999725    0.79000002    2.78999996
   12.09611034  118.37899780    0.80000001    2.78999996
   12.09944439  112.06400299    0.80000001    2.78999996
   12.10222244  113.76200104    0.80000001    2.76999998
   12.10305595  116.00099945    0.79000002    2.78999996
   12.10638905  113.69599915    0.79000002    2.78999996
   12.10972214  119.27999878    0.80000001    2.78999996
   12.11277771  110.73300171    0.80000001    2.78999996
   12.11611176  117.82099915    0.79000002    2.78999996
   12.11944485  115.76200104    0.79000002    2.76999998
   12.12250042  104.84600067    0.79000002    2.78999996
   12.12583351  122.15299988    0.79000002    2.78999996
   12.12888908  115.51000214    0.76999998    2.78999996
   12.13222218  107.81199646    0.76999998    2.78999996
   12.15138817  116.85500336    0.76999998    2.78999996
   12.15194416  114.45800018    0.76999998    2.78999996
   12.15527725  104.11100006    0.76999998    2.78999996
   12.15833282  106.54000092    0.76999998    2.80999994
   12.16166592  108.30500031    0.76999998    2.78999996
   12.16499996  113.34500122    0.79000002    2.80999994
   12.16805553  115.24299622    0.76999998    2.76999998
   12.17138958  110.61100006    0.76999998    2.78999996
   12.17472267  106.47000122    0.79000002    2.78999996
   12.17777824  109.24400330    0.76999998    2.78999996
   12.18111134  114.93299866    0.79000002    2.78999996
   12.18416691  113.85099792    0.76999998    2.76999998
   12.18472195  128.00000000    0.76999998    2.76999998
   12.18805599  114.00000000    0.76999998    2.78999996
   12.19138908  116.43800354    0.76999998    2.78999996
   12.19444466  108.32399750    0.76999998    2.78999996
   12.19777775  117.22200012    0.76999998    2.80999994
   12.20111084  125.16699982    0.76999998    2.78999996
   12.20416641  113.15599823    0.76999998    2.80999994
   12.20749950  124.10500336    0.76999998    2.78999996
   12.21083355  109.55999756    0.76999998    2.80999994
   12.21388912  121.19899750    0.76999998    2.82999992
   12.21722221  115.97899628    0.76999998    2.80999994
   12.21805477  134.28599548    0.76999998    2.80999994
   12.22083282  124.87200165    0.76999998    2.78999996
   12.22416592  118.71299744    0.75000000    2.80999994
   12.22749996  118.63099670    0.76999998    2.80999994
   12.23055553  117.77700043    0.76999998    2.80999994
   12.23388958  112.56800079    0.76999998    2.80999994
   12.23694515  119.61299896    0.75000000    2.80999994
   12.24027824  125.46900177    0.75000000    2.78999996
   12.24361134  122.02700043    0.75000000    2.80999994
   12.24722290  114.24900055    0.75000000    2.80999994
   12.25027752  119.32599640    0.75000000    2.82999992
   12.25138855  110.95700073    0.73000002    2.82999992
   12.25388908  123.84600067    0.73000002    2.80999994
   12.25722218  128.38000488    0.73000002    2.80999994
   12.26027775  112.64900208    0.73000002    2.80999994
   12.26361084  115.16600037    0.73000002    2.80999994
   12.26694393  124.06400299    0.73000002    2.80999994
   12.26999950  123.95099640    0.73000002    2.80999994
   12.27333355  128.83099365    0.73000002    2.82999992
   12.27666664  126.09799957    0.73000002    2.80999994
   12.27972221  118.40100098    0.73000002    2.80999994
   12.28305531  116.37100220    0.70999998    2.80999994
   12.28472233  122.20600128    0.70999998    2.80999994
   12.28666687  115.18299866    0.70999998    2.82999992
   12.29000092  121.70099640    0.73000002    2.80999994
   12.29305553  120.26999664    0.70999998    2.80999994
   12.29638958  109.81600189    0.73000002    2.80999994
   12.29972267  111.00900269    0.70999998    2.82999992
   12.30277824  112.87599945    0.73000002    2.82999992
   12.30611134  118.51699829    0.70999998    2.82999992
   12.30944443  119.12699890    0.73000002    2.82999992
   12.31250000  118.70400238    0.73000002    2.80999994
   12.31583309  120.74099731    0.75000000    2.80999994
   12.31805515  116.02700043    0.75000000    2.82999992
   12.31944466  120.20099640    0.75000000    2.82999992
   12.32277775  116.08000183    0.75000000    2.82999992
   12.32583332  121.87000275    0.73000002    2.80999994
   12.32916641  122.18599701    0.73000002    2.80999994
   12.33249950  128.92799377    0.73000002    2.82999992
   12.33555508  113.91899872    0.73000002    2.80999994
   12.33888817  121.81199646    0.75000000    2.80999994
   12.34194374  120.07499695    0.73000002    2.82999992
   12.34527779  117.58000183    0.75000000    2.82999992
   12.34861088  125.36399841    0.73000002    2.80999994
   12.35166740  114.95800018    0.75000000    2.82999992
   12.35222244  126.50800323    0.75000000    2.82999992
   12.35555553  122.91400146    0.73000002    2.80999994
   12.35861111  119.83200073    0.75000000    2.82999992
   12.36194515  127.01999664    0.73000002    2.80999994
   12.36527824  123.73300171    0.73000002    2.80999994
   12.36833382  123.61699677    0.73000002    2.82999992
   12.37166691  115.66699982    0.73000002    2.80999994
   12.37500000  111.29000092    0.75000000    2.82999992
   12.37805557  125.34600067    0.75000000    2.80999994
   12.38138866  117.24600220    0.75000000    2.82999992
   12.38444424  131.88699341    0.75000000    2.84999990
   12.38500023  121.47399902    0.75000000    2.80999994
   12.38833332  120.82700348    0.75000000    2.82999992
   12.39166641  116.48200226    0.73000002    2.80999994
   12.39472198  123.10800171    0.73000002    2.80999994
   12.39805508  118.61299896    0.73000002    2.82999992
   12.40138817  123.47799683    0.75000000    2.82999992
   12.40444374  116.72699738    0.73000002    2.82999992
   12.40777779  121.28800201    0.73000002    2.82999992
   12.41083336  122.44400024    0.75000000    2.82999992
   12.41416645  120.23400116    0.73000002    2.82999992
   12.41750050  122.42400360    0.73000002    2.82999992
   12.41833401  108.46600342    0.73000002    2.82999992
   12.42111111  123.44499969    0.73000002    2.82999992
   12.42444515  129.86700439    0.70999998    2.82999992
   12.42750072  121.83899689    0.70999998    2.82999992
   12.43083382  119.60500336    0.70999998    2.82999992
   12.43388939  125.58799744    0.70999998    2.82999992
   12.43722248  108.19000244    0.70999998    2.82999992
   12.44055557  127.17600250    0.70999998    2.84999990
   12.44361115  128.41200256    0.70999998    2.82999992
   12.44694424  123.33300018    0.70999998    2.84999990
   12.45027733  121.66000366    0.70999998    2.82999992
   12.45166683  129.00199890    0.70999998    2.82999992
   12.45388889  122.84700012    0.70999998    2.84999990
   12.45722198  122.90200043    0.70999998    2.82999992
   12.46027756  122.38300323    0.70999998    2.82999992
   12.46361065  116.77100372    0.70999998    2.82999992
   12.46694374  116.47899628    0.70999998    2.84999990
   12.46999931  128.90199280    0.70999998    2.84999990
   12.47333336  117.70700073    0.70999998    2.82999992
   12.47666645  120.92600250    0.70999998    2.82999992
   12.47972202  127.26599884    0.70999998    2.84999990
   12.48305511  119.70800018    0.73000002    2.84999990
   12.48500061  118.82099915    0.73000002    2.82999992
   12.48666668  120.47200012    0.73000002    2.82999992
   12.49000072  129.96899414    0.75000000    2.84999990
   12.49305534  128.97000122    0.75000000    2.84999990
   12.49638939  112.29499817    0.75000000    2.84999990
   12.49944496  135.63600159    0.76999998    2.82999992
   12.50277805  135.79499817    0.76999998    2.82999992
   12.50611115  108.74299622    0.76999998    2.82999992
   12.50916672  120.01200104    0.79000002    2.82999992
   12.51249981  115.13600159    0.76999998    2.84999990
   12.51583290  124.15100098    0.76999998    2.84999990
   12.51833344  114.43900299    0.76999998    2.84999990
   12.51944447  117.98799896    0.79000002    2.84999990
   12.52277756  123.12799835    0.79000002    2.82999992
   12.52583313  119.26399994    0.79000002    2.82999992
   12.52916622  126.15599823    0.76999998    2.84999990
   12.53249931  124.60500336    0.79000002    2.84999990
   12.53555584  137.44700623    0.79000002    2.84999990
   12.53888893  119.59300232    0.79000002    2.82999992
   12.54222298  121.82499695    0.79000002    2.84999990
   12.54527855  122.98799896    0.79000002    2.82999992
   12.54861164  130.13900757    0.79000002    2.84999990
   12.55166721  123.47799683    0.79000002    2.82999992
   12.55222225  124.67600250    0.79000002    2.82999992
   12.55555534  126.48400116    0.79000002    2.84999990
   12.55861092  117.37400055    0.79000002    2.84999990
   12.56194496  114.26000214    0.79000002    2.84999990
   12.56527805  129.91299438    0.76999998    2.82999992
   12.56833363  124.44799805    0.79000002    2.82999992
   12.57166672  126.93000031    0.76999998    2.84999990
   12.57499981  126.68000031    0.76999998    2.84999990
   12.57805538  127.80300140    0.76999998    2.84999990
   12.58138847  115.50800323    0.76999998    2.84999990
   12.58472157  121.96900177    0.76999998    2.82999992
   12.58527756  112.12500000    0.76999998    2.82999992
   12.58805561  131.67799377    0.76999998    2.84999990
   12.59138870  118.30699921    0.76999998    2.84999990
   12.59444427  118.18900299    0.79000002    2.84999990
   12.59777737  121.64099884    0.76999998    2.84999990
   12.60111141  124.56700134    0.76999998    2.84999990
   12.60416698  136.81399536    0.76999998    2.82999992
   12.60750008  132.77900696    0.76999998    2.86999989
   12.61083412  126.92800140    0.76999998    2.84999990
   12.61388969  126.21199799    0.79000002    2.84999990
   12.61722279  120.09799957    0.76999998    2.84999990
   12.61861134  136.02099609    0.76999998    2.84999990
   12.62083340  139.78700256    0.76999998    2.84999990
   12.62527752  132.93600464    0.79000002    2.84999990
   12.73750019   -1.00000000   -1.00000000   -1.00000000
   12.82999992   -1.00000000   -1.00000000   -1.00000000
   12.92805576   -1.00000000   -1.00000000   -1.00000000
   13.02222157   -1.00000000   -1.00000000   -1.00000000
   13.11777782   -1.00000000   -1.00000000   -1.00000000
   13.21527767   -1.00000000   -1.00000000   -1.00000000
   13.31138897   -1.00000000   -1.00000000   -1.00000000
   13.41055489   -1.00000000   -1.00000000   -1.00000000
   13.51111126   -1.00000000   -1.00000000   -1.00000000
   13.59277725   70.92019653    0.94000000    2.91000009
   13.59611034  125.90100098    0.94000000    2.91000009
   13.59944439  126.82800293    0.92000002    2.91000009
   13.60249996  119.41400146    0.94000000    2.91000009
   13.60583401  109.44799805    0.92000002    2.91000009
   13.60916710  117.45999908    0.92000002    2.91000009
   13.61333370  117.45999908    0.92000002    2.91000009
   13.61722279  116.90000153    0.89999998    2.91000009
   13.62055588  116.94699860    0.92000002    2.91000009
   13.62388897  114.63700104    0.92000002    2.91000009
   13.62611103  114.08399963    0.92000002    2.91000009
   13.62750053  115.16600037    0.92000002    2.93000007
   13.63083363  109.75700378    0.95999998    2.91000009
   13.63388920  113.55599976    0.95999998    2.93000007
   13.63722229  117.48500061    0.95999998    2.93000007
   13.64027786  128.00700378    0.98000002    2.91000009
   13.64361095  112.24700165    0.98000002    2.91000009
   13.64694405  113.79000092    0.95999998    2.91000009
   13.64999962  123.02700043    0.94000000    2.91000009
   13.65611076  123.02700043    0.89999998    2.93000007
   13.66027737  113.77999878    0.88000000    2.93000007
   13.66333294  110.18800354    0.89999998    2.93000007
   13.66666698  110.20800018    0.92000002    2.91000009
   13.67000008  115.16100311    0.95999998    2.91000009
   13.67305565  112.66899872    1.07000005    2.93000007
   13.67638874  116.19899750    1.07000005    2.91000009
   13.67944431  114.70099640    1.03999996    2.91000009
   13.68277836  118.39499664    1.03999996    2.91000009
   13.68611145  110.99900055    0.98000002    2.93000007
   13.68916702  114.83499908    0.98000002    2.91000009
   13.69250011  116.45700073    0.98000002    2.91000009
   13.69305515  114.31999969    0.98000002    2.91000009
   13.69888878  114.31999969    0.98000002    2.93000007
   13.70305538  117.68900299    0.95999998    2.91000009
   13.70638847  116.50599670    0.95999998    2.91000009
   13.70944405  114.65599823    0.94000000    2.93000007
   13.71277714  115.75800323    0.94000000    2.93000007
   13.71583271  116.36699677    0.98000002    2.91000009
   13.71916580  108.48799896    0.95999998    2.93000007
   13.72249985  102.46499634    0.95999998    2.91000009
   13.72555542  122.47200012    0.95999998    2.91000009
   13.72638798  122.61799622    0.95999998    2.91000009
   13.72944355  113.80799866    0.94000000    2.93000007
   13.73249912  113.80200195    0.89999998    2.93000007
   13.73583317  114.83100128    0.88000000    2.93000007
   13.74166679  114.83100128    0.88000000    2.93000007
   13.74583340  129.29499817    0.94000000    2.93000007
   13.74916649  117.31199646    0.92000002    2.93000007
   13.75222206  117.54699707    0.92000002    2.91000009
   13.75555515  121.86000061    0.92000002    2.93000007
   13.75888920  114.39399719    0.89999998    2.91000009
   13.75972176  111.20099640    0.88000000    2.93000007
   13.76249981  105.90100098    0.88000000    2.93000007
   13.76555538  111.24900055    0.88000000    2.93000007
   13.76888847  105.00299835    0.86000001    2.93000007
   13.77222157  115.83699799    0.86000001    2.93000007
   13.77527714  112.08699799    0.83999997    2.93000007
   13.77861118  107.25299835    0.83999997    2.94000006
   13.78472233  107.25299835    0.86000001    2.93000007
   13.78888893  212.63200378    0.92000002    2.93000007
   13.79194450  108.98600006    1.00000000    2.93000007
   13.79305553  111.75299835    1.09000003    2.91000009
   13.79583359  116.66200256    1.09000003    2.93000007
   13.79888916  117.89299774    1.25000000    2.91000009
   13.80222225  120.05100250    1.26999998    2.91000009
   13.80527782  107.23600006    1.34000003    2.91000009
   13.80861092  111.51000214    1.34000003    2.91000009
   13.81194496  112.22899628    1.41999996    2.91000009
   13.81500053  111.42800140    1.41999996    2.91000009
   13.81833363  113.46800232    1.41999996    2.91000009
   13.82166672  108.26799774    1.44000006    2.91000009
   13.82750034  108.26799774    1.51999998    2.91000009
   13.83166695  123.82700348    1.53999996    2.93000007
   13.83472157  123.50099945    1.55999994    2.91000009
   13.83805561  116.69999695    1.55999994    2.91000009
   13.84138870  111.67900085    1.50000000    2.91000009
   13.84444427  108.07900238    1.46000004    2.89000010
   13.84777737  113.18399811    1.41999996    2.91000009
   13.85083389  119.42099762    1.41999996    2.91000009
   13.85416698  114.31199646    1.39999998    2.91000009
   13.85750008  117.18199921    1.39999998    2.91000009
   13.85972214  117.45400238    1.39999998    2.91000009
   13.86111164  120.70999908    1.33000004    2.93000007
   13.86416721  117.68000031    1.33000004    2.91000009
   13.87027836  117.68000031    1.36000001    2.91000009
   13.87444496  104.48100281    1.44000006    2.93000007
   13.87777805  107.73300171    1.46000004    2.91000009
   13.88083363  111.59999847    1.46000004    2.91000009
   13.88416672  112.37799835    1.39999998    2.91000009
   13.88722229  117.64800262    1.39999998    2.91000009
   13.89055538  114.65899658    1.38000000    2.91000009
   13.89305496  115.52600098    1.39999998    2.91000009
   13.89444447  114.77600098    1.39999998    2.91000009
   13.89750004  111.79599762    1.38000000    2.93000007
   13.90083313  118.86199951    1.38000000    2.91000009
   13.90416622  116.08899689    1.38000000    2.91000009
   13.90722179  109.14199829    1.33000004    2.91000009
   13.91305542  109.14199829    1.11000001    2.93000007
   13.91722298  107.45400238    1.07000005    2.93000007
   13.92055607  118.05200195    0.98000002    2.91000009
   13.92361164  116.83799744    0.98000002    2.93000007
   13.92638874  118.12300110    1.00000000    2.93000007
   13.92750072  112.57700348    0.98000002    2.93000007
   13.93055630  116.49700165    1.05999994    2.91000009
   13.93388939  118.29399872    1.05999994    2.93000007
   13.93722248  123.91600037    1.11000001    2.93000007
   13.94027805  115.30599976    1.13000000    2.93000007
   13.94361115  108.35099792    1.14999998    2.93000007
   13.94694424  109.52899933    1.14999998    2.93000007
   13.94999981  113.11100006    1.14999998    2.93000007
   13.95611095  113.11100006    1.16999996    2.93000007
   13.96000004  108.92500305    1.14999998    2.91000009
   13.96333313  105.74800110    1.13000000    2.93000007
   13.96666622  107.40599823    1.13000000    2.93000007
   13.96972179  107.57900238    1.09000003    2.91000009
   13.97305489  105.81999969    1.07000005    2.91000009
   13.97638798  112.38600159    1.07000005    2.91000009
   13.97944355  108.71900177    1.07000005    2.93000007
   13.98277760  119.76699829    1.09000003    2.93000007
   13.98611164  104.50599670    1.09000003    2.93000007
   13.98916721  109.59400177    1.05999994    2.91000009
   13.99250031  117.13899994    1.05999994    2.91000009
   13.99305534  118.32800293    1.03999996    2.93000007
   13.99888897  118.32800293    1.01999998    2.93000007
   14.00305557  107.41799927    1.01999998    2.93000007
   14.00611115  108.81300354    1.01999998    2.93000007
   14.00944424  113.18900299    1.01999998    2.91000009
   14.01277733  118.29599762    1.05999994    2.93000007
   14.01583290  116.68299866    1.05999994    2.93000007
   14.01916599  110.74400330    0.98000002    2.94000006
   14.02250004  109.09899902    0.95999998    2.93000007
   14.02555561  113.90899658    0.83999997    2.93000007
   14.02638817  124.29699707    0.83999997    2.93000007
   14.02944374  109.25399780    0.81999999    2.93000007
   14.03249931  109.10099792    0.81999999    2.93000007
   14.03583336  120.88700104    0.80000001    2.93000007
   14.04166698  120.88700104    0.86000001    2.93000007
   14.04583359  114.39399719    0.88000000    2.93000007
   14.04916668  110.39800262    0.83999997    2.93000007
   14.05222225  120.68199921    0.83999997    2.93000007
   14.05555534  115.58699799    0.81999999    2.94000006
   14.05861092  115.74700165    0.81999999    2.93000007
   14.05972195  108.91699982    0.81999999    2.93000007
   14.06250000  113.24400330    0.83999997    2.94000006
   14.06555557  112.34200287    0.80000001    2.94000006
   14.06888866  115.60700226    0.86000001    2.93000007
   14.07222176  113.82599640    0.86000001    2.93000007
   14.07527733  112.28399658    0.83999997    2.94000006
   14.07861137  110.67700195    0.83999997    2.93000007
   14.08444405  110.67700195    0.92000002    2.91000009
   14.08861065  110.41799927    0.92000002    2.93000007
   14.09194374  107.87899780    0.94000000    2.93000007
   14.09305477  102.23200226    0.94000000    2.93000007
   14.09555531  109.60600281    0.94000000    2.91000009
   14.09861088  107.41799927    0.94000000    2.93000007
   14.10194492  117.32399750    0.94000000    2.93000007
   14.10527802  110.67900085    0.95999998    2.93000007
   14.10833359  111.78399658    0.98000002    2.93000007
   14.11166668  110.04499817    1.00000000    2.93000007
   14.11472225  113.11599731    1.01999998    2.93000007
   14.11805534  118.24299622    1.00000000    2.93000007
   14.12138939  113.30100250    1.00000000    2.94000006
   14.12750053  113.30100250    1.00000000    2.93000007
   14.13138866  114.26200104    1.00000000    2.94000006
   14.13472176  114.43099976    0.98000002    2.93000007
   14.13805580  114.29900360    0.95999998    2.94000006
   14.14111137  109.24299622    0.95999998    2.94000006
   14.14444447  115.34100342    0.95999998    2.93000007
   14.14777756  116.49800110    0.89999998    2.93000007
   14.15083313  117.08499908    0.94000000    2.93000007
   14.15416622  115.80100250    0.95999998    2.94000006
   14.15722179  108.86100006    0.92000002    2.93000007
   14.15972137  115.07399750    0.92000002    2.93000007
   14.16111088  114.41999817    0.92000002    2.94000006
   14.16416645  114.08300018    0.94000000    2.94000006
   14.17027855  114.08300018    1.00000000    2.93000007
   14.17444515  116.00000000    1.05999994    2.93000007
   14.17750072  111.19599915    1.05999994    2.93000007
   14.18083382  118.52600098    1.07000005    2.93000007
   14.18388939  114.89600372    1.09000003    2.93000007
   14.18722248  110.35399628    1.09000003    2.93000007
   14.19055557  112.09799957    1.09000003    2.93000007
   14.19305515  112.24700165    1.09000003    2.93000007
   14.19416714  109.69999695    1.07000005    2.93000007
   14.19722271  111.60700226    1.07000005    2.93000007
   14.20055580  105.82099915    1.07000005    2.93000007
   14.20388889  115.19599915    1.03999996    2.93000007
   14.20694447  112.02300262    1.03999996    2.94000006
   14.21305561  112.02300262    1.05999994    2.93000007
   14.21722221  114.84600067    1.05999994    2.93000007
   14.22055531  112.17700195    1.09000003    2.93000007
   14.22361088  113.43099976    1.09000003    2.93000007
   14.22638798  116.19599915    1.05999994    2.93000007
   14.22749996  112.01200104    1.05999994    2.93000007
   14.23055553  111.11799622    1.03999996    2.93000007
   14.23388958  112.67199707    1.03999996    2.93000007
   14.23722267  115.93699646    1.01999998    2.93000007
   14.24027824  116.26499939    1.01999998    2.93000007
   14.24361134  110.71499634    1.00000000    2.93000007
   14.24666691  114.52799988    0.98000002    2.93000007
   14.25000000  110.41500092    0.94000000    2.93000007
   14.25583363  110.41500092    0.86000001    2.93000007
   14.26000023  106.60399628    0.83999997    2.94000006
   14.26333332  107.51300049    0.83999997    2.93000007
   14.26638889  107.73699951    0.83999997    2.93000007
   14.26972198  109.09100342    0.75000000    2.94000006
   14.27305508  110.35299683    0.73000002    2.94000006
   14.27611065  114.02600098    0.73000002    2.94000006
   14.27944374  111.72499847    0.69000000    2.94000006
   14.28277779  113.34100342    0.67000002    2.94000006
   14.28583336  111.18699646    0.67000002    2.94000006
   14.28916740  110.81800079    0.64999998    2.94000006
   14.29250050  110.74800110    0.69000000    2.94000006
   14.29305553  116.71700287    0.69000000    2.94000006
   14.29861164  116.71700287    0.73000002    2.93000007
   14.30277824  109.59300232    0.73000002    2.94000006
   14.30611134  109.04900360    0.75000000    2.94000006
   14.30944443  108.50299835    0.75000000    2.94000006
   14.31250000  111.08399963    0.75000000    2.94000006
   14.31583309  111.55699921    0.76999998    2.94000006
   14.31888866  108.66999817    0.75000000    2.94000006
   14.32222176  108.81800079    0.75000000    2.94000006
   14.32555580  106.88899994    0.75000000    2.94000006
   14.32638836  114.84600067    0.76999998    2.94000006
   14.32916641  106.68800354    0.79000002    2.93000007
   14.33222198  109.51399994    0.81999999    2.94000006
   14.33555508  112.84300232    0.81999999    2.93000007
   14.34166622  112.84300232    0.81999999    2.94000006
   14.34583282  121.47699738    0.81999999    2.94000006
   14.34888840  109.70800018    0.79000002    2.93000007
   14.35222244  111.20600128    0.79000002    2.94000006
   14.35527802  115.11699677    0.79000002    2.93000007
   14.35861111  114.19699860    0.79000002    2.93000007
   14.35972214  117.87999725    0.79000002    2.94000006
   14.36222267  117.39900208    0.79000002    2.94000006
   14.36527824  115.22399902    0.76999998    2.94000006
   14.36861134  114.80400085    0.76999998    2.94000006
   14.37194443  116.89499664    0.80000001    2.94000006
   14.37500000  115.94499969    0.80000001    2.94000006
   14.37833309  115.42500305    0.80000001    2.94000006
   14.38444424  115.42500305    0.79000002    2.93000007
   14.38861084  110.72599792    0.76999998    2.94000006
   14.39166641  115.01100159    0.75000000    2.94000006
   14.39305496  117.36499786    0.73000002    2.94000006
   14.39555550  109.47699738    0.73000002    2.94000006
   14.39861107  116.13400269    0.70999998    2.94000006
   14.40194416  113.60500336    0.69000000    2.94000006
   14.40527725  111.71800232    0.63000000    2.96000004
   14.40833282  113.51200104    0.61000001    2.96000004
   14.41166592  107.92800140    0.61000001    2.96000004
   14.41499996  114.39099884    0.58999997    2.94000006
   14.41805553  109.77500153    0.58999997    2.94000006
   14.42138958  112.69100189    0.58999997    2.94000006
   14.42722225  112.69100189    0.58999997    2.94000006
   14.43138885  112.87799835    0.58999997    2.94000006
   14.43472195  114.10399628    0.56999999    2.94000006
   14.43777752  112.75299835    0.58999997    2.96000004
   14.44111156  115.16999817    0.55000001    2.96000004
   14.44444466  116.88600159    0.56999999    2.94000006
   14.44750023  114.90000153    0.55000001    2.94000006
   14.45083332  114.49299622    0.56999999    2.94000006
   14.45388889  115.56400299    0.55000001    2.94000006
   14.45722198  126.95300293    0.55000001    2.96000004
   14.45972157  117.96900177    0.56999999    2.96000004
   14.46083355  121.63999939    0.55000001    2.94000006
   14.46388912  112.05899811    0.55000001    2.94000006
   14.46999931  112.05899811    0.56999999    2.96000004
   14.47416592  113.62999725    0.56999999    2.96000004
   14.47749996  113.76499939    0.56999999    2.94000006
   14.48083305  111.65599823    0.56999999    2.94000006
   14.48388958  113.40100098    0.56999999    2.94000006
   14.48722267  119.50399780    0.61000001    2.94000006
   14.49027824  124.99500275    0.61000001    2.94000006
   14.49305534  126.17800140    0.61000001    2.94000006
   14.49416733  117.62100220    0.61000001    2.94000006
   14.49750042  121.87200165    0.63000000    2.94000006
   14.50055599  123.24600220    0.63000000    2.94000006
   14.50388908  127.05799866    0.64999998    2.94000006
   14.50694466  130.39799500    0.63000000    2.94000006
   14.51305580  130.39799500    0.63000000    2.94000006
   14.51722240  123.95099640    0.61000001    2.94000006
   14.52027798  118.01100159    0.61000001    2.96000004
   14.52361107  119.74500275    0.58999997    2.94000006
   14.52638817  124.94899750    0.61000001    2.94000006
   14.52722168  118.97799683    0.61000001    2.96000004
   14.53055573  123.93099976    0.58999997    2.96000004
   14.53361130  124.02200317    0.58999997    2.94000006
   14.53694534  119.69699860    0.58999997    2.94000006
   14.54000092  116.85900116    0.58999997    2.94000006
   14.54333401  113.13600159    0.58999997    2.96000004
   14.54666710  120.16400146    0.61000001    2.94000006
   14.54972267  112.07399750    0.58999997    2.96000004
   14.55583382  112.07399750    0.58999997    2.94000006
   14.56000042  120.87300110    0.56999999    2.96000004
   14.56305599  118.25000000    0.55000001    2.96000004
   14.56638908  119.08799744    0.52999997    2.94000006
   14.56972218  116.59500122    0.55000001    2.94000006
   14.57277775  119.14800262    0.52999997    2.96000004
   14.57611084  114.52600098    0.51999998    2.96000004
   14.57944393  120.71099854    0.52999997    2.96000004
   14.58249950  110.09999847    0.52999997    2.94000006
   14.58583260  119.64199829    0.52999997    2.96000004
   14.58916664  121.60299683    0.55000001    2.96000004
   14.59222221  116.79599762    0.56999999    2.98000002
   14.59305477  121.64900208    0.56999999    2.94000006
   14.61388969  121.64900208    0.61000001    2.96000004
   14.61805534  125.03700256    0.63000000    2.94000006
   14.62111092  120.07299805    0.63000000    2.94000006
   14.62444496  120.40699768    0.79000002    2.94000006
   14.62638855  128.95100403    0.79000002    2.94000006
   14.62805557  123.64800262    0.79000002    2.94000006
   14.63138866  121.15799713    0.81999999    2.94000006
   14.63444424  117.62699890    0.81999999    2.94000006
   14.63777733  122.73699951    0.81999999    2.94000006
   14.64083290  118.91600037    0.86000001    2.94000006
   14.64416695  116.27799988    0.83999997    2.94000006
   14.64750004  124.55500031    0.80000001    2.94000006
   14.65055561  118.02100372    0.79000002    2.94000006
   14.65666676  118.02100372    0.76999998    2.94000006
   14.66083336  120.47000122    0.75000000    2.94000006
   14.66388893  117.67500305    0.73000002    2.94000006
   14.66722298  115.93699646    0.73000002    2.94000006
   14.67055607  121.62300110    0.73000002    2.94000006
   14.67361164  120.07900238    0.73000002    2.94000006
   14.67694473  130.13000488    0.75000000    2.94000006
   14.68000031  111.89299774    0.75000000    2.94000006
   14.68333340  109.91300201    0.73000002    2.94000006
   14.68666649  120.59100342    0.73000002    2.94000006
   14.68972206  113.61799622    0.73000002    2.94000006
   14.69305515  116.90699768    0.76999998    2.94000006
   14.69361115  114.44899750    0.76999998    2.94000006
   14.69944477  114.44899750    0.79000002    2.94000006
   14.70361137  119.29900360    0.79000002    2.94000006
   14.70694447  118.95500183    0.79000002    2.94000006
   14.71000004  132.22300720    0.76999998    2.94000006
   14.71333313  116.62300110    0.79000002    2.94000006
   14.71666622  114.60600281    0.76999998    2.94000006
   14.71972179  118.11000061    0.75000000    2.94000006
   14.72305489  122.14099884    0.76999998    2.94000006
   14.72611046  115.27600098    0.76999998    2.94000006
   14.72694397  116.44799805    0.76999998    2.94000006
   14.72999954  123.01100159    0.76999998    2.94000006
   14.73305511  107.52500153    0.79000002    2.94000006
   14.73638916  119.27700043    0.79000002    2.94000006
   14.74222279  119.27700043    0.76999998    2.94000006
   14.74638939  119.53900146    0.76999998    2.94000006
   14.74972248  119.11100006    0.76999998    2.94000006
   14.75277805  120.33300018    0.73000002    2.94000006
   14.75611115  128.37300110    0.73000002    2.94000006
   14.75944424  125.80200195    0.70999998    2.94000006
   14.76027775  130.87399292    0.70999998    2.94000006
   14.76305580  119.98000336    0.69000000    2.94000006
   14.76611137  126.82399750    0.69000000    2.94000006
   14.76944447  120.08599854    0.69000000    2.94000006
   14.77250004  122.05200195    0.67000002    2.94000006
   14.77583313  119.56800079    0.67000002    2.94000006
   14.77916622  132.22399902    0.64999998    2.94000006
   14.78500080  132.22399902    0.61000001    2.94000006
   14.78916740  117.18000031    0.63000000    2.96000004
   14.79250050  129.27099609    0.63000000    2.94000006
   14.79361153  125.41400146    0.63000000    2.94000006
   14.79638958  112.92299652    0.64999998    2.96000004
   14.79944515  117.81500244    0.63000000    2.94000006
   14.80277824  117.00199890    0.64999998    2.94000006
   14.80583382  124.58399963    0.64999998    2.94000006
   14.80916691  113.41400146    0.64999998    2.94000006
   14.81250000  118.55699921    0.67000002    2.94000006
   14.81555557  110.36000061    0.64999998    2.94000006
   14.81888866  116.44799805    0.67000002    2.94000006
   14.82222176  116.75499725    0.67000002    2.94000006
   14.82805538  116.75499725    0.69000000    2.94000006
   14.83222198  116.36000061    0.69000000    2.94000006
   14.83527756  130.96499634    0.69000000    2.94000006
   14.83861065  115.44100189    0.69000000    2.94000006
   14.84166622  119.37999725    0.70999998    2.94000006
   14.84499931  122.97499847    0.70999998    2.96000004
   14.84833336  122.25599670    0.70999998    2.94000006
   14.85138893  116.13999939    0.70999998    2.94000006
   14.85472298  116.87100220    0.70999998    2.94000006
   14.85805607  125.04399872    0.70999998    2.94000006
   14.86027813  113.60900116    0.70999998    2.94000006
   14.86166668  114.93299866    0.69000000    2.96000004
   14.86472225  125.88200378    0.69000000    2.94000006
   14.87083340  125.88200378    0.69000000    2.94000006
   14.87500000  122.23000336    0.69000000    2.94000006
   14.87805557  113.62100220    0.70999998    2.96000004
   14.88138866  119.40599823    0.67000002    2.94000006
   14.88472176  113.57700348    0.69000000    2.96000004
   14.88777733  123.10299683    0.69000000    2.96000004
   14.89111137  124.66500092    0.69000000    2.96000004
   14.89361095  121.63200378    0.67000002    2.96000004
   14.89472198  119.80699921    0.67000002    2.96000004
   14.89805508  118.49199677    0.67000002    2.96000004
   14.90111065  113.74400330    0.69000000    2.94000006
   14.90444374  122.87599945    0.67000002    2.94000006
   14.90777779  116.53099823    0.64999998    2.96000004
   14.91361046  116.53099823    0.67000002    2.96000004
   14.91777802  123.44000244    0.67000002    2.98000002
   14.92111111  117.98899841    0.67000002    2.96000004
   14.92416668  120.57800293    0.67000002    2.94000006
   14.92694473  118.99199677    0.67000002    2.96000004
   14.92805576  119.30000305    0.67000002    2.96000004
   14.93111134  116.64099884    0.67000002    2.94000006
   14.93444443  123.85900116    0.67000002    2.96000004
   14.93750000  122.26799774    0.67000002    2.96000004
   14.94083309  125.09600067    0.64999998    2.96000004
   14.94416714  120.52500153    0.67000002    2.96000004
   14.94750023  119.25900269    0.67000002    2.94000006
   14.95055580  128.17500305    0.67000002    2.94000006
   14.95638847  128.17500305    0.67000002    2.96000004
   14.96055508  115.93800354    0.67000002    2.96000004
   14.96388912  118.67900085    0.67000002    2.94000006
   14.96722221  114.08799744    0.67000002    2.94000006
   14.97027779  117.66200256    0.63000000    2.96000004
   14.97361088  120.72599792    0.63000000    2.96000004
   14.97666645  119.66500092    0.63000000    2.96000004
   14.97999954  112.24700165    0.64999998    2.96000004
   14.98333359  118.19599915    0.64999998    2.98000002
   14.98638916  112.26000214    0.64999998    2.96000004
   14.98972225  113.73200226    0.67000002    2.96000004
   14.99305534  125.19499969    0.64999998    2.98000002
   14.99361134  126.06300354    0.64999998    2.98000002
   14.99944496  126.06300354    0.67000002    2.96000004
   15.00361156  118.15200043    0.64999998    2.94000006
   15.00666714  118.79199982    0.67000002    2.96000004
   15.01000023  123.32299805    0.69000000    2.96000004
   15.01333332  124.19599915    0.67000002    2.96000004
   15.01638889  116.35399628    0.67000002    2.96000004
   15.01972198  124.87300110    0.67000002    2.94000006
   15.02277756  117.64900208    0.67000002    2.96000004
   15.02611065  126.31999969    0.69000000    2.96000004
   15.02694416  117.90200043    0.69000000    2.96000004
   15.02972221  114.27400208    0.67000002    2.94000006
   15.03277779  116.53900146    0.67000002    2.96000004
   15.03611183  120.25900269    0.67000002    2.96000004
   15.04222298  120.25900269    0.67000002    2.96000004
   15.04638958  122.08399963    0.69000000    2.96000004
   15.04944515  112.35500336    0.67000002    2.98000002
   15.05277824  122.46499634    0.67000002    2.94000006
   15.05611134  118.52600098    0.64999998    2.96000004
   15.05916691  124.46399689    0.64999998    2.94000006
   15.06027794  110.30300140    0.64999998    2.94000006
   15.06305599  124.62000275    0.63000000    2.96000004
   15.06611156  123.24600220    0.63000000    2.96000004
   15.06944466  124.41400146    0.63000000    2.96000004
   15.07277775  124.18800354    0.64999998    2.96000004
   15.07583332  120.20800018    0.67000002    2.96000004
   15.07916641  114.68699646    0.67000002    2.96000004
   15.08500004  114.68699646    0.67000002    2.94000006
   15.08916664  120.24700165    0.67000002    2.96000004
   15.09249973  116.61599731    0.67000002    2.96000004
   15.09361076  122.48000336    0.69000000    2.96000004
   15.09611034  113.19200134    0.67000002    2.98000002
   15.09916592  126.56400299    0.69000000    2.94000006
   15.10249996  122.22399902    0.67000002    2.96000004
   15.10583401  112.09300232    0.67000002    2.96000004
   15.10888958  110.43499756    0.67000002    2.96000004
   15.11222267  117.81900024    0.67000002    2.96000004
   15.11555576  116.36000061    0.67000002    2.98000002
   15.11861134  122.27100372    0.67000002    2.96000004
   15.12194443  121.76399994    0.67000002    2.96000004
   15.12777805  121.76399994    0.64999998    2.98000002
   15.13194466  124.69300079    0.67000002    2.96000004
   15.13527775  111.63400269    0.67000002    2.96000004
   15.13861084  112.84400177    0.67000002    2.96000004
   15.14166641  113.87300110    0.67000002    2.96000004
   15.14499950  117.95700073    0.64999998    2.96000004
   15.14805508  124.59899902    0.64999998    2.96000004
   15.15138817  115.30999756    0.67000002    2.96000004
   15.15472221  110.52600098    0.64999998    2.98000002
   15.15777779  125.62500000    0.69000000    2.96000004
   15.16027737  112.70300293    0.67000002    2.98000002
   15.16166592  113.36100006    0.67000002    2.98000002
   15.16472149  121.44400024    0.69000000    2.96000004
   15.17083359  121.44400024    0.69000000    2.96000004
   15.17500019  124.31199646    0.70999998    2.96000004
   15.17805576  117.59899902    0.70999998    2.96000004
   15.18138885  117.31500244    0.70999998    2.96000004
   15.18444443  126.63400269    0.73000002    2.96000004
   15.18777752  111.94699860    0.73000002    2.96000004
   15.19111156  114.11100006    0.73000002    2.96000004
   15.19361115  122.61499786    0.75000000    2.96000004
   15.19472218  107.04100037    0.75000000    2.96000004
   15.19805527  112.73000336    0.75000000    2.94000006
   15.20111084  109.45099640    0.73000002    2.96000004
   15.20444393  107.30699921    0.75000000    2.96000004
   15.20749950  119.54799652    0.73000002    2.96000004
   15.21361065  119.54799652    0.70999998    2.96000004
   15.21777725  125.16799927    0.70999998    2.96000004
   15.22083282  114.33999634    0.70999998    2.96000004
   15.22416592  122.37300110    0.73000002    2.94000006
   15.22694397  116.83200073    0.70999998    2.96000004
   15.22777748  124.04299927    0.70999998    2.96000004
   15.23083305  118.76300049    0.73000002    2.96000004
   15.23416710  117.89800262    0.75000000    2.96000004
   15.23750019  126.18099976    0.75000000    2.96000004
   15.24055576  107.75000000    0.75000000    2.96000004
   15.24388885  116.21800232    0.76999998    2.96000004
   15.24694443  107.02500153    0.75000000    2.96000004
   15.25027752  108.78199768    0.75000000    2.96000004
   15.25638866  108.78199768    0.76999998    2.96000004
   15.26055527  116.03800201    0.76999998    2.98000002
   15.26388931  114.08999634    0.76999998    2.96000004
   15.26694393  117.59400177    0.75000000    2.96000004
   15.27027798  112.19000244    0.75000000    2.94000006
   15.27361107  111.84500122    0.75000000    2.98000002
   15.27666664  114.82900238    0.75000000    2.96000004
   15.27999973  119.90100098    0.75000000    2.96000004
   15.28333378  118.00800323    0.75000000    2.96000004
   15.28638935  112.13400269    0.75000000    2.96000004
   15.28972244  108.27700043    0.75000000    2.96000004
   15.29305553  107.92700195    0.75000000    2.96000004
   15.29361153  113.64800262    0.75000000    2.96000004
   15.29916668  113.64800262    0.73000002    2.96000004
   15.30333328  115.66600037    0.73000002    2.96000004
   15.30666733  120.75299835    0.70999998    2.96000004
   15.31000042  114.32700348    0.73000002    2.96000004
   15.31305599  119.15899658    0.70999998    2.96000004
   15.31638908  117.41699982    0.73000002    2.96000004
   15.31944466  121.39199829    0.75000000    2.96000004
   15.32277775  125.30699921    0.75000000    2.96000004
   15.32611084  124.79100037    0.73000002    2.96000004
   15.32694435  117.09200287    0.73000002    2.96000004
   15.32972240  117.80500031    0.73000002    2.98000002
   15.33277798  119.82399750    0.73000002    2.98000002
   15.33611107  105.08300018    0.73000002    2.98000002
   15.34222221  105.08300018    0.73000002    2.96000004
   15.34638882  122.79100037    0.73000002    2.96000004
   15.34944439  133.02400208    0.73000002    2.96000004
   15.35277843  125.15799713    0.70999998    2.96000004
   15.35583401  115.79599762    0.70999998    2.96000004
   15.35916710  118.34300232    0.70999998    2.96000004
   15.36027813  116.91100311    0.70999998    2.96000004
   15.36277771  118.83699799    0.70999998    2.96000004
   15.36611176  121.27500153    0.70999998    2.96000004
   15.36944485  125.00900269    0.73000002    2.96000004
   15.37250042  110.74600220    0.73000002    2.98000002
   15.37583351  110.62100220    0.73000002    2.98000002
   15.37916660  108.58999634    0.73000002    2.98000002
   15.38500023  108.58999634    0.73000002    2.96000004
   15.38916683  125.10299683    0.73000002    2.96000004
   15.39222240  119.49099731    0.73000002    2.96000004
   15.39361095  116.70800018    0.73000002    2.96000004
   15.39611053  120.52300262    0.73000002    2.96000004
   15.39944458  122.08200073    0.73000002    2.96000004
   15.40249920  121.56900024    0.73000002    2.98000002
   15.40583324  135.27099609    0.75000000    2.98000002
   15.40888882  119.95800018    0.73000002    2.98000002
   15.41222191  118.37699890    0.75000000    2.96000004
   15.41555500  116.26300049    0.75000000    2.96000004
   15.41861153  113.11699677    0.73000002    2.96000004
   15.42194462  112.45200348    0.75000000    2.96000004
   15.42777824  112.45200348    0.75000000    2.96000004
   15.43194485  118.10299683    0.75000000    2.96000004
   15.43527794  116.41999817    0.75000000    2.96000004
   15.43833351  134.35499573    0.75000000    2.98000002
   15.44166660  122.59400177    0.75000000    2.96000004
   15.44499969  121.03600311    0.75000000    2.96000004
   15.44805527  124.75099945    0.75000000    2.96000004
   15.45138836  128.47200012    0.75000000    2.98000002
   15.45444393  118.24800110    0.75000000    2.96000004
   15.45777798  122.20999908    0.76999998    2.96000004
   15.46027756  120.80100250    0.76999998    2.96000004
   15.46138859  117.23899841    0.76999998    2.96000004
   15.46444416  127.88899994    0.76999998    2.96000004
   15.47055531  127.88899994    0.76999998    2.96000004
   15.47472191  128.00500488    0.76999998    2.96000004
   15.47805500  130.81399536    0.76999998    2.96000004
   15.48111057  114.13899994    0.76999998    2.96000004
   15.48444462  113.43299866    0.76999998    2.96000004
   15.48777771  113.33999634    0.76999998    2.96000004
   15.49083328  117.29799652    0.76999998    2.96000004
   15.49361134  119.39700317    0.76999998    2.96000004
   15.49472237  121.77400208    0.76999998    2.96000004
   15.49805546  133.43099976    0.75000000    2.96000004
   15.50111103  117.97399902    0.75000000    2.96000004
   15.50444412  122.50299835    0.75000000    2.96000004
   15.50749969  111.13600159    0.75000000    2.96000004
   15.51361084  111.13600159    0.75000000    2.96000004
   15.51777744  120.63800049    0.75000000    2.96000004
   15.52083302  119.90599823    0.75000000    2.96000004
   15.52416611  137.16299438    0.75000000    2.96000004
   15.52694416  132.46000671    0.75000000    2.98000002
   15.52777767  138.17799377    0.75000000    2.98000002
   15.53111076  114.47599792    0.75000000    2.96000004
   15.53416729  119.95200348    0.73000002    2.96000004
   15.53750038  106.61499786    0.73000002    2.96000004
   15.54055595  128.34100342    0.73000002    2.96000004
   15.54388905  118.48200226    0.73000002    2.98000002
   15.54722309  121.07900238    0.73000002    2.98000002
   15.55027771  119.52300262    0.73000002    2.98000002
   15.55638885  119.52300262    0.75000000    2.98000002
   15.56055546  113.20600128    0.75000000    2.98000002
   15.56361103  113.31600189    0.75000000    2.98000002
   15.56694412  120.90499878    0.75000000    2.94000006
   15.57027817  103.98999786    0.75000000    2.96000004
   15.57333374  118.61699677    0.75000000    2.96000004
   15.57666683  118.70500183    0.76999998    2.98000002
   15.57999992  122.67299652    0.76999998    2.96000004
   15.58305550  115.78199768    0.76999998    2.96000004
   15.58638859  112.93099976    0.79000002    2.96000004
   15.58944416  117.72599792    0.79000002    2.96000004
   15.59277725  111.44999695    0.79000002    2.96000004
   15.59361076  112.03500366    0.76999998    2.96000004
   15.59916592  112.03500366    0.76999998    2.96000004
   15.60333347  124.53399658    0.75000000    2.96000004
   15.60666752  120.57299805    0.76999998    2.96000004
   15.60972214  113.66899872    0.75000000    2.98000002
   15.62750053  123.56300354    0.75000000    2.98000002
   15.62972260  119.16500092    0.75000000    2.96000004
   15.63305569  115.79900360    0.73000002    2.96000004
   15.63638878  122.43900299    0.75000000    2.96000004
   15.64222240  122.43900299    0.75000000    2.96000004
   15.64638901  119.81700134    0.75000000    2.98000002
   15.64972210  124.53600311    0.75000000    2.98000002
   15.65277767  111.80899811    0.75000000    2.96000004
   15.65611076  116.21299744    0.79000002    2.98000002
   15.65944386  116.76799774    0.79000002    2.96000004
   15.66055489  115.45700073    0.79000002    2.96000004
   15.66305542  122.33300018    0.79000002    2.98000002
   15.66638851  102.93099976    0.79000002    2.96000004
   15.66944504  127.24800110    0.79000002    2.96000004
   15.67277813  111.67900085    0.79000002    2.98000002
   15.67583370  117.58699799    0.80000001    2.94000006
   15.67916679  112.63600159    0.80000001    2.98000002
   15.68500042  112.63600159    0.80000001    2.96000004
   15.68916702  123.50499725    0.80000001    2.96000004
   15.69250011  120.23799896    0.80000001    2.98000002
   15.69388866  123.16799927    0.81999999    2.98000002
   15.69611073  117.87500000    0.81999999    2.98000002
   15.69944477  116.32299805    0.83999997    2.98000002
   15.70249939  116.18399811    0.83999997    2.96000004
   15.70583344  130.03500366    0.81999999    2.96000004
   15.70888901  114.03900146    0.81999999    2.98000002
   15.71222210  115.36799622    0.80000001    3.00000000
   15.71555519  122.67600250    0.80000001    2.96000004
   15.71888828  120.85399628    0.80000001    2.98000002
   15.72194386  122.24199677    0.80000001    2.98000002
   15.72805500  122.24199677    0.80000001    2.98000002
   15.73194408  110.61000061    0.80000001    2.98000002
   15.73527813  119.74099731    0.76999998    2.98000002
   15.73861122  111.47200012    0.76999998    2.98000002
   15.74166679  112.60700226    0.76999998    2.96000004
   15.74499989  115.99299622    0.79000002    2.96000004
   15.74805546  121.79599762    0.79000002    2.98000002
   15.75138855  110.84899902    0.76999998    2.98000002
   15.75472260  118.50599670    0.76999998    2.98000002
   15.75777817  115.56999969    0.76999998    2.98000002
   15.76055527  122.34600067    0.76999998    2.98000002
   15.76138878  113.59799957    0.76999998    2.98000002
   15.76472187  115.80000305    0.75000000    2.98000002
   15.77083302  115.80000305    0.75000000    2.98000002
   15.77499962  123.01200104    0.75000000    2.98000002
   15.77805519  123.62699890    0.75000000    2.98000002
   15.78138828  117.30599976    0.75000000    2.98000002
   15.78444481  117.68199921    0.75000000    2.98000002
   15.78777790  114.28900146    0.75000000    2.98000002
   15.79111195  121.05200195    0.75000000    2.98000002
   15.79388905  122.01300049    0.76999998    2.98000002
   15.79472256  120.41899872    0.76999998    2.98000002
   15.79805565  120.52500153    0.76999998    2.98000002
   15.80111122  114.58100128    0.76999998    2.98000002
   15.80444431  118.38899994    0.76999998    2.98000002
   15.80777836  117.53099823    0.76999998    2.98000002
   15.81388950  117.53099823    0.75000000    2.98000002
   15.81805515  111.97100067    0.75000000    2.98000002
   15.82111073  110.95800018    0.76999998    2.98000002
   15.82444477  118.28099823    0.75000000    2.98000002
   15.82722187  112.25499725    0.76999998    2.98000002
   15.82805538  110.44000244    0.76999998    2.98000002
   15.83138847  110.69899750    0.76999998    2.98000002
   15.83444405  125.37599945    0.76999998    2.98000002
   15.83777714  105.65799713    0.76999998    2.98000002
   15.84111118  117.60399628    0.75000000    2.96000004
   15.84416676  117.00599670    0.75000000    2.98000002
   15.84749985  122.24199677    0.75000000    2.98000002
   15.85055637  111.75800323    0.76999998    2.98000002
   15.85638905  111.75800323    0.76999998    2.96000004
   15.86055565  124.13800049    0.79000002    2.98000002
   15.86111164  121.77700043    0.79000002    2.98000002
   15.86444473  113.35099792    0.79000002    2.96000004
   15.86750031  119.35500336    0.79000002    2.98000002
   15.87083340  118.69200134    0.79000002    2.98000002
   15.87416649  116.66699982    0.79000002    2.96000004
   15.87722206  121.22599792    0.79000002    2.98000002
   15.88055611  112.87400055    0.80000001    2.96000004
   15.88388920  119.31800079    0.80000001    2.98000002
   15.88694477  112.94100189    0.80000001    2.98000002
   15.89027786  116.02899933    0.80000001    2.98000002
   15.89333344  120.78299713    0.79000002    2.96000004
   15.89388847  112.15100098    0.79000002    2.96000004
   15.89944458  112.15100098    0.79000002    2.98000002
   15.90333271  119.21700287    0.80000001    2.98000002
   15.90666676  105.09899902    0.80000001    2.98000002
   15.90999985  107.43900299    0.81999999    2.98000002
   15.91305542  109.15599823    0.81999999    2.98000002
   15.91638851  107.93099976    0.81999999    2.98000002
   15.91972256  118.69300079    0.81999999    2.96000004
   15.92277813  107.30200195    0.81999999    2.98000002
   15.92611122   99.83280182    0.81999999    2.96000004
   15.92722225  104.91600037    0.83999997    2.98000002
   15.92972279  113.96199799    0.83999997    2.98000002
   15.93305588  115.43900299    0.81999999    2.96000004
   15.93611145  114.24600220    0.83999997    2.98000002
   15.94222260  114.24600220    0.86000001    2.98000002
   15.94638920  111.64199829    0.88000000    2.98000002
   15.94944477  113.01499939    0.88000000    2.98000002
   15.95277786  115.62100220    0.86000001    2.96000004
   15.95583344  114.49800110    0.86000001    2.98000002
   15.95916653  111.51300049    0.86000001    2.98000002
   15.96055508  114.45800018    0.86000001    2.98000002
   15.96277714  125.37599945    0.86000001    2.98000002
   15.96611118  110.11000061    0.86000001    2.98000002
   15.96916580  115.92299652    0.86000001    2.98000002
   15.97249985  114.56199646    0.86000001    2.96000004
   15.97583294  111.69100189    0.86000001    2.98000002
   15.97888851  115.68199921    0.83999997    2.98000002
   15.98500061  115.68199921    0.83999997    2.98000002
   15.98916721  114.21499634    0.81999999    2.96000004
   15.99250031  122.63700104    0.83999997    2.96000004
   15.99388885  101.54900360    0.83999997    2.96000004
   15.99611092  106.65499878    0.81999999    2.98000002
   15.99944496  111.53700256    0.83999997    2.98000002
   16.00250053  110.44400024    0.83999997    2.98000002
   16.00583267  111.95300293    0.83999997    2.98000002
   16.00916672  112.32700348    0.86000001    2.96000004
   16.01222229  114.13300323    0.83999997    2.98000002
   16.01555634  112.45800018    0.83999997    2.98000002
   16.01888847  110.21399689    0.86000001    2.98000002
   16.02194405  112.99800110    0.86000001    2.96000004
   16.02777672  112.99800110    0.88000000    2.98000002
   16.03194427  113.98799896    0.86000001    2.96000004
   16.03527641  108.10800171    0.86000001    2.96000004
   16.03833199  111.41100311    0.83999997    2.98000002
   16.04166603  118.59899902    0.89999998    2.98000002
   16.04500008  113.98799896    0.89999998    2.98000002
   16.04805565  106.05899811    0.89999998    2.98000002
   16.05138779  115.08799744    0.89999998    2.98000002
   16.05472183  112.91000366    0.88000000    2.98000002
   16.05777740  122.98200226    0.89999998    2.98000002
   16.06055450  120.28900146    0.89999998    2.98000002
   16.06138802  119.61199951    0.89999998    2.98000002
   16.06472206  113.14399719    0.94000000    2.96000004
   16.07055664  113.14399719    0.92000002    2.96000004
   16.07472229  128.38400269    0.89999998    2.98000002
   16.07805634  118.26100159    0.89999998    2.98000002
   16.08139038  119.22799683    0.89999998    2.96000004
   16.08444595  119.96199799    0.88000000    2.96000004
   16.08777809  106.09300232    0.88000000    2.98000002
   16.09111214  111.09700012    0.89999998    2.96000004
   16.09416771  106.53900146    0.88000000    2.96000004
   16.09444427  116.46600342    0.88000000    2.96000004
   16.09777832  114.60299683    0.89999998    2.98000002
   16.10083389  122.52899933    0.86000001    2.98000002
   16.10416794  124.39900208    0.86000001    3.00000000
   16.10750008  123.80899811    0.86000001    2.98000002
   16.11361122  123.80899811    0.88000000    2.98000002
   16.11777878  132.20399475    0.88000000    2.98000002
   16.12083435  114.37699890    0.88000000    2.98000002
   16.12416649  118.04599762    0.88000000    2.98000002
   16.12750053  113.79699707    0.88000000    2.98000002
   16.12777710  125.93699646    0.88000000    2.98000002
   16.13111115  116.34999847    0.89999998    3.00000000
   16.13416672  125.32700348    0.88000000    2.98000002
   16.13750076  119.95999908    0.88000000    2.98000002
   16.14083290  126.03600311    0.86000001    2.98000002
   16.14388847  130.91900635    0.88000000    2.98000002
   16.14722252  126.41600037    0.88000000    2.96000004
   16.15027809  126.33399963    0.88000000    2.98000002
   16.15638924  126.33399963    0.89999998    2.98000002
   16.16055489  120.46900177    0.89999998    2.98000002
   16.16110992  122.88600159    0.89999998    2.98000002
   16.16416550  118.70700073    4.90999985    3.05999994
   16.16749954  124.72100067    0.11000000    0.50000000
   16.17083359  112.01799774    0.09000000    0.25000000
   16.17388916  137.86599731    0.09000000    0.25000000
   16.17722130  121.84300232    0.09000000    0.25000000
   16.18055534  130.98800659    0.09000000    0.25000000
   16.18361092  128.14799500    0.09000000    0.25000000
   16.18694305  140.53999329    0.09000000    0.25000000
   16.18999863  116.36299896    0.09000000    0.25000000
   16.19333267  120.23100281    0.09000000    0.25000000
   16.19444275  130.81300354    0.09000000    0.25000000
   16.19916534  130.81300354    0.09000000    0.25000000
   16.20333481  120.32900238    0.09000000    0.25000000
   16.20666695  122.12400055    0.09000000    0.25000000
   16.20972252  139.88000488    0.09000000    0.25000000
   16.21305656  117.18099976    0.09000000    0.25000000
   16.21638870  117.26100159    0.09000000    0.25000000
   16.21944427  105.54499817    0.09000000    0.25000000
   16.22277832  133.52799988    0.09000000    0.25000000
   16.22611237  122.17199707    0.09000000    0.25000000
   16.22777748  110.50499725    0.09000000    0.25000000
   16.22944450  126.51499939    0.09000000    0.25000000
   16.23277855  105.70300293    0.09000000    0.25000000
   16.23611069  113.76699829    0.09000000    0.25000000
   16.24222183  113.76699829    0.09000000    0.25000000
   16.24611092  112.65399933    0.09000000    0.25000000
   16.24944496  119.04399872    0.09000000    0.25000000
   16.25277710  124.03900146    0.09000000    0.25000000
   16.25583267  119.74700165    0.09000000    0.25000000
   16.25916672  129.01699829    0.09000000    0.25000000
   16.26111031  122.32700348    0.09000000    0.25000000
   16.26277733  128.26600647    0.09000000    0.25000000
   16.26611137  125.66300201    0.09000000    0.25000000
   16.26944351  128.07299805    0.09000000    0.25000000
   16.27249908  127.07499695    0.09000000    0.25000000
   16.27583313  138.58399963    0.09000000    0.25000000
   16.27916718  122.20400238    0.09000000    0.25000000
   16.28499985  122.20400238    0.09000000    0.25000000
   16.28916550  120.86000061    0.09000000    0.25000000
   16.29222107  120.55400085    0.09000000    0.25000000
   16.29444313  125.91500092    0.09000000    0.25000000
   16.29583359  134.27200317    0.09000000    0.25000000
   16.29916573  118.05899811    0.09000000    0.25000000
   16.30249977  126.93299866    0.09000000    0.25000000
   16.30555534  126.16699982    0.09000000    0.25000000
   16.30888748  128.71000671    0.09000000    0.25000000
   16.31222153  117.53800201    0.09000000    0.25000000
   16.31527710  128.97500610    0.09000000    0.25000000
   16.31861115  115.92099762    0.09000000    0.25000000
   16.32166672  115.04100037    0.09000000    0.25000000
   16.32777786  115.04100037    0.09000000    0.25000000
   16.33194542  125.82099915    0.09000000    0.25000000
   16.33500099  123.00499725    0.09000000    0.25000000
   16.33833313  114.17199707    0.09000000    0.25000000
   16.34166718  122.47000122    0.09000000    0.25000000
   16.34472275  128.97900391    0.09000000    0.25000000
   16.34805679  112.44300079    0.09000000    0.25000000
   16.35138893  113.05100250    0.09000000    0.25000000
   16.35444450  109.68499756    0.09000000    0.25000000
   16.35777855  121.68099976    0.09000000    0.25000000
   16.36083412  107.64099884    0.09000000    0.25000000
   16.36138916  106.54000092    0.09000000    0.25000000
   16.36472321  113.81999969    0.09000000    0.25000000
   16.37055588  113.81999969    0.09000000    0.25000000
   16.37472153  115.84899902    0.09000000    0.25000000
   16.37805557  111.55300140    0.09000000    0.25000000
   16.38111115  111.82299805    0.09000000    0.25000000
   16.38444519  111.73799896    0.09000000    0.25000000
   16.38777733  114.82599640    0.09000000    0.25000000
   16.39083290  118.43000031    0.09000000    0.25000000
   16.39416695  110.67500305    0.09000000    0.25000000
   16.39472198  106.80899811    0.09000000    0.25000000
   16.39777756  122.74900055    0.09000000    0.25000000
   16.40111160  113.04599762    0.09000000    0.25000000
   16.40416718  116.41100311    0.09000000    0.25000000
   16.40749931  120.40599823    0.09000000    0.25000000
   16.41333389  120.40599823    0.09000000    0.25000000
   16.41749954  121.29100037    0.09000000    0.25000000
   16.42083359  133.13200378    0.09000000    0.25000000
   16.42416573  112.76899719    0.09000000    0.25000000
   16.42722130  117.16600037    0.09000000    0.25000000
   16.42805481  127.19400024    0.09000000    0.25000000
   16.43083191  120.51100159    0.09000000    0.25000000
   16.43416595  120.35800171    0.09000000    0.25000000
   16.43722153  121.87899780    0.09000000    0.25000000
   16.44055557  117.15899658    0.09000000    0.25000000
   16.44388771  117.63999939    0.09000000    0.25000000
   16.44694328  118.51799774    0.09000000    0.25000000
   16.45027924  125.86499786    0.09000000    0.25000000
   16.45639038  125.86499786    0.09000000    0.25000000
   16.46055603  130.93299866    0.09000000    0.25000000
   16.46138954  120.51000214    0.09000000    0.25000000
   16.46416664  116.69499969    0.09000000    0.25000000
   16.46750069  133.08900452    0.09000000    0.25000000
   16.47055626  124.47899628    0.09000000    0.25000000
   16.47389030  127.83100128    0.09000000    0.25000000
   16.47722244  117.18000031    0.09000000    0.25000000
   16.48027802  123.93299866    0.09000000    0.25000000
   16.48361206  117.16300201    0.09000000    0.25000000
   16.48666763  114.15399933    0.09000000    0.25000000
   16.48999977  122.25900269    0.09000000    0.25000000
   16.49333382  121.96099854    0.09000000    0.25000000
   16.49472237  111.57900238    0.09000000    0.25000000
   16.49916649  111.57900238    0.09000000    0.25000000
   16.50333405  109.61299896    0.09000000    0.25000000
   16.50638962  117.33000183    0.09000000    0.25000000
   16.50972176  133.90699768    0.09000000    0.25000000
   16.51305580  119.08599854    0.09000000    0.25000000
   16.51611137  118.95800018    0.09000000    0.25000000
   16.51944351  125.78900146    0.09000000    0.25000000
   16.52277756  119.72100067    0.09000000    0.25000000
   16.52583313  125.65200043    0.09000000    0.25000000
   16.52805519  125.01200104    0.09000000    0.25000000
   16.52944374  119.54599762    0.09000000    0.25000000
   16.53277779  125.02600098    0.09000000    0.25000000
   16.53583336  129.36399841    0.09000000    0.25000000
   16.54194450  129.36399841    0.09000000    0.25000000
   16.54611015  110.06800079    0.09000000    0.25000000
   16.54944420  110.85299683    0.09000000    0.25000000
   16.55249977  119.17199707    0.09000000    0.25000000
   16.55583191  129.70599365    0.09000000    0.25000000
   16.55916595  112.81999969    0.09000000    0.25000000
   16.56138802  122.72000122    0.09000000    0.25000000
   16.56277657  122.68599701    0.09000000    0.25000000
   16.56611061  124.23999786    0.09000000    0.25000000
   16.56916809  124.12699890    0.09000000    0.25000000
   16.57250023  119.65100098    0.09000000    0.25000000
   16.57583427  133.82000732    0.09000000    0.25000000
   16.57888985  123.65200043    0.09000000    0.25000000
   16.58472252  123.65200043    0.09000000    0.25000000
   16.58889008  121.97699738    0.09000000    0.25000000
   16.59222221  107.93800354    0.09000000    0.25000000
   16.59472275  124.98699951    0.09000000    0.25000000
   16.59583473  120.10399628    0.09000000    0.25000000
   16.59916687  125.52400208    0.09000000    0.25000000
   16.60222244  121.23000336    0.09000000    0.25000000
   16.60555649  123.05400085    0.09000000    0.25000000
   16.60888863  116.36000061    0.09000000    0.25000000
   16.61194420  118.64700317    0.09000000    0.25000000
   16.61527824  124.88300323    0.09000000    0.25000000
   16.61833382  124.67500305    0.09000000    0.25000000
   16.62166595  128.03199768    0.09000000    0.25000000
   16.62777710  128.03199768    0.09000000    0.25000000
   16.64611053  117.49299622    0.09000000    0.25000000
   16.64916611  120.72299957    0.09000000    0.25000000
   16.65250015  120.25499725    0.09000000    0.25000000
   16.65583229  116.92800140    0.09000000    0.25000000
   16.65888786  119.26200104    0.09000000    0.25000000
   16.66222191  117.44200134    0.09000000    0.25000000
   16.66555595  113.94699860    0.09000000    0.25000000
   16.67083359  113.94699860    0.09000000    0.25000000
   16.67499924  117.65899658    0.09000000    0.25000000
   16.67805481  123.46700287    0.09000000    0.25000000
   16.67916679  118.20400238    0.09000000    0.25000000
   16.68166542  116.18800354    0.09000000    0.25000000
   16.68499947  111.62400055    0.09000000    0.25000000
   16.68833160  112.72200012    0.09000000    0.25000000
   16.69138718  125.19499969    0.09000000    0.25000000
   16.69472122  109.55899811    0.09000000    0.25000000
   16.69805527  129.94599915    0.09000000    0.25000000
   16.70111275  127.50399780    0.09000000    0.25000000
   16.70444489  118.60299683    0.09000000    0.25000000
   16.70750046  125.64199829    0.09000000    0.25000000
   16.71361160  125.64199829    0.09000000    0.25000000
   16.71777916  125.85900116    0.09000000    0.25000000
   16.72111130  116.27400208    0.09000000    0.25000000
   16.72416687  122.47599792    0.09000000    0.25000000
   16.72750092  126.43800354    0.09000000    0.25000000
   16.73083305  111.32199860    0.09000000    0.25000000
   16.73388863  130.72099304    0.09000000    0.25000000
   16.73722267  126.29599762    0.09000000    0.25000000
   16.74055672  131.15199280    0.09000000    0.25000000
   16.74361229  124.66899872    0.09000000    0.25000000
   16.74583435  117.96099854    0.09000000    0.25000000
   16.74749947  126.00900269    0.09000000    0.25000000
   16.75055504  114.21199799    0.09000000    0.25000000
   16.75638962  114.21199799    0.09000000    0.25000000
   16.76055527  112.73400116    0.09000000    0.25000000
   16.76388931  119.39299774    0.09000000    0.25000000
   16.76694489  126.33399963    0.09000000    0.25000000
   16.77027702  116.81099701    0.09000000    0.25000000
   16.77361107  120.12200165    0.09000000    0.25000000
   16.77666664  106.97499847    0.09000000    0.25000000
   16.77916718  116.90200043    0.09000000    0.25000000
   16.78055573  105.56600189    0.09000000    0.25000000
   16.78361130  109.03500366    0.09000000    0.25000000
   16.78694344  116.80100250    0.09000000    0.25000000
   16.78999901  117.80300140    0.09000000    0.25000000
   16.79333305  120.72299957    0.09000000    0.25000000
   16.79944420  120.72299957    0.09000000    0.25000000
   16.80333328  115.19999695    0.09000000    0.25000000
   16.80666542  123.88999939    0.09000000    0.25000000
   16.80999947  118.10399628    0.09000000    0.25000000
   16.81250000  117.15699768    0.09000000    0.25000000
   16.81361008  106.66100311    0.09000000    0.25000000
   16.81666756  107.73400116    0.09000000    0.25000000
   16.82000160  121.63400269    0.09000000    0.25000000
   16.82333374  129.40100098    0.09000000    0.25000000
   16.82638931  112.54599762    0.09000000    0.25000000
   16.82972336  119.09400177    0.09000000    0.25000000
   16.83277893  128.29100037    0.09000000    0.25000000
   16.83611107  117.07599640    0.09000000    0.25000000
   16.84222221  117.07599640    0.09000000    0.25000000
   16.84638977  112.40100098    0.09000000    0.25000000
   16.84944534  112.70600128    0.09000000    0.25000000
   16.85277748  117.93800354    0.09000000    0.25000000
   16.85611153  117.61599731    0.09000000    0.25000000
   16.85916710  107.82700348    0.09000000    0.25000000
   16.86250114  110.21800232    0.09000000    0.25000000
   16.86555672  114.50800323    0.09000000    0.25000000
   16.86888885  119.34100342    0.09000000    0.25000000
   16.87222290  133.86199951    0.09000000    0.25000000
   16.87527847  128.64799500    0.09000000    0.25000000
   16.87861061  119.33399963    0.09000000    0.25000000
   16.87916756  116.11399841    0.09000000    0.25000000
   16.88500023  116.11399841    0.09000000    0.25000000
   16.88916588  117.43399811    0.09000000    0.25000000
   16.89249992  114.07800293    0.09000000    0.25000000
   16.89555550  113.05400085    0.09000000    0.25000000
   16.89888954  112.53700256    0.09000000    0.25000000
   16.90222168  114.18800354    0.09000000    0.25000000
   16.90527725  124.86799622    0.09000000    0.25000000
   16.90861130  117.13999939    0.09000000    0.25000000
   16.91166687  122.63099670    0.09000000    0.25000000
   16.91250038  122.95099640    0.09000000    0.25000000
   16.91555595  143.53799438    0.09000000    0.25000000
   16.91860962  120.26200104    0.09000000    0.25000000
   16.92194366  128.33900452    0.09000000    0.25000000
   16.92777634  128.33900452    0.09000000    0.25000000
   16.93194389  117.13400269    0.09000000    0.25000000
   16.93527603  115.65399933    0.09000000    0.25000000
   16.93833160  119.73000336    0.09000000    0.25000000
   16.94166565  118.24500275    0.09000000    0.25000000
   16.94499969  117.93499756    0.09000000    0.25000000
   16.94583321  116.41799927    0.09000000    0.25000000
   16.94861031  112.99099731    0.09000000    0.25000000
   16.95166779  125.11000061    0.09000000    0.25000000
   16.95499992  115.36599731    0.09000000    0.25000000
   16.95833397  116.42199707    0.09000000    0.25000000
   16.96138954  120.54000092    0.09000000    0.25000000
   16.96472359  115.31099701    0.09000000    0.25000000
   16.97083473  115.31099701    0.09000000    0.25000000
   16.97472191  117.48999786    0.09000000    0.25000000
   16.97805595  112.54900360    0.09000000    0.25000000
   16.97916794  113.97599792    0.09000000    0.25000000
   16.98166656  114.85700226    0.09000000    0.25000000
   16.98472214  110.45899963    0.09000000    0.25000000
   16.98805618  116.17199707    0.09000000    0.25000000
   16.99138832  120.79399872    0.09000000    0.25000000
   16.99444389  117.86000061    0.09000000    0.25000000
   16.99777794  112.76799774    0.09000000    0.25000000
   17.00083351  119.29799652    0.09000000    0.25000000
   17.00416756  116.10900116    0.09000000    0.25000000
   17.00749969  114.40599823    0.09000000    0.25000000
   17.01361084  114.40599823    0.09000000    0.25000000
   17.01777840  119.69300079    0.09000000    0.25000000
   17.02083397  116.38200378    0.09000000    0.25000000
   17.02416611  111.66500092    0.09000000    0.25000000
   17.02722168  112.32199860    0.09000000    0.25000000
   17.03055573  114.87899780    0.09000000    0.25000000
   17.03388786  113.61699677    0.09000000    0.25000000
   17.03694344  121.70500183    0.09000000    0.25000000
   17.04027748  116.88899994    0.09000000    0.25000000
   17.04361153  116.02600098    0.09000000    0.25000000
   17.04583359  113.20300293    0.09000000    0.25000000
   17.04722214  132.10600281    0.09000000    0.25000000
   17.05027771  111.54199982    0.09000000    0.25000000
   17.05638885  111.54199982    0.09000000    0.25000000
   17.06055450  121.52200317    0.09000000    0.25000000
   17.06361008  113.33200073    0.09000000    0.25000000
   17.06694603  121.20800018    0.09000000    0.25000000
   17.07027817  114.26799774    0.09000000    0.25000000
   17.07333374  112.25199890    0.09000000    0.25000000
   17.07666779  116.75700378    0.09000000    0.25000000
   17.07916832  110.68099976    0.09000000    0.25000000
   17.08027840  120.32099915    0.09000000    0.25000000
   17.08333397  112.99099731    0.09000000    0.25000000
   17.08666801  120.59100342    0.09000000    0.25000000
   17.09000015  110.98699951    0.09000000    0.25000000
   17.09305573  117.88600159    0.09000000    0.25000000
   17.09916687  117.88600159    0.09000000    0.25000000
   17.10333443  125.98300171    0.09000000    0.25000000
   17.10666656  117.47000122    0.09000000    0.25000000
   17.10972214  113.08499908    0.09000000    0.25000000
   17.11250114  119.65200043    0.09000000    0.25000000
   17.11361122  117.29900360    0.09000000    0.25000000
   17.11666679  115.88700104    0.09000000    0.25000000
   17.12000084  120.12100220    0.09000000    0.25000000
   17.12333298  112.60399628    0.09000000    0.25000000
   17.12638855  114.24500275    0.09000000    0.25000000
   17.12972260  113.16600037    0.09000000    0.25000000
   17.13277817  111.54699707    0.09000000    0.25000000
   17.13611031  111.51999664    0.09000000    0.25000000
   17.14194489  111.51999664    0.09000000    0.25000000
   17.14611053  110.37999725    0.09000000    0.25000000
   17.14944458  119.10700226    0.09000000    0.25000000
   17.15277672  124.22100067    0.09000000    0.25000000
   17.15583229  111.68499756    0.09000000    0.25000000
   17.15916634  114.51300049    0.09000000    0.25000000
   17.16250038  108.91100311    0.09000000    0.25000000
   17.16555595  107.82199860    0.09000000    0.25000000
   17.16888809  118.00599670    0.09000000    0.25000000
   17.17194366  112.70300293    0.09000000    0.25000000
   17.17527771  106.09600067    0.09000000    0.25000000
   17.17860985  109.68000031    0.09000000    0.25000000
   17.17916679  110.56300354    0.09000000    0.25000000
   17.18499947  110.56300354    0.09000000    0.25000000
   17.18916512  109.12899780    0.09000000    0.25000000
   17.19222069  114.02899933    0.09000000    0.25000000
   17.19555473  117.32800293    0.09000000    0.25000000
   17.19861031  112.18800354    0.09000000    0.25000000
   17.20194435  107.37100220    0.09000000    0.25000000
   17.20527840  108.18599701    0.09000000    0.25000000
   17.20833397  117.22399902    0.09000000    0.25000000
   17.21166801  106.88700104    0.09000000    0.25000000
   17.21250153  110.52200317    0.09000000    0.25000000
   17.21527863  105.98799896    0.09000000    0.25000000
   17.21833420  108.09100342    0.09000000    0.25000000
   17.22166634  109.11699677    0.09000000    0.25000000
   17.22777748  109.11699677    0.09000000    0.25000000
   17.23194504  109.85700226    0.09000000    0.25000000
   17.23500061  116.87200165    0.09000000    0.25000000
   17.23833275  114.89099884    0.09000000    0.25000000
   17.24166679  115.61399841    0.09000000    0.25000000
   17.24472237  120.46199799    0.09000000    0.25000000
   17.24583435  111.59700012    0.09000000    0.25000000
   17.24861145  122.54499817    0.09000000    0.25000000
   17.25166702  111.11100006    0.09000000    0.25000000
   17.25499916  107.10600281    0.09000000    0.25000000
   17.25833321  112.73899841    0.09000000    0.25000000
   17.26138878  112.64600372    0.09000000    0.25000000
   17.26472282  109.24800110    0.09000000    0.25000000
   17.27055550  109.24800110    0.09000000    0.25000000
   17.27472115  112.23100281    0.09000000    0.25000000
   17.27805519  116.38800049    0.09000000    0.25000000
   17.27916718  108.38400269    0.09000000    0.25000000
   17.28166580  119.03900146    0.09000000    0.25000000
   17.28472137  113.92099762    0.09000000    0.25000000
   17.28805542  112.99700165    0.09000000    0.25000000
   17.29138756  108.96099854    0.09000000    0.25000000
   17.29444313  110.71600342    0.09000000    0.25000000
   17.29777718  119.16200256    0.09000000    0.25000000
   17.30111122  121.90000153    0.09000000    0.25000000
   17.30416679  110.64199829    0.09000000    0.25000000
   17.30749893  116.20400238    0.09000000    0.25000000
   17.31333351  116.20400238    0.09000000    0.25000000
   17.31750107  119.42500305    0.09000000    0.25000000
   17.32083511  122.91300201    0.09000000    0.25000000
   17.32416725  121.49800110    0.09000000    0.25000000
   17.32722282  112.88200378    0.09000000    0.25000000
   17.33055687  114.31400299    0.09000000    0.25000000
   17.33361244  120.59799957    0.09000000    0.25000000
   17.33694458  120.24400330    0.09000000    0.25000000
   17.34027863  115.19100189    0.09000000    0.25000000
   17.34333420  111.72200012    0.09000000    0.25000000
   17.34583473  116.65799713    0.09000000    0.25000000
   17.34722328  119.23000336    0.09000000    0.25000000
   17.35027885  109.55100250    0.09000000    0.25000000
   17.35639000  109.55100250    0.09000000    0.25000000
   17.36055565  119.25000000    0.09000000    0.25000000
   17.36361122  119.94599915    0.09000000    0.25000000
   17.36694527  112.30500031    0.09000000    0.25000000
   17.37000084  112.17900085    0.09000000    0.25000000
   17.37333298  117.83100128    0.09000000    0.25000000
   17.37666702  120.44799805    0.09000000    0.25000000
   17.37916756  114.38400269    0.09000000    0.25000000
   17.38027763  119.80500031    0.09000000    0.25000000
   17.38333321  119.38700104    0.09000000    0.25000000
   17.38666725  114.40000153    0.09000000    0.25000000
   17.38999939  118.20300293    0.09000000    0.25000000
   17.39305496  120.83599854    0.09000000    0.25000000
   17.39916611  120.83599854    0.09000000    0.25000000
   17.40333366  108.40799713    0.09000000    0.25000000
   17.40638924  111.31099701    0.09000000    0.25000000
   17.40972137  117.43599701    0.09000000    0.25000000
   17.41250038  111.43199921    0.09000000    0.25000000
   17.41333389  109.62999725    0.09000000    0.25000000
   17.41638756  108.14700317    0.09000000    0.25000000
   17.41972160  110.65299988    0.09000000    0.25000000
   17.42305565  115.19899750    0.09000000    0.25000000
   17.42611122  124.73799896    0.09000000    0.25000000
   17.42944336  117.44599915    0.09000000    0.25000000
   17.43277740  111.33599854    0.09000000    0.25000000
   17.43583298  117.18000031    0.09000000    0.25000000
   17.44194412  117.18000031    0.09000000    0.25000000
   17.44610977  119.13400269    0.09000000    0.25000000
   17.44944382  114.59300232    0.09000000    0.25000000
   17.45250130  111.55899811    0.09000000    0.25000000
   17.45583344  122.41500092    0.09000000    0.25000000
   17.45916748  111.84899902    0.09000000    0.25000000
   17.46222305  110.07199860    0.09000000    0.25000000
   17.46555710  125.63099670    0.09000000    0.25000000
   17.46861076  118.80699921    0.09000000    0.25000000
   17.47194481  119.81800079    0.09000000    0.25000000
   17.47527885  119.83699799    0.09000000    0.25000000
   17.47833443  111.36000061    0.09000000    0.25000000
   17.47916794  113.93199921    0.09000000    0.25000000
   17.48472214  113.93199921    0.09000000    0.25000000
   17.48888969  112.38999939    0.09000000    0.25000000
   17.49222183  117.94499969    0.09000000    0.25000000
   17.49555588  113.41699982    0.09000000    0.25000000
   17.49861145  113.71600342    0.09000000    0.25000000
   17.50194359  113.33000183    0.09000000    0.25000000
   17.50527763  115.31999969    0.09000000    0.25000000
   17.50833321  111.10800171    0.09000000    0.25000000
   17.51166725  116.11900330    0.09000000    0.25000000
   17.51250076  112.39399719    0.09000000    0.25000000
   17.51527786  116.08100128    0.09000000    0.25000000
   17.51861000  123.30999756    0.09000000    0.25000000
   17.52166557  118.88200378    0.09000000    0.25000000
   17.52777672  118.88200378    0.09000000    0.25000000
   17.53194427  110.92600250    0.09000000    0.25000000
   17.53499985  110.29199982    0.09000000    0.25000000
   17.53833199  117.39600372    0.09000000    0.25000000
   17.54138756  117.72399902    0.09000000    0.25000000
   17.54472160  111.75399780    0.09000000    0.25000000
   17.54583359  108.52799988    0.09000000    0.25000000
   17.54833221  112.65000153    0.09000000    0.25000000
   17.55166626  113.83300018    0.09000000    0.25000000
   17.55472183  112.26499939    0.09000000    0.25000000
   17.55805397  120.91100311    0.09000000    0.25000000
   17.56110954  118.44100189    0.09000000    0.25000000
   17.56444359  111.34899902    0.09000000    0.25000000
   17.57055664  111.34899902    0.09000000    0.25000000
   17.57472229  117.96299744    0.09000000    0.25000000
   17.57777786  122.27899933    0.09000000    0.25000000
   17.57916832  114.41400146    0.09000000    0.25000000
   17.58166695  113.41100311    0.09000000    0.25000000
   17.58500099  112.78399658    0.09000000    0.25000000
   17.58805656  115.81400299    0.09000000    0.25000000
   17.59138870  113.36900330    0.09000000    0.25000000
   17.59444427  114.50000000    0.09000000    0.25000000
   17.59777832  113.26499939    0.09000000    0.25000000
   17.60111237  119.07599640    0.09000000    0.25000000
   17.60416794  108.57299805    0.09000000    0.25000000
   17.60750008  119.92299652    0.09000000    0.25000000
   17.61333466  119.92299652    0.09000000    0.25000000
   17.61750031  113.91400146    0.09000000    0.25000000
   17.62083435  113.25800323    0.09000000    0.25000000
   17.62388992  117.88300323    0.09000000    0.25000000
   17.62722206   95.24340057    0.09000000    0.25000000
   17.63027763  110.01999664    0.09000000    0.25000000
   17.63361168  115.31999969    0.09000000    0.25000000
   17.63694382  105.93199921    0.09000000    0.25000000
   17.63999939  107.36399841    0.09000000    0.25000000
   17.64333344  112.62500000    0.09000000    0.25000000
   17.64583397  110.51699829    0.09000000    0.25000000
   17.66666603  110.51699829    0.09000000    0.25000000
   17.67055511  110.77300262    0.09000000    0.25000000
   17.67388916  109.62999725    0.09000000    0.25000000
   17.67722130  107.27100372    0.09000000    0.25000000
   17.67916679  105.68000031    0.09000000    0.25000000
   17.68083191  110.02500153    0.09000000    0.25000000
   17.68416595  106.75800323    0.09000000    0.25000000
   17.68722153  115.76799774    0.09000000    0.25000000
   17.69055557  105.75700378    0.09000000    0.25000000
   17.69388771  110.26599884    0.09000000    0.25000000
   17.69694328  116.74800110    0.09000000    0.25000000
   17.70027924  112.42099762    0.09000000    0.25000000
   17.70361137  106.06500244    0.09000000    0.25000000
   17.70916748  106.06500244    0.09000000    0.25000000
   17.71333504  107.76699829    0.09000000    0.25000000
   17.71666718  106.56800079    0.09000000    0.25000000
   17.72000122  109.09600067    0.09000000    0.25000000
   17.72305679  119.52799988    0.09000000    0.25000000
   17.72638893  104.45600128    0.09000000    0.25000000
   17.72944450  116.57900238    0.09000000    0.25000000
   17.73277855  106.60900116    0.09000000    0.25000000
   17.73611069  107.42900085    0.09000000    0.25000000
   17.73916626  114.01999664    0.09000000    0.25000000
   17.74250031  112.25800323    0.09000000    0.25000000
   17.74583435  116.28800201    0.09000000    0.25000000
   17.74611092  109.62100220    0.09000000    0.25000000
   17.75222206  109.62100220    0.09000000    0.25000000
   17.75638962  110.92299652    0.09000000    0.25000000
   17.75944519  109.44400024    0.09000000    0.25000000
   17.76277733  130.82000732    0.09000000    0.25000000
   17.76583290  128.12500000    0.09000000    0.25000000
   17.76916695  111.40299988    0.09000000    0.25000000
   17.77249908  109.37100220    0.09000000    0.25000000
   17.77555466  114.75299835    0.09000000    0.25000000
   17.77888870  116.14499664    0.09000000    0.25000000
   17.77944374  109.92600250    0.09000000    0.25000000
   17.78249931  108.31500244    0.09000000    0.25000000
   17.78583336  116.17600250    0.09000000    0.25000000
   17.78888893  113.44300079    0.09000000    0.25000000
   17.79500008  113.44300079    0.09000000    0.25000000
   17.79916573  109.23699951    0.09000000    0.25000000
   17.80222130  106.18199921    0.09000000    0.25000000
   17.80555534  107.51699829    0.09000000    0.25000000
   17.80888748  109.97000122    0.09000000    0.25000000
   17.81194305  120.66400146    0.09000000    0.25000000
   17.81277657  110.43900299    0.09000000    0.25000000
   17.81555557  108.08999634    0.09000000    0.25000000
   17.81888962  110.48000336    0.09000000    0.25000000
   17.82194519  118.29000092    0.09000000    0.25000000
   17.82527924  106.55000305    0.09000000    0.25000000
   17.82861137  111.02899933    0.09000000    0.25000000
   17.83166695  110.90499878    0.09000000    0.25000000
   17.83777809  110.90499878    0.09000000    0.25000000
   17.84194565  111.36100006    0.09000000    0.25000000
   17.84527779  113.84899902    0.09000000    0.25000000
   17.84611130  113.25499725    0.09000000    0.25000000
   17.84889030  109.48899841    0.09000000    0.25000000
   17.85222244  108.77100372    0.09000000    0.25000000
   17.85527802  122.24900055    0.09000000    0.25000000
   17.85861206  114.34100342    0.09000000    0.25000000
   17.86194420  114.70200348    0.09000000    0.25000000
   17.86499977  117.23699951    0.09000000    0.25000000
   17.86833382  110.92500305    0.09000000    0.25000000
   17.87166595  121.39600372    0.09000000    0.25000000
   17.87472153  112.43900299    0.09000000    0.25000000
   17.88055611  112.43900299    0.09000000    0.25000000
   17.88472176  114.03900146    0.09000000    0.25000000
   17.88805580  112.23400116    0.09000000    0.25000000
   17.89138794  111.95500183    0.09000000    0.25000000
   17.89444351  113.35399628    0.09000000    0.25000000
   17.89777756  112.03099823    0.09000000    0.25000000
   17.90083313  113.16600037    0.09000000    0.25000000
   17.90416718  111.35600281    0.09000000    0.25000000
   17.90749931  115.10600281    0.09000000    0.25000000
   17.91055489  115.96499634    0.09000000    0.25000000
   17.91305542  111.27300262    0.09000000    0.25000000
   17.91416550  115.60500336    0.09000000    0.25000000
   17.91749954  106.33000183    0.09000000    0.25000000
   17.92361069  106.33000183    0.09000000    0.25000000
   17.92777634  106.80699921    0.09000000    0.25000000
   17.93083191  111.90899658    0.09000000    0.25000000
   17.93416595  109.06999969    0.09000000    0.25000000
   17.93722153  105.80400085    0.09000000    0.25000000
   17.94055557  103.78700256    0.09000000    0.25000000
   17.94388771  107.56900024    0.09000000    0.25000000
   17.94638824  106.21900177    0.09000000    0.25000000
   17.94749832  113.66400146    0.09000000    0.25000000
   17.95083427  127.97899628    0.09000000    0.25000000
   17.95388985  119.55400085    0.09000000    0.25000000
   17.95722389  122.64900208    0.09000000    0.25000000
   17.96055603  112.05200195    0.09000000    0.25000000
   17.96638870  112.05200195    0.09000000    0.25000000
   17.97055626  119.69200134    0.09000000    0.25000000
   17.97361183  115.62799835    0.09000000    0.25000000
   17.97694588  124.27899933    0.09000000    0.25000000
   17.97972298  113.71399689    0.09000000    0.25000000
   17.98055649  114.73100281    0.09000000    0.25000000
   17.98388863  115.00800323    0.09000000    0.25000000
   17.98694420  114.00599670    0.09000000    0.25000000
   17.99027824  111.02999878    0.09000000    0.25000000
   17.99361229  114.26000214    0.09000000    0.25000000
   17.99666786  128.08700562    0.09000000    0.25000000
   18.00000000  118.63600159    0.09000000    0.25000000
   18.00333405  110.90599823    0.09000000    0.25000000
   18.00916672  110.90599823    0.09000000    0.25000000
   18.01333427  109.24600220    0.09000000    0.25000000
   18.01666641  112.72899628    0.09000000    0.25000000
   18.01972198  108.79900360    0.09000000    0.25000000
   18.02305603  118.45700073    0.09000000    0.25000000
   18.02638817  118.60500336    0.09000000    0.25000000
   18.02944374  120.73100281    0.09000000    0.25000000
   18.03277779  112.43299866    0.09000000    0.25000000
   18.03583336  116.51599884    0.09000000    0.25000000
   18.03916550  112.89800262    0.09000000    0.25000000
   18.04249954  105.06400299    0.09000000    0.25000000
   18.04555511  126.98999786    0.09000000    0.25000000
   18.04638863  118.78399658    0.09000000    0.25000000
   18.05194283  118.78399658    0.09000000    0.25000000
   18.05611038  126.56700134    0.09000000    0.25000000
   18.05944443  114.74099731    0.09000000    0.25000000
   18.06277657  119.46299744    0.09000000    0.25000000
   18.06583214  121.93299866    0.09000000    0.25000000
   18.06916809  113.33999634    0.09000000    0.25000000
   18.07222366  119.07199860    0.09000000    0.25000000
   18.07555580  115.72499847    0.09000000    0.25000000
   18.07888985  116.29199982    0.09000000    0.25000000
   18.07972336  112.16100311    0.09000000    0.25000000
   18.08222389  115.22200012    0.09000000    0.25000000
   18.08555603  120.96800232    0.09000000    0.25000000
   18.08889008  118.90599823    0.09000000    0.25000000
   18.09500122  118.90599823    0.09000000    0.25000000
   18.09916687  118.91699982    0.09000000    0.25000000
   18.10222244  113.32299805    0.09000000    0.25000000
   18.10555649  115.87100220    0.09000000    0.25000000
   18.10861206  113.52700043    0.09000000    0.25000000
   18.11194420  125.68000031    0.09000000    0.25000000
   18.11305618  100.49299622    0.09000000    0.25000000
   18.11555672  116.76799774    0.09000000    0.25000000
   18.11888885  104.94400024    0.09000000    0.25000000
   18.12222290  115.53099823    0.09000000    0.25000000
   18.12527847  123.51599884    0.09000000    0.25000000
   18.12861061  119.80599976    0.09000000    0.25000000
   18.13166618  121.95999908    0.09000000    0.25000000
   18.13777733  121.95999908    0.09000000    0.25000000
   18.14194489  115.87799835    0.09000000    0.25000000
   18.14500046  109.18599701    0.09000000    0.25000000
   18.14638901  117.47499847    0.09000000    0.25000000
   18.14861107  116.07199860    0.09000000    0.25000000
   18.15194321  115.81999969    0.09000000    0.25000000
   18.15527725  117.74900055    0.09000000    0.25000000
   18.15833282  121.85199738    0.09000000    0.25000000
   18.16166687  116.26200104    0.09000000    0.25000000
   18.16472244  107.51300049    0.09000000    0.25000000
   18.16805458  122.80000305    0.09000000    0.25000000
   18.17138863  121.47100067    0.09000000    0.25000000
   18.17444420  111.17600250    0.09000000    0.25000000
   18.18055534  111.17600250    0.09000000    0.25000000
   18.18472099  127.37999725    0.09000000    0.25000000
   18.18805504  103.23100281    0.09000000    0.25000000
   18.19111061  115.54000092    0.09000000    0.25000000
   18.19444275  106.23799896    0.09000000    0.25000000
   18.19777679  113.72299957    0.09000000    0.25000000
   18.20083427  112.27200317    0.09000000    0.25000000
   18.20444489  117.04599762    0.09000000    0.25000000
   18.20777893  117.44200134    0.09000000    0.25000000
   18.21083450  103.03399658    0.09000000    0.25000000
   18.21305656  106.28299713    0.09000000    0.25000000
   18.21444511  106.65299988    0.09000000    0.25000000
   18.21777916  116.82700348    0.09000000    0.25000000
   18.22333336  116.82700348    0.09000000    0.25000000
   18.22750092  113.83699799    0.09000000    0.25000000
   18.23083305  113.75099945    0.09000000    0.25000000
   18.23416710  127.24700165    0.09000000    0.25000000
   18.23722267  116.74199677    0.09000000    0.25000000
   18.24055672  113.46700287    0.09000000    0.25000000
   18.24361229  126.03099823    0.09000000    0.25000000
   18.24638939  119.30599976    0.09000000    0.25000000
   18.24722290  129.35299683    0.09000000    0.25000000
   18.25055504  117.77300262    0.09000000    0.25000000
   18.25388908  126.69100189    0.09000000    0.25000000
   18.25694466  118.40200043    0.09000000    0.25000000
   18.26027870  113.17500305    0.09000000    0.25000000
   18.26638794  113.17500305    0.09000000    0.25000000
   18.27055550  112.66699982    0.09000000    0.25000000
   18.27361107  117.07499695    0.09000000    0.25000000
   18.27694511  117.42199707    0.09000000    0.25000000
   18.27972221  117.75099945    0.09000000    0.25000000
   18.28055573  109.10900116    0.09000000    0.25000000
   18.28388786  114.59899902    0.09000000    0.25000000
   18.28722191  114.56400299    0.09000000    0.25000000
   18.29027748  115.59999847    0.09000000    0.25000000
   18.29361153  105.80500031    0.09000000    0.25000000
   18.29666710  111.35299683    0.09000000    0.25000000
   18.29999924  109.63700104    0.09000000    0.25000000
   18.30333328  114.57299805    0.09000000    0.25000000
   18.30916595  114.57299805    0.09000000    0.25000000
   18.31333351  105.55000305    0.09000000    0.25000000
   18.31638718  106.64399719    0.09000000    0.25000000
   18.31972313  125.74199677    0.09000000    0.25000000
   18.32305717  118.74099731    0.09000000    0.25000000
   18.32611275  103.98699951    0.09000000    0.25000000
   18.32944489  111.96600342    0.09000000    0.25000000
   18.33277893  109.40200043    0.09000000    0.25000000
   18.33583450  106.79000092    0.09000000    0.25000000
   18.33916664  113.27100372    0.09000000    0.25000000
   18.34222221  105.66899872    0.09000000    0.25000000
   18.34555626  107.27700043    0.09000000    0.25000000
   18.34638977  108.22000122    0.09000000    0.25000000
   18.35194397  108.22000122    0.09000000    0.25000000
   18.35611153  116.50900269    0.09000000    0.25000000
   18.35944557  109.79299927    0.09000000    0.25000000
   18.36250114  112.98799896    0.09000000    0.25000000
   18.36583328  108.86000061    0.09000000    0.25000000
   18.36916733  110.18599701    0.09000000    0.25000000
   18.37222290  114.60900116    0.09000000    0.25000000
   18.37555504  104.58499908    0.09000000    0.25000000
   18.37888908  109.67099762    0.09000000    0.25000000
   18.37972260  105.94300079    0.09000000    0.25000000
   18.38222313  109.75000000    0.09000000    0.25000000
   18.38555527  110.19999695    0.09000000    0.25000000
   18.38888931  115.60900116    0.09000000    0.25000000
   18.39472198  115.60900116    0.09000000    0.25000000
   18.39888954  111.15000153    0.09000000    0.25000000
   18.40222168  108.85099792    0.09000000    0.25000000
   18.40555573  105.66000366    0.09000000    0.25000000
   18.40861130  109.82900238    0.09000000    0.25000000
   18.41194344  111.97000122    0.09000000    0.25000000
   18.41305542  111.08999634    0.09000000    0.25000000
   18.41527748  111.79900360    0.09000000    0.25000000
   18.41888809  111.81700134    0.09000000    0.25000000
   18.42222214  111.10900116    0.09000000    0.25000000
   18.42527771  104.17299652    0.09000000    0.25000000
   18.42944336  107.27400208    0.09000000    0.25000000
   18.43277740  105.83300018    0.09000000    0.25000000
   18.43777657  105.83300018    0.09000000    0.25000000
   18.44194412  112.47599792    0.09000000    0.25000000
   18.44499969  108.40699768    0.09000000    0.25000000
   18.44638824  109.55000305    0.09000000    0.25000000
   18.44861031  109.81700134    0.09000000    0.25000000
   18.45194435  105.23600006    0.09000000    0.25000000
   18.45527840  111.29199982    0.09000000    0.25000000
   18.45833397  103.06400299    0.09000000    0.25000000
   18.46166801  107.33899689    0.09000000    0.25000000
   18.46500015  105.58999634    0.09000000    0.25000000
   18.46805573  114.78500366    0.09000000    0.25000000
   18.47138977  108.66300201    0.09000000    0.25000000
   18.47444534  110.50599670    0.09000000    0.25000000
   18.48055649  110.50599670    0.09000000    0.25000000
   18.48472214  112.53099823    0.09000000    0.25000000
   18.48777771  103.80100250    0.09000000    0.25000000
   18.49111176  108.57399750    0.09000000    0.25000000
   18.49444389  113.52700043    0.09000000    0.25000000
   18.49749947  114.47799683    0.09000000    0.25000000
   18.50083351  106.60199738    0.09000000    0.25000000
   18.50416756  107.97000122    0.09000000    0.25000000
   18.50722313  113.39099884    0.09000000    0.25000000
   18.51055527  113.95200348    0.09000000    0.25000000
   18.51305580  113.29699707    0.09000000    0.25000000
   18.51388931  113.69499969    0.09000000    0.25000000
   18.51722145  118.06099701    0.09000000    0.25000000
   18.52333260  118.06099701    0.09000000    0.25000000
   18.52750015  111.08899689    0.09000000    0.25000000
   18.53083229  108.43399811    0.09000000    0.25000000
   18.53388786  109.69899750    0.09000000    0.25000000
   18.53722191  110.26399994    0.09000000    0.25000000
   18.54055595  112.51200104    0.09000000    0.25000000
   18.54361153  105.43900299    0.09000000    0.25000000
   18.54638863  120.65100098    0.09000000    0.25000000
   18.54722214  112.23600006    0.09000000    0.25000000
   18.55055428  112.23300171    0.09000000    0.25000000
   18.55388832  114.92500305    0.09000000    0.25000000
   18.55694389  114.17900085    0.09000000    0.25000000
   18.56027794  112.78399658    0.09000000    0.25000000
   18.56611061  112.78399658    0.09000000    0.25000000
   18.57027817  112.40899658    0.09000000    0.25000000
   18.57361221  106.05300140    0.09000000    0.25000000
   18.57694626  113.11599731    0.09000000    0.25000000
   18.57972336  115.17500305    0.09000000    0.25000000
   18.58027840  116.47299957    0.09000000    0.25000000
   18.58361244  120.12100220    0.09000000    0.25000000
   18.58694458  111.08899689    0.09000000    0.25000000
   18.59000015  108.00900269    0.09000000    0.25000000
   18.59333420  113.80000305    0.09000000    0.25000000
   18.59666824  108.02600098    0.09000000    0.25000000
   18.59972191  109.58200073    0.09000000    0.25000000
   18.60305595  108.74700165    0.09000000    0.25000000
   18.60916710  108.74700165    0.09000000    0.25000000
   18.61333466  113.93199921    0.09000000    0.25000000
