    HOUR (UT)   FLARE FACTOR    SKY TESTER    SUN TESTER
   11.06361103   -1.00000000   -1.00000000   -1.00000000
   11.21055508  101.47499847    4.90999985    2.32999992
   11.21388912  101.48799896    4.90999985    2.32999992
   11.21694374  100.21399689    4.90999985    2.32999992
   11.22027779   96.19329834    4.90999985    2.32999992
   11.22361088   91.77829742    4.90999985    2.32999992
   11.22666645  100.64399719    4.90999985    2.32999992
   11.23083305  100.64399719    4.90999985    2.32999992
   11.23500061   99.22409821    4.90999985    2.32999992
   11.23833370   93.79389954    4.90999985    2.32999992
   11.24138927   94.59760284    4.90999985    2.34999990
   11.24361134   96.89890289    4.90999985    2.34999990
   11.24527836   91.96980286    4.90999985    2.34999990
   11.24833393   92.78289795    4.90999985    2.34999990
   11.25194454   94.74629974    4.90999985    2.34999990
   11.25500011   94.72989655    4.90999985    2.34999990
   11.25833321   93.43969727    4.90999985    2.34999990
   11.26138878   95.16899872    4.90999985    2.34999990
   11.26472187   93.83090210    4.90999985    2.34999990
   11.26805496   92.46040344    4.90999985    2.34999990
   11.27361107   92.46040344    4.90999985    2.36999989
   11.27777767   93.43530273    4.90999985    2.34999990
   11.28111076   94.68800354    4.90999985    2.34999990
   11.28444481   90.53060150    4.90999985    2.34999990
   11.28750038   92.25900269    4.90999985    2.36999989
   11.29083347   90.37539673    4.90999985    2.36999989
   11.29416752   94.66490173    4.90999985    2.36999989
   11.29722309   96.00090027    4.90999985    2.36999989
   11.30055618   94.77439880    4.90999985    2.36999989
   11.30388927   93.10530090    4.90999985    2.36999989
   11.30694485  102.13899994    4.90999985    2.36999989
   11.31027794   98.09279633    4.90999985    2.36999989
   11.31083393   96.72630310    4.90999985    2.36999989
   11.31666660   96.72630310    4.90999985    2.36999989
   11.32083321   93.24199677    4.90999985    2.39000010
   11.32416630  106.04799652    4.90999985    2.39000010
   11.32750034  107.19499969    4.90999985    2.36999989
   11.33055592   99.90329742    4.90999985    2.39000010
   11.33388901  101.09600067    4.90999985    2.39000010
   11.33722210   91.54889679    4.90999985    2.39000010
   11.34055519   96.34600067    4.90999985    2.39000010
   11.34361076   92.72339630    4.90999985    2.39000010
   11.34416676   94.91169739    4.90999985    2.39000010
   11.34749985   91.90329742    4.90999985    2.39000010
   11.35055637   91.26779938    4.90999985    2.39000010
   11.35388947   94.15760040    4.90999985    2.39000010
   11.35944462   94.15760040    4.90999985    2.39000010
   11.36361122   93.76100159    4.90999985    2.39000010
   11.36694431   91.97979736    4.90999985    2.39000010
   11.36999989   90.18689728    4.90999985    2.39000010
   11.37333393   93.68630219    4.90999985    2.40000010
   11.37666702   98.76580048    4.90999985    2.40000010
   11.37694454   87.16139984    4.90999985    2.40000010
   11.38000011   92.76049805    4.90999985    2.40000010
   11.38333321  100.64299774    4.90999985    2.40000010
   11.38638878   93.33619690    4.90999985    2.40000010
   11.38972187   99.94450378    4.90999985    2.40000010
   11.39305496   90.33689880    4.90999985    2.40000010
   11.39611053  101.01100159    4.90999985    2.40000010
   11.40222168  101.01100159    4.90999985    2.40000010
   11.40638828   95.02330017    4.90999985    2.40000010
   11.40972137   91.53859711    4.90999985    2.40000010
   11.41055489   96.46050262    4.90999985    2.40000010
   11.41333294   93.47499847    4.90999985    2.40000010
   11.41666698   91.79900360    4.90999985    2.40000010
   11.42000008   85.51110077    4.90999985    2.40000010
   11.42305565   90.91410065    4.90999985    2.40000010
   11.42638874   89.25990295    4.90999985    2.42000008
   11.42972279   91.22609711    4.90999985    2.40000010
   11.43277836   89.50229645    4.90999985    2.40000010
   11.43611145   85.49230194    4.90999985    2.42000008
   11.43916702   97.14739990    4.90999985    2.42000008
   11.44499969   97.14739990    4.90999985    2.42000008
   11.44916630   92.95030212    4.90999985    2.42000008
   11.45249939   86.99659729    4.90999985    2.42000008
   11.45583344   90.77549744    4.90999985    2.42000008
   11.45888901   89.51329803    4.90999985    2.42000008
   11.46222210   91.99629974    4.90999985    2.42000008
   11.46555519   85.81379700    4.90999985    2.42000008
   11.46861076   91.06960297    4.90999985    2.42000008
   11.47194386   89.81659698    4.90999985    2.42000008
   11.47499943   92.72920227    4.90999985    2.42000008
   11.47722149   94.32379913    4.90999985    2.42000008
   11.47861099   88.88189697    4.90999985    2.42000008
   11.48194408   91.13449860    4.90999985    2.44000006
   11.48805618   91.13449860    4.90999985    2.44000006
   11.49222279   95.69660187    4.90999985    2.44000006
   11.49527836   87.57649994    4.90999985    2.44000006
   11.49861145   93.12650299    4.90999985    2.42000008
   11.50166702   88.13749695    4.90999985    2.44000006
   11.50500011   90.88169861    4.90999985    2.42000008
   11.50833321   89.84449768    4.90999985    2.46000004
   11.51055527   91.57029724    4.90999985    2.44000006
   11.51194477   89.75299835    4.90999985    2.44000006
   11.51527786   89.70439911    4.90999985    2.44000006
   11.51833344   96.62570190    4.90999985    2.44000006
   11.52166653   95.71710205    4.90999985    2.44000006
   11.52499962   88.76409912    4.90999985    2.44000006
   11.53083324   88.76409912    4.90999985    2.44000006
   11.53500080   86.61789703    4.90999985    2.46000004
   11.53805637   91.06449890    4.90999985    2.46000004
   11.54138947   90.01170349    4.90999985    2.46000004
   11.54388905   86.93669891    4.90999985    2.46000004
   11.54500008   90.50559998    4.90999985    2.46000004
   11.54833412   84.58190155    4.90999985    2.44000006
   11.55138874   86.52690125    4.90999985    2.46000004
   11.55472279   91.73429871    4.90999985    2.46000004
   11.55805588   88.04560089    4.90999985    2.46000004
   11.56111145   97.67089844    4.90999985    2.46000004
   11.56444454   86.99349976    4.90999985    2.46000004
   11.56777763   97.75650024    4.90999985    2.46000004
   11.57361126   97.75650024    4.90999985    2.46000004
   11.57777786   87.79609680    4.90999985    2.46000004
   11.58111095   87.11940002    4.90999985    2.46000004
   11.58416653   84.79000092    4.90999985    2.46000004
   11.58749962   92.85130310    4.90999985    2.48000002
   11.59083271   83.71479797    4.90999985    2.46000004
   11.59388828   83.58679962    4.90999985    2.48000002
   11.59722233   89.87989807    4.90999985    2.48000002
   11.60027790   87.40429688    4.90999985    2.48000002
   11.60361195   85.65090179    4.90999985    2.46000004
   11.60694504   97.36679840    4.90999985    2.46000004
   11.61000061   93.10240173    4.90999985    2.46000004
   11.61055565   92.18520355    4.90999985    2.48000002
   11.61638927   92.18520355    4.90999985    2.46000004
   11.62055588   91.01529694    4.90999985    2.48000002
   11.62388897   89.49109650    4.90999985    2.48000002
   11.62722206   88.56500244    4.90999985    2.48000002
   11.63027763   85.53379822    4.90999985    2.48000002
   11.63361073   85.56109619    4.90999985    2.48000002
   11.63666630   86.70680237    4.90999985    2.48000002
   11.64000034   93.65219879    4.90999985    2.48000002
   11.64333344   87.22650146    4.90999985    2.48000002
   11.64388847   88.60299683    4.90999985    2.48000002
   11.64694405   89.22219849    4.90999985    2.48000002
   11.65027714   95.07949829    4.90999985    2.48000002
   11.65333271   86.55560303    4.90999985    2.48000002
   11.65944386   86.55560303    4.90999985    2.50000000
   11.66361046   83.79820251    4.90999985    2.50000000
   11.66666698   85.33419800    4.90999985    2.48000002
   11.67000008   87.42690277    4.90999985    2.50000000
   11.67305565   83.25980377    4.90999985    2.48000002
   11.67638874   86.39219666    4.90999985    2.50000000
   11.67722225   90.70320129    4.90999985    2.50000000
   11.68000031   85.04979706    4.90999985    2.50000000
   11.68333340   84.97599792    4.90999985    2.50000000
   11.68638897   85.44360352    4.90999985    2.50000000
   11.68972206   84.18990326    4.90999985    2.50000000
   11.69277763   93.26889801    4.90999985    2.50000000
   11.69611073   88.06210327    4.90999985    2.51999998
   11.70222187   88.06210327    4.90999985    2.50000000
   11.70638847   86.95120239    4.90999985    2.50000000
   11.70944405   97.28800201    4.90999985    2.50000000
   11.71055508   90.68499756    4.90999985    2.50000000
   11.71333313   94.69529724    4.90999985    2.50000000
   11.71666622   91.48889923    4.90999985    2.50000000
   11.71972179   86.33439636    4.90999985    2.51999998
   11.72305489   91.98130035    4.90999985    2.50000000
   11.72611046   88.03260040    4.90999985    2.51999998
   11.72944355   85.48329926    4.90999985    2.51999998
   11.73277760   84.41750336    4.90999985    2.51999998
   11.73583317   86.19920349    4.90999985    2.51999998
   11.73916721   91.82499695    4.90999985    2.51999998
   11.74499989   91.82499695    4.90999985    2.51999998
   11.74916649   91.55899811    4.90999985    2.51999998
   11.75249958   87.83989716    4.90999985    2.51999998
   11.75555515   86.56390381    4.90999985    2.50000000
   11.75888920   84.60340118    4.90999985    2.51999998
   11.76222229   86.12550354    4.90999985    2.51999998
   11.76527786   86.00530243    4.90999985    2.51999998
   11.76861095   85.91300201    4.90999985    2.51999998
   11.77166653   86.19869995    4.90999985    2.51999998
   11.77499962   87.28189850    4.90999985    2.51999998
   11.77722168   84.22840118    4.90999985    2.51999998
   11.77861118   80.24610138    4.90999985    2.51999998
   11.78194427   89.27729797    4.90999985    2.50000000
   11.78777790   89.27729797    4.90999985    2.51999998
   11.79194450   87.34739685    4.90999985    2.51999998
   11.79527855   86.49960327    4.90999985    2.51999998
   11.79861164   91.21800232    4.90999985    2.51999998
   11.80166721  100.88999939    4.90999985    2.53999996
   11.80500031   84.57409668    4.90999985    2.53999996
   11.80833340   88.21810150    4.90999985    2.53999996
   11.81055546   88.86080170    4.90999985    2.53999996
   11.81194496   91.48220062    4.90999985    2.51999998
   11.81527805   84.87280273    4.90999985    2.53999996
   11.81833363   85.15630341    4.90999985    2.53999996
   11.82166672   88.82319641    4.90999985    2.51999998
   11.82472229   83.07330322    4.90999985    2.53999996
   11.83083344   83.07330322    4.90999985    2.53999996
   11.83472157   85.82050323    4.90999985    2.53999996
   11.83805561   81.18750000    4.90999985    2.53999996
   11.84138870   88.68139648    4.90999985    2.53999996
   11.84388828   80.43800354    4.90999985    2.53999996
   11.84499931   84.82969666    4.90999985    2.53999996
   11.84833336   83.59300232    4.90999985    2.53999996
   11.85138893   82.41089630    4.90999985    2.53999996
   11.85472298   87.34269714    4.90999985    2.53999996
   11.85777855   86.71050262    4.90999985    2.53999996
   11.86111164   84.09989929    4.90999985    2.53999996
   11.86444473   91.81479645    4.90999985    2.53999996
   11.86750031   92.88860321    4.90999985    2.53999996
   11.87361145   92.88860321    4.90999985    2.55999994
   11.87777805   85.18569946    4.90999985    2.55999994
   11.88083363   86.95279694    4.90999985    2.55999994
   11.88416672   83.73650360    4.90999985    2.55999994
   11.88749981   84.56130219    4.90999985    2.53999996
   11.89055538   86.70369720    4.90999985    2.55999994
   11.89388847   89.10520172    4.90999985    2.55999994
   11.89694405   89.15689850    4.90999985    2.55999994
   11.90027714   82.78500366    4.90999985    2.53999996
   11.90361118   92.44689941    4.90999985    2.55999994
   11.90666676   89.08380127    4.90999985    2.55999994
   11.90999985   84.72869873    4.90999985    2.55999994
   11.91055489   82.55989838    4.90999985    2.55999994
   11.91638851   82.55989838    4.90999985    2.55999994
   11.92055607   87.30999756    4.90999985    2.55999994
   11.92388916   85.05799866    4.90999985    2.55999994
   11.92694473   84.55930328    4.90999985    2.55999994
   11.93027782   84.16649628    4.90999985    2.55999994
   11.93361092   85.10109711    4.90999985    2.57999992
   11.93666649   84.38829803    4.90999985    2.55999994
   11.94000053   87.84629822    4.90999985    2.55999994
   11.94305515   88.32250214    4.90999985    2.55999994
   11.94388866   86.32530212    4.90999985    2.55999994
   11.94666672   83.96769714    4.90999985    2.55999994
   11.94999981   83.40409851    4.90999985    2.57999992
   11.95305538   78.49579620    4.90999985    2.55999994
   11.95916653   78.49579620    4.90999985    2.55999994
   11.96333313   84.05290222    4.90999985    2.55999994
   11.96666622   87.94680023    4.90999985    2.55999994
   11.96999931   90.27429962    4.90999985    2.57999992
   11.97305489   86.00499725    4.90999985    2.57999992
   11.97638798   82.11399841    4.90999985    2.57999992
   11.97722149   87.27670288    4.90999985    2.57999992
   11.97999954   86.17389679    4.90999985    2.55999994
   11.98333359   87.17079926    4.90999985    2.57999992
   11.98638916   89.17269897    4.90999985    2.57999992
   11.98972225   87.19159698    4.90999985    2.55999994
   11.99305534   87.22579956    4.90999985    2.57999992
   11.99611092   85.37979889    4.90999985    2.57999992
   12.00222206   85.37979889    4.90999985    2.57999992
   12.00611115   87.08679962    4.90999985    2.57999992
   12.00944424   82.77590179    4.90999985    2.57999992
   12.01055527   86.49449921    4.90999985    2.57999992
   12.01305580   87.13909912    4.90999985    2.57999992
   12.01638889   87.26560211    4.90999985    2.57999992
   12.01944447   88.90290070    4.90999985    2.57999992
   12.02277756   90.67359924    4.90999985    2.57999992
   12.02611065   84.50340271    4.90999985    2.57999992
   12.02916622   86.13980103    4.90999985    2.57999992
   12.03249931   85.81009674    4.90999985    2.57999992
   12.03555584   89.11489868    4.90999985    2.57999992
   12.03888893   83.12760162    4.90999985    2.57999992
   12.04500008   83.12760162    4.90999985    2.57999992
   12.04916668   82.53199768    4.90999985    2.59999990
   12.05222225   87.59449768    4.90999985    2.59999990
   12.05555534   82.90450287    4.90999985    2.59999990
   12.05888939   84.94680023    4.90999985    2.59999990
   12.06194496   86.85669708    4.90999985    2.57999992
   12.06527805   87.03309631    4.90999985    2.57999992
   12.06833363   85.96939850    4.90999985    2.59999990
   12.07166672   87.18309784    4.90999985    2.57999992
   12.07499981   83.02349854    4.90999985    2.55999994
   12.07722187   86.10459900    4.90999985    2.57999992
   12.07861137   81.64219666    4.90999985    2.57999992
   12.08194447   95.44080353    4.90999985    2.59999990
   12.08777714   95.44080353    4.90999985    2.59999990
   12.09194374   85.55599976    4.90999985    2.57999992
   12.09527779   83.75810242    4.90999985    2.61999989
   12.09833336   85.74829865    4.90999985    2.59999990
   12.10166740   87.07980347    4.90999985    2.59999990
   12.10472298   83.10489655    4.90999985    2.59999990
   12.10805607   86.15840149    4.90999985    2.59999990
   12.11055565   81.42520142    4.90999985    2.59999990
   12.11166668   88.89710236    4.90999985    2.59999990
   12.11500072   79.09200287    4.90999985    2.59999990
   12.11805534   80.80549622    4.90999985    2.61999989
   12.12138939   83.59190369    4.90999985    2.61999989
   12.12472248   87.10700226    4.90999985    2.61999989
   12.13055611   87.10700226    4.90999985    2.59999990
   12.13472176   82.83300018    4.90999985    2.61999989
   12.13805580   84.26470184    4.90999985    2.59999990
   12.14138889   81.21880341    4.90999985    2.59999990
   12.14388847   83.45500183    4.90999985    2.59999990
   12.14499950   88.85690308    4.90999985    2.59999990
   12.14833355   83.40650177    4.90999985    2.61999989
   12.15138817   85.89209747    4.90999985    2.59999990
   12.15472221   91.33149719    4.90999985    2.61999989
   12.15805531   84.56580353    4.90999985    2.61999989
   12.16111088   80.56459808    4.90999985    2.59999990
   12.16444397   82.93599701    4.90999985    2.61999989
   12.16750050   86.03440094    4.90999985    2.61999989
   12.17361164   86.03440094    4.90999985    2.61999989
   12.17750072   82.55979919    4.90999985    2.61999989
   12.18083382   87.01080322    4.90999985    2.61999989
   12.18416691   88.55629730    4.90999985    2.61999989
   12.18722248   86.08300018    4.90999985    2.61999989
   12.19055557   85.59690094    4.90999985    2.61999989
   12.19388866   92.39739990    4.90999985    2.61999989
   12.19694424   85.36219788    4.90999985    2.59999990
   12.20027733   85.83149719    4.90999985    2.61999989
   12.20333290   85.73699951    4.90999985    2.64000010
   12.20666695   85.73380280    4.90999985    2.61999989
   12.21000004   80.72309875    4.90999985    2.61999989
   12.21055508   84.67810059    4.90999985    2.64000010
   12.23138809   84.67810059    4.90999985    2.61999989
   12.23555565   85.92510223    4.90999985    2.61999989
   12.23888874   82.09809875    4.90999985    2.64000010
   12.24194431   84.46800232    4.90999985    2.64000010
   12.24416733   80.56250000    4.90999985    2.64000010
   12.24555588   82.49939728    4.90999985    2.64000010
   12.24888897   85.14040375    4.90999985    2.61999989
   12.25222206   86.17209625    4.90999985    2.64000010
   12.25555515   89.00689697    4.90999985    2.64000010
   12.25861073   81.08409882    4.90999985    2.64000010
   12.26194477   82.72059631    4.90999985    2.64000010
   12.26500034   85.97299957    4.90999985    2.64000010
   12.26833344   82.60829926    4.90999985    2.61999989
   12.27416611   82.60829926    4.90999985    2.64000010
   12.27833271   93.25279999    4.90999985    2.64000010
   12.28138828   82.93550110    4.90999985    2.64000010
   12.28472233   83.32180023    4.90999985    2.64000010
   12.28805637   84.38159943    4.90999985    2.64000010
   12.29111195   79.67659760    4.90999985    2.64000010
   12.29444504   85.68740082    4.90999985    2.64000010
   12.29777813   81.55590057    4.90999985    2.64000010
   12.30083370   83.38189697    4.90999985    2.64000010
   12.30416679   83.17440033    4.90999985    2.64000010
   12.30722237   80.98120117    4.90999985    2.64000010
   12.31055546   82.78269958    4.90999985    2.64000010
   12.31111145   83.46900177    4.90999985    2.64000010
   12.31694412   83.46900177    4.90999985    2.64000010
   12.32111073   84.58650208    4.90999985    2.66000009
   12.32444477   85.43229675    4.90999985    2.64000010
   12.32750034   82.65380096    4.90999985    2.66000009
   12.33083344   79.81099701    4.90999985    2.66000009
   12.33416653   80.78530121    4.90999985    2.64000010
   12.33722210   80.58249664    4.90999985    2.64000010
   12.34055519   78.55660248    4.90999985    2.64000010
   12.34361076   82.38770294    4.90999985    2.66000009
   12.34444427   88.89820099    4.90999985    2.64000010
   12.34749985   78.83059692    4.90999985    2.66000009
   12.35055637   82.90090179    4.90999985    2.66000009
   12.35388947   81.17140198    4.90999985    2.66000009
   12.35972214   81.17140198    4.90999985    2.66000009
   12.36388969   83.64600372    4.90999985    2.66000009
   12.36722279   80.91159821    4.90999985    2.64000010
   12.37055588   83.36689758    4.90999985    2.66000009
   12.37361145   85.92199707    4.90999985    2.66000009
   12.37694454   83.96730042    4.90999985    2.66000009
   12.37777805   81.41639709    4.90999985    2.67000008
   12.38055611   84.01940155    4.90999985    2.66000009
   12.38361073   87.85420227    4.90999985    2.66000009
   12.38694477   87.44339752    4.90999985    2.66000009
   12.39027786   78.91439819    4.90999985    2.66000009
   12.39333344   81.28530121    4.90999985    2.64000010
   12.39666653   81.00160217    4.90999985    2.66000009
   12.40277767   81.00160217    4.90999985    2.67000008
   12.40694427   81.71890259    4.90999985    2.67000008
   12.41055489   85.02770233    4.90999985    2.67000008
   12.41222191   89.36759949    4.90999985    2.67000008
   12.41499996   81.73660278    4.90999985    2.66000009
   12.41833401   84.00469971    4.90999985    2.66000009
   12.42166710   84.09159851    4.90999985    2.66000009
   12.42472267   78.55950165    4.90999985    2.67000008
   12.42805576   82.15730286    4.90999985    2.66000009
   12.43138885   79.25859833    4.90999985    2.67000008
   12.43444443   78.28559875    4.90999985    2.67000008
   12.43777752   78.17620087    4.90999985    2.67000008
   12.44083309   82.97280121    4.90999985    2.66000009
   12.44555569   82.97280121    4.90999985    2.67000008
   12.44972229   79.91400146    4.90999985    2.66000009
   12.45277786   78.98549652    4.90999985    2.67000008
   12.45611095   79.15940094    4.90999985    2.67000008
   12.45944405   79.78800201    4.90999985    2.66000009
   12.46249962   80.66449738    4.90999985    2.66000009
   12.46583271   81.98580170    4.90999985    2.66000009
   12.46916580   82.69740295    4.90999985    2.67000008
   12.47222137   78.77040100    4.90999985    2.67000008
   12.47555542   84.43669891    4.90999985    2.67000008
   12.47777748   85.11049652    4.90999985    2.67000008
   12.47916603   85.00679779    4.90999985    2.67000008
   12.48222160   82.09339905    4.90999985    2.67000008
   12.48833370   82.09339905    4.90999985    2.67000008
   12.49250031   85.24530029    4.90999985    2.67000008
   12.49583340   82.81240082    4.90999985    2.67000008
   12.49888897   83.98680115    4.90999985    2.67000008
   12.50222206   87.10269928    4.90999985    2.67000008
   12.50527763   84.86049652    4.90999985    2.67000008
   12.50861073   82.07299805    4.90999985    2.67000008
   12.51111126   79.36789703    4.90999985    2.67000008
   12.51222229   82.69460297    4.90999985    2.67000008
   12.51527786   83.45600128    4.90999985    2.67000008
   12.51861095   87.49549866    4.90999985    2.67000008
   12.52194405   80.78589630    4.90999985    2.69000006
   12.52499962   80.94930267    4.90999985    2.67000008
   12.53111076   80.94930267    4.90999985    2.67000008
   12.53527832   80.50019836    4.90999985    2.69000006
   12.53861141   86.31990051    4.90999985    2.69000006
   12.54194450   87.92890167    4.90999985    2.67000008
   12.54444504   87.67250061    4.90999985    2.69000006
   12.54555607   85.73010254    4.90999985    2.69000006
   12.54861164   85.35949707    4.90999985    2.67000008
   12.55194473   76.96980286    4.90999985    2.67000008
   12.55527782   79.83370209    4.90999985    2.67000008
   12.55833340   83.41960144    4.90999985    2.67000008
   12.56166649   79.88590240    4.90999985    2.69000006
   12.56472206   83.51920319    4.90999985    2.67000008
   12.56805515   82.12370300    4.90999985    2.67000008
   12.57416630   82.12370300    4.90999985    2.67000008
   12.57805538   80.64289856    4.90999985    2.69000006
   12.58138847   77.13629913    4.90999985    2.69000006
   12.58472157   80.95559692    4.90999985    2.69000006
   12.58777714   82.67060089    4.90999985    2.69000006
   12.59111118   80.18319702    4.90999985    2.67000008
   12.59444427   86.78510284    4.90999985    2.69000006
   12.59749985   84.97930145    4.90999985    2.67000008
   12.60083389   79.26699829    4.90999985    2.69000006
   12.60388947   81.83910370    4.90999985    2.69000006
   12.60722256   81.73390198    4.90999985    2.69000006
   12.61055565   78.91400146    4.90999985    2.69000006
   12.61111164   83.12500000    4.90999985    2.69000006
   12.61694431   83.12500000    4.90999985    2.67000008
   12.62111092   81.40380096    4.90999985    2.69000006
   12.62416649   82.52719879    4.90999985    2.69000006
   12.62750053   79.86740112    4.90999985    2.69000006
   12.63083363   77.67800140    4.90999985    2.69000006
   12.63388920   81.16960144    4.90999985    2.69000006
   12.63722229   84.45050049    4.90999985    2.69000006
   12.64027786   81.01349640    4.90999985    2.69000006
   12.64361095   75.90190125    4.90999985    2.69000006
   12.64444447   80.65789795    4.90999985    2.69000006
   12.64722252   87.63079834    4.90999985    2.69000006
   12.65027714   82.89489746    4.90999985    2.69000006
   12.65361118   81.84310150    4.90999985    2.69000006
   12.65972137   81.84310150    4.90999985    2.69000006
   12.66388893   77.96520233    4.90999985    2.69000006
   12.66722298   80.14880371    4.90999985    2.69000006
   12.67027855   84.05989838    4.90999985    2.69000006
   12.67361164   83.52169800    4.90999985    2.71000004
   12.67666721   78.42620087    4.90999985    2.69000006
   12.67777824   80.02300262    4.90999985    2.69000006
   12.68055630   79.06539917    4.90999985    2.69000006
   12.68361092   84.31950378    4.90999985    2.71000004
   12.68694496   88.51629639    4.90999985    2.71000004
   12.69027805   82.27359772    4.90999985    2.69000006
   12.69333363   81.17859650    4.90999985    2.71000004
   12.69666672   78.18959808    4.90999985    2.69000006
   12.70249939   78.18959808    4.90999985    2.69000006
   12.70666695   81.87809753    4.90999985    2.71000004
   12.71000004   86.46549988    4.90999985    2.69000006
   12.71111107   83.62249756    4.90999985    2.69000006
   12.71361065   82.97760010    4.90999985    2.69000006
   12.71666622   85.42520142    4.90999985    2.71000004
   12.71999931   83.09899902    4.90999985    2.71000004
   12.72333336   85.31320190    4.90999985    2.69000006
   12.72638798   83.66729736    4.90999985    2.71000004
   12.72972202   79.46990204    4.90999985    2.71000004
   12.73305511   79.13040161    4.90999985    2.71000004
   12.73611164   82.02549744    4.90999985    2.71000004
   12.73944473   82.45230103    4.88999987    2.69000006
   12.74555588   82.45230103    4.86999989    2.71000004
   12.74944496   81.15160370    4.84999990    2.69000006
   12.75277805   79.73549652    4.82999992    2.69000006
   12.75611115   78.30549622    4.82999992    2.71000004
   12.75916672   76.62619781    4.84999990    2.71000004
   12.76249981   77.77320099    4.82999992    2.71000004
   12.76583290   79.43969727    4.82999992    2.71000004
   12.76888847   81.32189941    4.82999992    2.71000004
   12.77222157   79.28500366    4.82999992    2.71000004
   12.77527714   81.67040253    4.82999992    2.71000004
   12.77777767   73.78410339    4.82999992    2.71000004
   12.77916622   79.25360107    4.82999992    2.71000004
   12.78222179   82.64119720    4.82999992    2.71000004
   12.78833389   82.64119720    4.82999992    2.71000004
   12.79250050   80.52700043    4.84999990    2.73000002
   12.79555607   78.42559814    4.82999992    2.71000004
   12.79888916   79.07489777    4.80999994    2.71000004
   12.80222225   79.31580353    4.82999992    2.71000004
   12.80527782   77.92220306    4.82999992    2.71000004
   12.80861092   80.43270111    4.80999994    2.71000004
   12.81111145   82.31310272    4.80999994    2.71000004
   12.81222248   81.51920319    4.80999994    2.71000004
   12.81527805   81.89550018    4.80999994    2.71000004
   12.81861115   82.64830017    4.80000019    2.71000004
   12.82194424   79.44550323    4.78000021    2.71000004
   12.82499981   88.38400269    4.80000019    2.71000004
   12.83111095   88.38400269    4.76000023    2.71000004
   12.83527756   79.65940094    4.76000023    2.71000004
   12.83861065   79.28829956    4.73999977    2.71000004
   12.84166622   77.98519897    4.73999977    2.71000004
   12.84444427   77.50019836    4.73999977    2.71000004
   12.84527779   79.16840363    4.73999977    2.71000004
   12.84833336   82.41210175    4.71999979    2.71000004
   12.85166740   79.63990021    4.71999979    2.71000004
   12.85500050   82.55899811    4.71999979    2.71000004
   12.85805607   78.86360168    4.69999981    2.71000004
   12.86138916   79.23889923    4.69999981    2.71000004
   12.86472225   81.55619812    4.69999981    2.73000002
   12.86777782   77.49520111    4.69999981    2.73000002
   12.87388897   77.49520111    4.69999981    2.71000004
   12.87805557   81.21569824    4.69999981    2.71000004
   12.88138866   80.28549957    4.71999979    2.71000004
   12.88444424   79.83589935    4.71999979    2.71000004
   12.88777733   81.79620361    4.73999977    2.71000004
   12.89111137   85.97360229    4.73999977    2.71000004
   12.89416695   77.42590332    4.71999979    2.71000004
   12.89750004   77.17379761    4.71999979    2.71000004
   12.90083313   82.81780243    4.71999979    2.71000004
   12.90388870   74.85510254    4.69999981    2.73000002
   12.90722179   79.06700134    4.69999981    2.71000004
   12.91027737   75.17759705    4.67999983    2.71000004
   12.91111088   75.89469910    4.65999985    2.73000002
   12.91694450   75.89469910    4.65999985    2.73000002
   12.92083359   75.45169830    4.65999985    2.73000002
   12.92416668   77.40689850    4.65999985    2.71000004
   12.92750072   77.19149780    4.65999985    2.73000002
   12.93055630   81.15429688    4.63999987    2.75000000
   12.93388939   78.59799957    4.61999989    2.75000000
   12.93722248   77.58090210    4.59999990    2.73000002
   12.94027805   84.62200165    4.57999992    2.73000002
   12.94361115   88.73410034    4.57999992    2.75000000
   12.94444466   80.84410095    4.55999994    2.73000002
   12.94722271   76.25599670    4.53999996    2.73000002
   12.95055580   80.52709961    4.53000021    2.73000002
   12.95361137   79.26119995    4.51000023    2.73000002
   12.95972157   79.26119995    4.51000023    2.73000002
   12.96388912   76.64520264    4.51000023    2.75000000
   12.96694374   78.10260010    4.51000023    2.73000002
   12.97027779   79.22299957    4.51000023    2.73000002
   12.97361088   77.93240356    4.53000021    2.73000002
   12.97666645   77.29940033    4.53000021    2.73000002
   12.97777748   79.09600067    4.51000023    2.71000004
   12.98027706   78.15409851    4.53000021    2.73000002
   12.98361111   77.63220215    4.53000021    2.75000000
   12.98666668   77.32740021    4.53000021    2.73000002
   12.99000072   83.53679657    4.53000021    2.73000002
   12.99305534   78.73919678    4.53000021    2.73000002
   12.99638939   80.77239990    4.51000023    2.73000002
   13.00249958   80.77239990    4.48999977    2.75000000
   13.00666714   79.18550110    4.44999981    2.75000000
   13.01000023   80.19819641    4.44999981    2.73000002
   13.01111126   80.93109894    4.44999981    2.73000002
   13.01361084   82.42140198    4.44999981    2.73000002
   13.01694393   76.71060181    4.44999981    2.73000002
   13.01999950   77.27639771    4.42999983    2.73000002
   13.02333355   77.78440094    4.40999985    2.75000000
   13.02638817   85.85169983    4.38999987    2.73000002
   13.02972221   82.12960052    4.38999987    2.75000000
   13.03305531   78.34809875    4.36999989    2.73000002
   13.03611183   77.49189758    4.36999989    2.75000000
   13.03944492   79.42410278    4.36999989    2.75000000
   13.04527855   79.42410278    4.36999989    2.75000000
   13.04944515   83.03949738    4.34999990    2.75000000
   13.05277824   77.99669647    4.34999990    2.75000000
   13.05583382   82.67559814    4.32999992    2.75000000
   13.05916691   79.57749939    4.34999990    2.73000002
   13.06250000   80.91950226    4.34999990    2.75000000
   13.06555557   75.70800018    4.34999990    2.75000000
   13.06888866   81.27680206    4.32999992    2.73000002
   13.07222176   78.09279633    4.32999992    2.73000002
   13.07527733   74.30599976    4.30999994    2.75000000
   13.07777786   81.24340057    4.28999996    2.75000000
   13.07888889   74.17169952    4.28999996    2.75000000
   13.08222198   86.13240051    4.26999998    2.75000000
   13.08833313   86.13240051    4.26999998    2.75000000
   13.09222221   81.86519623    4.26999998    2.75000000
   13.09555531   83.76119995    4.26999998    2.73000002
   13.09888840   79.53179932    4.26999998    2.75000000
   13.10194492   79.69930267    4.26999998    2.73000002
   13.10527802   77.10929871    4.28999996    2.75000000
   13.10861111   79.22979736    4.28999996    2.75000000
   13.11111164   77.46869659    4.28999996    2.75000000
   13.11222267   76.63249969    4.28999996    2.75000000
   13.11555576   82.81020355    4.28999996    2.75000000
   13.11861134   79.91660309    4.30999994    2.75000000
   13.12194443   80.04080200    4.30999994    2.75000000
   13.12527752   79.06629944    4.28999996    2.75000000
   13.13111115   79.06629944    4.26999998    2.75000000
   13.13527775   80.38960266    4.26999998    2.73000002
   13.13833332   81.55460358    4.26999998    2.75000000
   13.14166641   76.05490112    4.26999998    2.75000000
   13.14444447   81.02649689    4.26000023    2.75000000
   13.14527798   76.24649811    4.26000023    2.75000000
   13.14861107   81.58979797    4.23999977    2.76999998
   13.15166664   76.00460052    4.21999979    2.75000000
   13.15499973   74.63310242    4.21999979    2.75000000
   13.15833282   77.20169830    4.21999979    2.75000000
   13.16138840   77.39340210    4.19999981    2.76999998
   13.16472149   76.66619873    4.19999981    2.75000000
   13.16777802   77.77050018    4.17999983    2.75000000
   13.17388916   77.77050018    4.15999985    2.75000000
   13.17805576   76.05039978    4.15999985    2.75000000
   13.18138885   78.09809875    4.13999987    2.76999998
   13.18444443   76.75279999    4.15999985    2.75000000
   13.18777752   78.95069885    4.13999987    2.76999998
   13.19083309   79.50340271    4.13999987    2.76999998
   13.19416714   78.36139679    4.11999989    2.75000000
   13.19750023   75.47489929    4.13999987    2.75000000
   13.20055580   76.09829712    4.13999987    2.76999998
   13.20388889   77.96510315    4.13999987    2.75000000
   13.20722198   78.73190308    4.13999987    2.75000000
   13.21027756   75.98040009    4.13999987    2.75000000
   13.21111107   77.38539886    4.13999987    2.76999998
   13.21666622   77.38539886    4.11999989    2.75000000
   13.22083282   78.14679718    4.11999989    2.76999998
   13.22416592   78.34690094    4.11999989    2.75000000
   13.22722149   78.77929688    4.11999989    2.75000000
   13.24499989   74.94200134    4.09999990    2.76999998
   13.24722290   78.58580017    4.09999990    2.75000000
   13.25055599   74.03710175    4.09999990    2.76999998
   13.25388908   80.28980255    4.09999990    2.76999998
   13.25972176   80.28980255    4.07999992    2.76999998
   13.26388931   82.60279846    4.07999992    2.75000000
   13.26722240   78.88510132    4.05999994    2.75000000
   13.27027798   77.57969666    4.03999996    2.76999998
   13.27361107   75.17079926    4.05999994    2.76999998
   13.27694416   76.71759796    4.03999996    2.75000000
   13.27805519   78.85890198    4.03999996    2.76999998
   13.28055573   80.68969727    4.03999996    2.76999998
   13.28388977   85.16960144    4.05999994    2.78999996
   13.28694534   86.17939758    4.05999994    2.76999998
   13.29027843   78.33470154    4.05999994    2.76999998
   13.29361153   83.94770050    4.05999994    2.76999998
   13.29666710   77.78469849    4.07999992    2.76999998
   13.30249977   77.78469849    4.05999994    2.76999998
   13.30666733   84.43800354    4.07999992    2.76999998
   13.31000042   81.21659851    4.07999992    2.76999998
   13.31138897   86.01450348    4.07999992    2.76999998
   13.31361103   84.94409943    4.07999992    2.78999996
   13.31694412   84.87259674    4.09999990    2.76999998
   13.31999969   90.16419983    4.11999989    2.76999998
   13.32333374   91.48850250    4.09999990    2.76999998
   13.32666683   81.99839783    4.11999989    2.78999996
   13.32972240   83.41190338    4.11999989    2.76999998
   13.33305550   85.48020172    4.13999987    2.76999998
   13.33638859   89.86460114    4.11999989    2.76999998
   13.33944416   83.33119965    4.11999989    2.78999996
   13.34555531   83.33119965    4.11999989    2.76999998
   13.34972191   82.58609772    4.09999990    2.75000000
   13.35277843   82.00039673    4.09999990    2.76999998
   13.35611153   77.64880371    4.07999992    2.75000000
   13.35916710   76.61289978    4.07999992    2.78999996
   13.36250019   84.71360016    4.07999992    2.78999996
   13.36583328   83.40699768    4.07999992    2.76999998
   13.36888885   81.04900360    4.07999992    2.76999998
   13.37222195   80.43920135    4.09999990    2.76999998
   13.37555599   80.70469666    4.09999990    2.76999998
   13.37805557   87.39230347    4.11999989    2.78999996
   13.37916660   78.22679901    4.09999990    2.78999996
   13.38249969   82.91349792    4.09999990    2.78999996
   13.38833332   82.91349792    4.09999990    2.76999998
   13.39249992   83.50599670    4.09999990    2.76999998
   13.39555550   77.53800201    4.07999992    2.78999996
   13.39888859   80.68530273    4.07999992    2.78999996
   13.40222168   77.35279846    4.05999994    2.78999996
   13.40527725   79.41079712    4.05999994    2.76999998
   13.40861034   81.72139740    4.05999994    2.76999998
   13.41138840   79.76699829    4.05999994    2.76999998
   13.41222191   77.63310242    4.03999996    2.76999998
   13.41555500   82.73760223    4.03999996    2.78999996
   13.41861153   82.38259888    4.03999996    2.78999996
   13.42194462   76.94280243    4.03999996    2.78999996
   13.42527771   78.17949677    4.03999996    2.78999996
   13.43111134   78.17949677    4.03999996    2.78999996
   13.43527794   85.15840149    4.03999996    2.76999998
   13.43861103   79.08609772    4.05999994    2.78999996
   13.44166660   79.08219910    4.03999996    2.78999996
   13.44472218   74.40090179    4.03999996    2.78999996
   13.44527817   86.72750092    4.03999996    2.78999996
   13.44861126   81.08339691    4.01999998    2.76999998
   13.45166683   83.00710297    4.01999998    2.78999996
   13.45499992   82.24130249    4.01999998    2.78999996
   13.45833302   77.80789948    4.01999998    2.78999996
   13.46138859   76.72100067    4.00000000    2.78999996
   13.46472168   78.67849731    3.99000001    2.78999996
   13.46777725   81.05010223    3.99000001    2.78999996
   13.47388840   81.05010223    3.97000003    2.78999996
   13.47833252   82.34889984    3.95000005    2.78999996
   13.47861099   78.99220276    3.95000005    2.78999996
   13.48194408   80.32309723    3.95000005    2.78999996
   13.48500061   83.13430023    3.95000005    2.78999996
   13.48833370   83.44020081    3.95000005    2.78999996
   13.49166679   83.70040131    3.95000005    2.78999996
   13.49472237   83.11810303    3.97000003    2.78999996
   13.49805546   82.63909912    3.97000003    2.78999996
   13.50138855   84.74009705    3.95000005    2.78999996
   13.50444412   82.46440125    3.95000005    2.78999996
   13.50777817   88.37550354    3.93000007    2.78999996
   13.51083374   84.55639648    3.93000007    2.76999998
   13.51166630   81.44950104    3.93000007    2.76999998
   13.51694393   81.44950104    3.93000007    2.76999998
   13.52083302   78.80000305    3.91000009    2.78999996
   13.52416611   83.03849792    3.93000007    2.78999996
   13.52750015   81.35279846    3.95000005    2.78999996
   13.53055573   84.30259705    3.95000005    2.78999996
   13.53388977   84.66179657    3.95000005    2.78999996
   13.53722286   86.12280273    3.95000005    2.78999996
   13.54027843   85.27970123    3.95000005    2.78999996
   13.54361153   84.98940277    3.95000005    2.78999996
   13.54500008   85.68099976    3.95000005    2.78999996
   13.54722309   83.33550262    3.95000005    2.78999996
   13.55055618   90.10449982    3.93000007    2.78999996
   13.55361176   88.86779785    3.93000007    2.78999996
   13.55972195   88.86779785    3.93000007    2.78999996
   13.56388950   84.14730072    3.93000007    2.78999996
   13.56694412   81.82070160    3.93000007    2.78999996
   13.57027817   83.20510101    3.91000009    2.78999996
   13.57361126   78.65209961    3.91000009    2.78999996
   13.57666683   80.50610352    3.91000009    2.78999996
   13.57833290   77.22129822    3.91000009    2.78999996
   13.58027744   84.01730347    3.91000009    2.78999996
   13.58361053   79.38120270    3.91000009    2.78999996
   13.58666611   87.50559998    3.91000009    2.78999996
   13.59000015   79.54460144    3.89000010    2.78999996
   13.59333324   76.51229858    3.89000010    2.78999996
   13.59638882   85.24389648    3.91000009    2.78999996
   13.60249996   85.24389648    3.93000007    2.78999996
   13.60666752   79.60800171    3.93000007    2.78999996
   13.61000061   88.46130371    3.91000009    2.78999996
   13.61166668   82.56410217    3.93000007    2.78999996
   13.61361122   87.95110321    3.93000007    2.78999996
   13.61694431   86.77519989    3.93000007    2.78999996
   13.61999989   85.72769928    3.91000009    2.78999996
   13.62333393   80.13480377    3.89000010    2.78999996
   13.62666702   78.19290161    3.89000010    2.76999998
   13.62972260   82.39959717    3.86999989    2.78999996
   13.63305569   83.36070251    3.86999989    2.78999996
   13.63638878   81.38639832    3.86999989    2.78999996
   13.63944435   84.45520020    3.84999990    2.78999996
   13.64527798   84.45520020    3.84999990    2.78999996
   13.64944458   80.43260193    3.82999992    2.80999994
   13.65277767   88.46739960    3.82999992    2.78999996
   13.65583324   79.64270020    3.80999994    2.78999996
   13.65916634   83.47429657    3.82999992    2.78999996
   13.66249943   85.48719788    3.80999994    2.78999996
   13.66555500   95.69830322    3.80999994    2.78999996
   13.66888905   88.00730133    3.80999994    2.78999996
   13.67222214   87.06860352    3.78999996    2.80999994
   13.67527771   81.12000275    3.80999994    2.80999994
   13.67833328   86.78600311    3.80999994    2.78999996
   13.67888927   84.87300110    3.78999996    2.80999994
   13.68222237   83.59819794    3.76999998    2.80999994
   13.68833351   83.59819794    3.76999998    2.78999996
   13.69222260   83.15209961    3.75000000    2.80999994
   13.69555569   81.17559814    3.73000002    2.80999994
   13.69888878   85.48290253    3.73000002    2.80999994
   13.70194435   84.92700195    3.75000000    2.80999994
   13.70527744   84.72160339    3.75000000    2.78999996
   13.70833302   81.05639648    3.73000002    2.78999996
   13.71166611   79.67120361    3.73000002    2.80999994
   13.71194458   79.13690186    3.73000002    2.80999994
   13.71527767   86.63539886    3.73000002    2.80999994
   13.71833324   86.11859894    3.73000002    2.80999994
   13.72166634   80.79429626    3.73000002    2.78999996
   13.72499943   85.34210205    3.73000002    2.80999994
   13.73111057   85.34210205    3.70000005    2.78999996
   13.73527813   85.22090149    3.68000007    2.78999996
   13.73833370   79.78910065    3.68000007    2.78999996
   13.74166679   78.62069702    3.68000007    2.78999996
   13.74499989   85.93499756    3.68000007    2.80999994
   13.74527836   81.30339813    3.68000007    2.80999994
   13.74861145   92.53620148    3.68000007    2.80999994
   13.75166702   88.09639740    3.68000007    2.80999994
   13.75500011   80.08119965    3.68000007    2.80999994
   13.75833321   86.37950134    3.70000005    2.80999994
   13.76138878   82.54209900    3.72000003    2.78999996
   13.76472187   86.50730133    3.72000003    2.78999996
   13.76805496   79.66529846    3.70000005    2.80999994
   13.77388859   79.66529846    3.68000007    2.80999994
   13.77805519   78.78230286    3.66000009    2.80999994
   13.77861118   86.99449921    3.70000005    2.80999994
   13.78166676   76.87699890    3.68000007    2.80999994
   13.78500080   81.92759705    3.66000009    2.80999994
   13.78833389   77.19529724    3.68000007    2.80999994
   13.79138947   88.18340302    3.68000007    2.80999994
   13.79472256   84.53959656    3.64000010    2.80999994
   13.79805565   82.01650238    3.64000010    2.80999994
   13.80111122   84.33889771    3.61999989    2.80999994
   13.90416622   -1.00000000   -1.00000000   -1.00000000
   14.00277805   -1.00000000   -1.00000000   -1.00000000
   14.10944462   -1.00000000   -1.00000000   -1.00000000
   14.22694397   83.16069794    3.53999996    2.82999992
   14.23027706   81.81990051    3.50000000    2.80999994
   14.23361111   81.12629700    3.46000004    2.82999992
   14.23666668   80.42729950    3.41000009    2.82999992
   14.24000072   83.87069702    3.36999989    2.82999992
   14.24333382   82.37879944    3.36999989    2.84999990
   14.24750042   82.37879944    3.41000009    2.84999990
   14.25138855   81.64739990    3.45000005    2.82999992
   14.25472260   91.26370239    3.46000004    2.84999990
   14.25805569   85.00099945    3.45000005    2.84999990
   14.26027775   87.87290192    3.46000004    2.84999990
   14.26166630   81.56759644    3.45000005    2.82999992
   14.26472187   92.22260284    3.48000002    2.82999992
   14.26805496   79.89179993    3.51999998    2.84999990
   14.27138901   86.67510223    3.55999994    2.82999992
   14.27444458   83.34339905    3.57999992    2.82999992
   14.27777767   88.95420074    3.61999989    2.82999992
   14.28083324   85.73809814    3.64000010    2.84999990
   14.28416729   88.12460327    3.66000009    2.84999990
   14.29027843   88.12460327    3.66000009    2.84999990
   14.29444504   80.63939667    3.66000009    2.84999990
   14.29750061   83.26670074    3.64000010    2.82999992
   14.30083370   84.29090118    3.59999990    2.82999992
   14.30388927   82.22540283    3.59999990    2.82999992
   14.30722237   83.48789978    3.59999990    2.82999992
   14.31055546   82.97100067    3.61999989    2.84999990
   14.31361103   87.31559753    3.64000010    2.82999992
   14.31694412   85.57730103    3.61999989    2.84999990
   14.32027817   89.26149750    3.59999990    2.84999990
   14.32333374   82.31490326    3.55999994    2.82999992
   14.32666683   83.07319641    3.50000000    2.82999992
   14.32722187   84.68329620    3.48000002    2.84999990
   14.33305550   84.68329620    3.45000005    2.82999992
   14.33722210   85.78549957    3.46000004    2.84999990
   14.34027767   81.77929688    3.48000002    2.84999990
   14.34361076   85.30210114    3.51999998    2.84999990
   14.34694386   79.27860260    3.51999998    2.84999990
   14.35000038   84.93419647    3.53999996    2.84999990
   14.35333347   81.58239746    3.51999998    2.82999992
   14.35666752   80.79540253    3.51999998    2.82999992
   14.35972214   80.98139954    3.51999998    2.82999992
   14.36055565   82.93399811    3.51999998    2.82999992
   14.36333370   78.55130005    3.51999998    2.82999992
   14.36666679   77.84590149    3.48000002    2.84999990
   14.36999989   84.82939911    3.45000005    2.82999992
   14.37583351   84.82939911    3.43000007    2.84999990
   14.38000011   81.63289642    3.46000004    2.84999990
   14.38333321   82.59809875    3.50000000    2.82999992
   14.38638878   84.57589722    3.50000000    2.84999990
   14.38972187   80.31780243    3.51999998    2.84999990
   14.39305496   84.39739990    3.51999998    2.84999990
   14.39388847   85.19709778    3.51999998    2.82999992
   14.39638901   78.27349854    3.50000000    2.82999992
   14.39972210   76.06919861    3.50000000    2.84999990
   14.40305519   82.29759979    3.50000000    2.84999990
   14.40611076   89.01869965    3.51999998    2.84999990
   14.40944386   86.10469818    3.55999994    2.84999990
   14.41277695   78.50630188    3.57999992    2.84999990
   14.41888905   78.50630188    3.61999989    2.82999992
   14.42277813   81.14389801    3.59999990    2.84999990
   14.42611122   87.42839813    3.57999992    2.82999992
   14.42722225   83.29669952    3.59999990    2.84999990
   14.42972279   86.76229858    3.57999992    2.82999992
   14.43305588   80.04160309    3.55999994    2.84999990
   14.43638897   84.49109650    3.55999994    2.82999992
   14.43944454   78.47630310    3.55999994    2.84999990
   14.44277763   84.59210205    3.59999990    2.84999990
   14.44611073   85.52469635    3.59999990    2.84999990
   14.44916630   80.22640228    3.61999989    2.82999992
   14.45249939   85.57669830    3.59999990    2.84999990
   14.45555496   82.15470123    3.59999990    2.84999990
   14.46166611   82.15470123    3.59999990    2.82999992
   14.46583271   79.26419830    3.55999994    2.84999990
   14.46888828   82.45500183    3.57999992    2.84999990
   14.47222137   80.75499725    3.55999994    2.84999990
   14.47527695   83.28700256    3.53999996    2.84999990
   14.47861099   79.58370209    3.50000000    2.84999990
   14.48194408   90.25839996    3.48000002    2.84999990
   14.48500061   79.68080139    3.48000002    2.84999990
   14.48833370   78.82289886    3.45000005    2.84999990
   14.49166679   80.33660126    3.45000005    2.84999990
   14.49388885   84.35579681    3.46000004    2.86999989
   14.49499989   80.73770142    3.45000005    2.84999990
   14.49833393   79.90850067    3.45000005    2.84999990
   14.50444412   79.90850067    3.41000009    2.84999990
   14.50861073   86.80870056    3.39000010    2.84999990
   14.51166630   82.08570099    3.39000010    2.84999990
   14.51500034   80.31670380    3.34999990    2.84999990
   14.51833344   82.69869995    3.32999992    2.84999990
   14.52138901   76.75489807    3.28999996    2.82999992
   14.52472210   84.02390289    3.30999994    2.84999990
   14.52722168   76.66359711    3.32999992    2.84999990
   14.52833271   79.45500183    3.32999992    2.84999990
   14.53166676   80.94860077    3.34999990    2.84999990
   14.53500080   84.53269958    3.30999994    2.84999990
   14.53805637   86.49530029    3.32999992    2.84999990
   14.54138947   87.98979950    3.32999992    2.84999990
   14.54722309   87.98979950    3.34999990    2.84999990
   14.55138874   86.25530243    3.34999990    2.84999990
   14.55472279   88.04660034    3.34999990    2.84999990
   14.55777836   89.44580078    3.36999989    2.84999990
   14.56055546   86.70379639    3.36999989    2.84999990
   14.56138897   83.75070190    3.36999989    2.84999990
   14.56472206   80.21350098    3.39000010    2.86999989
   14.56805515   82.18579865    3.43000007    2.84999990
   14.57111073   82.25969696    3.43000007    2.84999990
   14.57444477   81.40709686    3.45000005    2.84999990
   14.57777786   78.97740173    3.45000005    2.86999989
   14.58083344   84.80899811    3.45000005    2.84999990
   14.58416653   86.71620178    3.48000002    2.82999992
   14.59000015   86.71620178    3.50000000    2.84999990
   14.59416676   89.76760101    3.50000000    2.84999990
   14.59749985   76.26619720    3.50000000    2.84999990
   14.60083389   79.04660034    3.50000000    2.82999992
   14.60388947   79.30709839    3.48000002    2.84999990
   14.60722256   84.20690155    3.46000004    2.84999990
   14.61027813   81.00749969    3.45000005    2.84999990
   14.61361122   85.85759735    3.45000005    2.84999990
   14.61694431   82.01779938    3.43000007    2.82999992
   14.61999989   81.87329865    3.41000009    2.84999990
   14.62333393   88.11029816    3.41000009    2.84999990
   14.62666702   84.98690033    3.39000010    2.84999990
   14.62722206   90.56279755    3.41000009    2.84999990
   14.63305569   90.56279755    3.39000010    2.84999990
   14.63722229   84.33719635    3.39000010    2.86999989
   14.64027786   85.46070099    3.43000007    2.86999989
   14.64361095   86.02030182    3.43000007    2.86999989
   14.64666653   85.94899750    3.45000005    2.84999990
   14.64999962   84.64070129    3.46000004    2.84999990
   14.65333271   81.71279907    3.48000002    2.84999990
   14.65638828   83.50180054    3.51999998    2.84999990
   14.65972137   85.08129883    3.50000000    2.86999989
   14.66055489   80.47930145    3.50000000    2.86999989
   14.66333294   87.21959686    3.48000002    2.84999990
   14.66638851   80.93360138    3.46000004    2.84999990
   14.66972256   80.44750214    3.45000005    2.86999989
   14.67583370   80.44750214    3.41000009    2.84999990
   14.68000031   83.93129730    3.36999989    2.84999990
   14.68305588   78.54530334    3.34999990    2.84999990
   14.68638897   83.43609619    3.34999990    2.84999990
   14.68972206   77.99160004    3.32999992    2.84999990
   14.69277763   83.57610321    3.28999996    2.84999990
   14.69388866   80.64150238    3.30999994    2.84999990
   14.69666672   80.12149811    3.26999998    2.86999989
   14.69972229   82.93779755    3.26999998    2.84999990
   14.70305538   77.44290161    3.26999998    2.84999990
   14.70611095   81.88369751    3.28999996    2.84999990
   14.70944405   83.53559875    3.28999996    2.86999989
   14.71277714   82.49019623    3.28999996    2.84999990
   14.71861076   82.49019623    3.30999994    2.84999990
   14.72277737   77.34159851    3.32999992    2.84999990
   14.72611046   80.89060211    3.34999990    2.86999989
   14.72722149   77.16570282    3.34999990    2.84999990
   14.72972202   81.37139893    3.36999989    2.84999990
   14.73277760   80.68060303    3.39000010    2.84999990
   14.73611164   82.43499756    3.39000010    2.84999990
   14.73916721   77.07749939    3.41000009    2.84999990
   14.74250031   77.29679871    3.43000007    2.86999989
   14.74583340   80.70659637    3.41000009    2.84999990
   14.74888897   80.63899994    3.41000009    2.84999990
   14.75222206   78.83170319    3.43000007    2.84999990
   14.75555515   78.44480133    3.41000009    2.84999990
   14.76166630   78.44480133    3.39000010    2.84999990
   14.76555538   84.59069824    3.36999989    2.84999990
   14.76888847   87.42759705    3.39000010    2.84999990
   14.77222157   83.02380371    3.39000010    2.86999989
   14.77527714   82.22309875    3.39000010    2.84999990
   14.77861118   85.59020233    3.39000010    2.86999989
   14.78166676   83.09680176    3.39000010    2.86999989
   14.78500080   81.09690094    3.39000010    2.84999990
   14.78833389   78.41600037    3.39000010    2.84999990
   14.79138947   82.99189758    3.39000010    2.84999990
   14.79388905   83.28659821    3.34999990    2.84999990
   14.79527855   83.21459961    3.34999990    2.84999990
   14.79833412   76.90249634    3.36999989    2.86999989
   14.80444431   76.90249634    3.36999989    2.84999990
   14.80861092   82.68470001    3.36999989    2.86999989
   14.81166649   82.52030182    3.39000010    2.86999989
   14.81500053   80.49980164    3.39000010    2.86999989
   14.81805515   78.97149658    3.39000010    2.86999989
   14.82138920   75.29010010    3.36999989    2.84999990
   14.82472229   81.88169861    3.39000010    2.86999989
   14.82722187   84.03549957    3.41000009    2.86999989
   14.82833290   88.73030090    3.41000009    2.84999990
   14.83138847   81.63099670    3.43000007    2.84999990
   14.83472157   81.66359711    3.39000010    2.86999989
   14.83777714   89.28379822    3.36999989    2.84999990
   14.84111118   86.29280090    3.39000010    2.86999989
   14.84722233   86.29280090    3.41000009    2.86999989
   14.85138893   84.93389893    3.39000010    2.86999989
   14.85444450   86.80069733    3.41000009    2.84999990
   14.85777855   82.76100159    3.41000009    2.84999990
   14.86055565   79.34609985    3.45000005    2.84999990
   14.86166668   89.48940277    3.45000005    2.84999990
   14.86472225   81.12590027    3.45000005    2.84999990
   14.86805534   79.39459991    3.43000007    2.86999989
   14.87111092   78.07170105    3.43000007    2.86999989
   14.87444496   78.03669739    3.48000002    2.84999990
   14.87777805   78.72219849    3.51999998    2.86999989
   14.88083363   82.98600006    3.64000010    2.84999990
   14.88416672   83.89969635    3.64000010    2.84999990
   14.89000034   83.89969635    3.53999996    2.86999989
   14.89416695   80.13780212    3.50000000    2.84999990
   14.89750004   75.90609741    3.50000000    2.84999990
   14.90055561   81.88890076    3.48000002    2.84999990
   14.90388870   82.96089935    3.46000004    2.84999990
   14.90722179   78.39350128    3.48000002    2.86999989
   14.91027737   78.55200195    3.51999998    2.84999990
   14.91361046   80.86519623    3.51999998    2.86999989
   14.91666698   81.86180115    3.57999992    2.86999989
   14.92000008   81.34359741    3.53999996    2.89000010
   14.92333412   77.74939728    3.48000002    2.86999989
   14.92638874   78.93360138    3.45000005    2.86999989
   14.92722225   78.12220001    3.45000005    2.86999989
   14.93277836   78.12220001    3.41000009    2.89000010
   14.93694496   77.22419739    3.32999992    2.86999989
   14.94027805   82.17859650    3.28999996    2.86999989
   14.94361115   80.13009644    3.25000000    2.86999989
   14.94666672   79.38780212    3.23000002    2.86999989
   14.94999981   75.66159821    3.25000000    2.86999989
   14.95305538   86.79160309    3.26999998    2.86999989
   14.95638847   75.82669830    3.28999996    2.86999989
   14.95972157   82.25789642    3.32999992    2.86999989
   14.96055508   85.16989899    3.32999992    2.86999989
   14.96333313   83.87660217    3.32999992    2.86999989
   14.96638870   81.16909790    3.34999990    2.84999990
   14.96972179   80.25520325    3.39000010    2.86999989
   14.97583294   80.25520325    3.39000010    2.84999990
   14.97999954   80.17530060    3.36999989    2.84999990
   14.98305511   76.44580078    3.36999989    2.86999989
   14.98638916   78.45850372    3.36999989    2.86999989
   14.98944473   83.89939880    3.34999990    2.86999989
   14.99277782   81.30519867    3.32999992    2.86999989
   14.99388885   89.67600250    3.30999994    2.86999989
   14.99638939   78.90470123    3.28999996    2.86999989
   14.99944496   78.71920013    3.26999998    2.86999989
   15.00277805   83.75800323    3.28999996    2.86999989
   15.00611115   79.67400360    3.28999996    2.86999989
   15.00916672   77.20950317    3.30999994    2.86999989
   15.01249981   85.36509705    3.26999998    2.86999989
   15.01861095   85.36509705    3.26999998    2.86999989
   15.02277756   81.76670074    3.23000002    2.86999989
   15.02583313   78.19779968    3.20000005    2.86999989
   15.02722168   82.47170258    3.20000005    2.86999989
   15.02972221   77.29149628    3.20000005    2.86999989
   15.03277779   80.95989990    3.18000007    2.86999989
   15.03611183   79.64170074    3.14000010    2.89000010
   15.03944492   78.13279724    3.11999989    2.84999990
   15.04250050   77.02439880    3.09999990    2.86999989
   15.04583359   80.64080048    3.07999992    2.84999990
   15.04888916   76.77950287    3.09999990    2.86999989
   15.05222225   82.78399658    3.09999990    2.86999989
   15.05555534   86.70369720    3.11999989    2.84999990
   15.06138897   86.70369720    3.18000007    2.86999989
   15.06555557   83.15190125    3.23000002    2.86999989
   15.06888866   87.85639954    3.25000000    2.86999989
   15.07194424   82.50340271    3.25000000    2.86999989
   15.07527733   78.88819885    3.26999998    2.86999989
   15.07861137   75.61609650    3.23000002    2.86999989
   15.08166695   77.35880280    3.21000004    2.86999989
   15.08500004   83.20700073    3.23000002    2.86999989
   15.08805561   83.27339935    3.21000004    2.86999989
   15.09138870   84.31230164    3.20000005    2.86999989
   15.09388828   78.78479767    3.20000005    2.86999989
   15.09499931   77.58409882    3.21000004    2.86999989
   15.09805489   79.19940186    3.21000004    2.86999989
   15.10444450   79.19940186    3.21000004    2.86999989
   15.10833359   79.07679749    3.21000004    2.86999989
   15.11166668   78.46690369    3.21000004    2.84999990
   15.11500072   81.50240326    3.21000004    2.86999989
   15.11805534   83.10050201    3.21000004    2.86999989
   15.12138939   86.59980011    3.21000004    2.86999989
   15.12444496   87.60260010    3.23000002    2.86999989
   15.12722206   83.92769623    3.23000002    2.86999989
   15.12833309   82.91320038    3.21000004    2.86999989
   15.13138866   80.22129822    3.21000004    2.86999989
   15.13472176   89.99690247    3.20000005    2.86999989
   15.13805580   78.12349701    3.16000009    2.89000010
   15.14111137   81.78639984    3.16000009    2.86999989
   15.14722252   81.78639984    3.18000007    2.86999989
   15.15138817   80.96189880    3.16000009    2.86999989
   15.15444374   81.90360260    3.16000009    2.86999989
   15.15777779   83.14559937    3.18000007    2.86999989
   15.16055489   82.33460236    3.21000004    2.86999989
   15.16138840   75.98210144    3.23000002    2.86999989
   15.16444397   76.29049683    3.26999998    2.86999989
   15.16777802   82.77400208    3.26999998    2.86999989
   15.17111111   75.94850159    3.26999998    2.86999989
   15.17416668   78.24549866    3.26999998    2.86999989
   15.17750072   76.51599884    3.26999998    2.86999989
   15.18055630   78.78610229    3.26999998    2.86999989
   15.18388939   78.06659698    3.26999998    2.86999989
   15.19000053   78.06659698    3.30999994    2.86999989
   15.19416714   81.47760010    3.30999994    2.86999989
   15.19722271   81.08439636    3.32999992    2.86999989
   15.20055580   78.58830261    3.32999992    2.86999989
   15.20388889   76.50340271    3.30999994    2.86999989
   15.20694447   85.09159851    3.28999996    2.86999989
   15.21027756   76.23390198    3.26999998    2.86999989
   15.21361065   77.38510132    3.26999998    2.86999989
   15.21666622   79.92780304    3.28999996    2.86999989
   15.21999931   78.91059875    3.34999990    2.86999989
   15.22305489   87.41999817    3.32999992    2.86999989
   15.22638798   88.56130219    3.34999990    2.86999989
   15.22722149   84.58300018    3.30999994    2.86999989
   15.24805546   84.58300018    3.48000002    2.86999989
   15.25222206   77.46949768    3.48000002    2.86999989
   15.25527763   75.37139893    3.45000005    2.86999989
   15.25861073   75.47519684    3.45000005    2.86999989
   15.26055527   78.42250061    3.45000005    2.86999989
   15.26222229   83.50409698    3.50000000    2.86999989
   15.26527786   81.28600311    3.50000000    2.89000010
   15.26861095   78.73509979    3.48000002    2.86999989
   15.27194405   78.36830139    3.46000004    2.86999989
   15.27499962   77.23359680    3.46000004    2.86999989
   15.27833271   75.19020081    3.50000000    2.86999989
   15.28166676   79.87940216    3.50000000    2.86999989
   15.28472233   76.80249786    3.48000002    2.86999989
   15.29083347   76.80249786    3.41000009    2.86999989
   15.29472256   79.83529663    3.36999989    2.84999990
   15.29805565   79.58080292    3.36999989    2.86999989
   15.30138874   75.63259888    3.34999990    2.86999989
   15.30444431   77.03949738    3.30999994    2.86999989
   15.30777836   73.32800293    3.28999996    2.86999989
   15.31111145   80.08740234    3.28999996    2.86999989
   15.31416702   82.02040100    3.26999998    2.86999989
   15.31750011   76.23690033    3.26999998    2.86999989
   15.32055569   76.63459778    3.26999998    2.86999989
   15.32388878   87.29389954    3.20000005    2.86999989
   15.32722187   75.93460083    3.18000007    2.89000010
   15.32777786   78.02590179    3.18000007    2.89000010
   15.33361053   78.02590179    3.11999989    2.86999989
   15.33777714   75.94840240    3.14000010    2.86999989
   15.34083271   79.34770203    3.11999989    2.89000010
   15.34416676   74.02850342    2.94000006    2.86999989
   15.34749985   72.99990082    2.96000004    2.86999989
   15.35055637   77.91139984    2.94000006    2.86999989
   15.35388947   80.45809937    2.94000006    2.86999989
   15.35694504   77.44380188    2.96000004    2.89000010
   15.36027813   86.20069885    3.00000000    2.86999989
   15.36111164   81.41120148    3.00000000    2.89000010
   15.36388969   77.57160187    3.09999990    2.89000010
   15.36722279   79.80490112    3.14000010    2.86999989
   15.37055588   85.05690002    3.14000010    2.89000010
   15.37638855   85.05690002    3.16000009    2.86999989
   15.38055611   77.48229980    3.20000005    2.86999989
   15.38388920   76.38649750    3.20000005    2.89000010
   15.38694477   82.10320282    3.14000010    2.86999989
   15.39027786   79.44730377    3.09999990    2.86999989
   15.39333344   79.91639709    3.05999994    2.89000010
   15.39444447   76.27580261    3.01999998    2.89000010
   15.39694405   76.28389740    2.98000002    2.86999989
   15.40027714   78.16470337    3.00000000    2.89000010
   15.40361118   79.36309814    2.96000004    2.86999989
   15.40666676   78.70610046    3.11999989    2.89000010
   15.40999985   77.20999908    3.14000010    2.89000010
   15.41305542   81.04149628    2.96000004    2.89000010
   15.41916656   81.04149628    2.93000007    2.89000010
   15.42333412   81.59359741    2.98000002    2.89000010
   15.42666721   79.18740082    2.98000002    2.89000010
   15.42777824   79.25019836    3.01999998    2.86999989
   15.43027782   74.51149750    3.03999996    2.89000010
   15.43361092   79.62259674    3.07999992    2.86999989
   15.43694496   78.43890381    3.07999992    2.86999989
   15.44000053   75.32640076    3.14000010    2.86999989
   15.44333363   80.87049866    3.14000010    2.86999989
   15.44638920   75.91190338    3.14000010    2.89000010
   15.44972229   80.14730072    3.14000010    2.86999989
   15.45305538   79.45089722    3.18000007    2.89000010
   15.45611095   79.85910034    3.16000009    2.89000010
   15.46222210   79.85910034    3.14000010    2.89000010
   15.46611118   74.91600037    3.09999990    2.86999989
   15.46944427   80.34369659    3.09999990    2.89000010
   15.47277737   83.02279663    3.07999992    2.89000010
   15.47583294   78.43789673    3.07999992    2.89000010
   15.47916603   80.44170380    3.05999994    2.89000010
   15.48249912   83.66909790    3.05999994    2.86999989
   15.48555565   80.91339874    3.00000000    2.89000010
   15.48888874   76.98850250    2.98000002    2.89000010
   15.49194431   75.99829865    2.98000002    2.86999989
   15.49444485   81.37190247    3.00000000    2.89000010
   15.49555588   78.29869843    2.96000004    2.89000010
   15.49888897   82.80639648    2.98000002    2.89000010
   15.50500011   82.80639648    3.11999989    2.89000010
   15.50916672   76.69550323    3.11999989    2.89000010
   15.51222229   81.86060333    3.11999989    2.89000010
   15.51555538   77.01879883    3.11999989    2.89000010
   15.51888847   81.30740356    3.11999989    2.86999989
   15.52194405   85.85959625    3.11999989    2.89000010
   15.52527714   81.07260132    3.11999989    2.89000010
   15.52777767   80.79679871    3.11999989    2.86999989
   15.52888870   76.19560242    3.11999989    2.89000010
   15.53222179   78.03160095    3.11999989    2.89000010
   15.53555584   83.86360168    3.11999989    2.86999989
   15.53861141   86.91899872    3.11999989    2.89000010
   15.54194450   81.77980042    3.09999990    2.86999989
   15.54777813   81.77980042    3.11999989    2.86999989
   15.55194473   82.88390350    3.11999989    2.86999989
   15.55527782   81.89029694    3.11999989    2.89000010
   15.55833340   74.53299713    3.11999989    2.89000010
   15.56111145   79.53119659    3.11999989    2.86999989
   15.56194496   78.38510132    3.14000010    2.89000010
   15.56527805   77.38130188    3.16000009    2.86999989
   15.56861115   77.53769684    3.18000007    2.89000010
   15.57166672   81.02780151    3.23000002    2.89000010
   15.57499981   80.10679626    3.28999996    2.89000010
   15.57805538   77.95439911    3.30999994    2.89000010
   15.58138847   79.11180115    3.32999992    2.89000010
   15.58472157   77.85880280    3.32999992    2.89000010
   15.59055519   77.85880280    3.39000010    2.86999989
   15.59472179   75.29139709    3.39000010    2.86999989
   15.59805489   79.97789764    3.39000010    2.89000010
   15.60111141   78.20159912    3.41000009    2.89000010
   15.60444450   80.62419891    3.41000009    2.89000010
   15.60777855   78.35939789    3.41000009    2.86999989
   15.61083412   79.20680237    3.36999989    2.86999989
   15.61416721   76.45069885    3.36999989    2.86999989
   15.61750031   75.94480133    3.34999990    2.89000010
   15.62055588   80.47949982    3.32999992    2.89000010
   15.62388897   81.25520325    3.32999992    2.86999989
   15.62694454   73.88680267    3.32999992    2.89000010
   15.62777805   80.57409668    3.32999992    2.89000010
   15.63361073   80.57409668    3.32999992    2.86999989
   15.63749981   82.17089844    3.28999996    2.89000010
   15.64083290   83.39990234    3.32999992    2.89000010
   15.64416695   79.98860168    3.34999990    2.89000010
   15.64722252   78.94049835    3.36999989    2.89000010
   15.65055561   80.75039673    3.43000007    2.89000010
   15.65388870   79.76360321    3.45000005    2.89000010
   15.65694427   82.16590118    3.46000004    2.86999989
   15.66027737   78.18840027    3.34999990    2.89000010
   15.66111088   81.90859985    3.34999990    2.89000010
   15.66388893   79.55210114    3.41000009    2.89000010
   15.66694450   78.93090057    3.45000005    2.89000010
   15.67027855   76.76170349    3.48000002    2.89000010
   15.67638874   76.76170349    3.46000004    2.86999989
   15.68055630   76.39749908    3.46000004    2.86999989
   15.68361092   80.68170166    3.41000009    2.89000010
   15.68694496   79.22779846    3.45000005    2.89000010
   15.69027805   76.83879852    3.50000000    2.86999989
   15.69333363   77.68489838    3.53999996    2.86999989
   15.69444466   76.81390381    3.50000000    2.86999989
   15.69694424   76.58560181    3.45000005    2.89000010
   15.70027733   81.43859863    3.26999998    2.86999989
   15.70361137   82.02469635    3.25000000    2.89000010
   15.70666695   75.23590088    3.26999998    2.86999989
   15.71000004   80.65139771    3.26999998    2.89000010
   15.71333313   79.27089691    3.26999998    2.89000010
   15.71916580   79.27089691    3.21000004    2.89000010
   15.72333336   77.79170227    3.23000002    2.86999989
   15.72666645   76.13539886    3.25000000    2.89000010
   15.72777748   80.91680145    3.26999998    2.89000010
   15.72999954   76.52829742    3.30999994    2.91000009
   15.73333359   83.28240204    3.30999994    2.89000010
   15.73666668   77.28489685    3.28999996    2.89000010
   15.73972225   78.49019623    3.30999994    2.89000010
   15.74305534   78.37049866    3.26999998    2.89000010
   15.74638939   78.54669952    3.26999998    2.89000010
   15.74944496   77.02790070    3.25000000    2.89000010
   15.75277805   76.59429932    3.23000002    2.89000010
   15.75611115   77.19680023    3.21000004    2.89000010
   15.76194477   77.19680023    3.16000009    2.89000010
   15.76611137   80.48570251    3.14000010    2.89000010
   15.76944447   84.58480072    3.07999992    2.89000010
   15.77250004   78.22250366    3.07999992    2.89000010
   15.77583313   76.48719788    3.05999994    2.89000010
   15.77916622   76.29519653    3.07999992    2.89000010
   15.78222179   76.65049744    3.03999996    2.89000010
   15.78555584   78.22840118    3.05999994    2.89000010
   15.78888893   74.55380249    3.16000009    2.89000010
   15.79194450   79.75019836    3.18000007    2.89000010
   15.79444504   76.29859924    3.21000004    2.89000010
   15.79555607   78.34670258    3.21000004    2.89000010
   15.79888916   73.76519775    3.25000000    2.91000009
   15.80472279   73.76519775    3.30999994    2.89000010
   15.80888939   78.65579987    3.25000000    2.89000010
   15.81222248   81.63520050    3.20000005    2.89000010
   15.81555557   81.83879852    3.16000009    2.89000010
   15.81861115   77.47530365    3.20000005    2.89000010
   15.82194424   77.91739655    3.23000002    2.89000010
   15.82527733   80.60119629    3.20000005    2.86999989
   15.82777786   83.28620148    3.21000004    2.89000010
   15.82861137   77.78140259    3.18000007    2.89000010
   15.83194447   79.82520294    3.16000009    2.89000010
   15.83527756   78.40740204    3.16000009    2.89000010
   15.83833313   75.74330139    3.14000010    2.89000010
   15.84166622   79.83609772    3.14000010    2.89000010
   15.84777737   79.83609772    3.09999990    2.89000010
   15.85194492   77.54209900    3.07999992    2.89000010
   15.85500050   76.58619690    3.05999994    2.91000009
   15.85833359   81.52200317    3.00000000    2.89000010
   15.86111164   77.56449890    3.01999998    2.89000010
   15.86166668   81.28060150    3.01999998    2.89000010
   15.86500072   76.95310211    3.05999994    2.89000010
   15.86833382   82.88120270    3.07999992    2.89000010
   15.87138939   79.26609802    3.01999998    2.89000010
   15.87472248   88.08670044    3.01999998    2.91000009
   15.87805557   78.82019806    3.01999998    2.91000009
   15.88111115   75.32420349    3.01999998    2.89000010
   15.88444424   80.66490173    3.01999998    2.91000009
   15.89055538   80.66490173    3.05999994    2.89000010
   15.89472198   76.93640137    3.07999992    2.89000010
   15.89777756   80.78549957    3.11999989    2.89000010
   15.90111065   77.47270203    3.14000010    2.89000010
   15.90444374   78.30799866    3.09999990    2.89000010
   15.90749931   76.50029755    3.09999990    2.89000010
   15.91083336   79.33840179    3.07999992    2.91000009
   15.91416645   79.46279907    3.14000010    2.91000009
   15.91722298   78.33229828    3.14000010    2.89000010
   15.92055607   76.45999908    3.16000009    2.89000010
   15.92388916   77.89279938    3.18000007    2.89000010
   15.92694473   83.00250244    3.21000004    2.89000010
   15.92777824   84.75209808    3.16000009    2.89000010
   15.93333340   84.75209808    3.14000010    2.89000010
   15.93750000   78.98380280    3.16000009    2.89000010
   15.94083309   81.22280121    3.11999989    2.91000009
   15.94388866   76.83619690    3.11999989    2.89000010
   15.94722271   78.11730194    3.14000010    2.91000009
   15.95055580   77.47810364    3.03999996    2.89000010
   15.95361137   77.72779846    3.07999992    2.89000010
   15.95694447   79.93750000    3.09999990    2.89000010
   15.96000004   76.60630035    3.03999996    2.91000009
   15.96111107   83.67169952    3.05999994    2.89000010
   15.96388912   82.07099915    3.03999996    2.89000010
   15.96694374   84.32160187    3.00000000    2.89000010
   15.97027779   82.32029724    2.98000002    2.91000009
   15.97611046   82.32029724    2.91000009    2.89000010
   15.98027706   77.47080231    2.96000004    2.89000010
   15.98361111   75.01210022    2.98000002    2.91000009
   15.98694515   77.66760254    2.98000002    2.91000009
   15.99000072   81.90110016    3.03999996    2.91000009
   15.99333382   78.50689697    3.03999996    2.91000009
   15.99444485   78.36799622    3.00000000    2.89000010
   15.99694443   77.57890320    3.01999998    2.89000010
   16.00000000   78.17179871    3.01999998    2.91000009
   16.00333405   80.02619934    3.07999992    2.89000010
   16.00638962   90.03630066    3.11999989    2.89000010
   16.00972176   79.49250031    3.14000010    2.89000010
   16.01305580   82.16950226    3.18000007    2.91000009
   16.01916695   82.16950226    3.09999990    2.89000010
   16.02333260   83.64679718    3.11999989    2.91000009
   16.02638817   77.37709808    3.05999994    2.91000009
   16.02777672   73.16190338    3.03999996    2.89000010
   16.03027725   85.65630341    3.00000000    2.91000009
   16.03333282   83.54370117    2.94000006    2.89000010
   16.03666687   78.07929993    3.01999998    2.89000010
   16.03972244   79.67590332    3.07999992    2.89000010
   16.04305458   75.45880127    3.05999994    2.89000010
   16.04638863   80.33840179    3.11999989    2.89000010
   16.04944420   81.74810028    3.11999989    2.89000010
   16.05277634   85.59670258    3.18000007    2.91000009
   16.05611038   80.57450104    3.16000009    2.89000010
   16.06194305   80.57450104    3.14000010    2.89000010
   16.06611061   77.98590088    3.16000009    2.89000010
   16.06916809   83.57189941    3.21000004    2.89000010
   16.07250023   85.23870087    3.28999996    2.89000010
   16.07583427   80.37899780    3.30999994    2.89000010
   16.07888985   83.92500305    3.41000009    2.89000010
   16.08222389   80.49130249    3.43000007    2.89000010
   16.08555603   75.06230164    3.45000005    2.89000010
   16.08861160   77.72109985    3.41000009    2.89000010
   16.09194565   75.33719635    3.50000000    2.89000010
   16.09444427   82.52670288    3.51999998    2.91000009
   16.09555626   73.23719788    3.53999996    2.89000010
   16.09861183   80.28359985    3.59999990    2.89000010
   16.10472298   80.28359985    4.07999992    2.89000010
   16.10888863   79.67469788    4.07999992    2.89000010
   16.11222267   75.93299866    3.82999992    2.89000010
   16.11527824   81.77600098    3.73000002    2.91000009
   16.11861038   80.28510284    3.66000009    2.89000010
   16.12194443   75.39050293    3.73000002    2.89000010
   16.12500000   79.83309937    3.68000007    2.86999989
   16.12777710   79.82859802    3.66000009    2.89000010
   16.12888908   79.29959869    3.64000010    2.91000009
   16.13194466   78.69460297    3.64000010    2.89000010
   16.13527679   84.84279633    3.61999989    2.89000010
   16.13861084   87.48459625    3.59999990    2.89000010
   16.14166641   77.02220154    3.55999994    2.89000010
   16.14749908   77.02220154    3.51999998    2.91000009
   16.15166664   79.19660187    3.48000002    2.91000009
   16.15499878   80.59970093    3.43000007    2.91000009
   16.15833282   79.85870361    3.39000010    2.89000010
   16.16110992   80.47669983    3.28999996    2.91000009
   16.16194344   79.61419678    3.28999996    2.91000009
   16.16499901   79.13919830    3.28999996    2.89000010
   16.16833305   79.19719696    3.28999996    2.89000010
   16.17166519   82.66030121    3.20000005    2.91000009
   16.17472076   83.36889648    3.26999998    2.89000010
   16.17805481   85.32129669    3.20000005    2.89000010
   16.18111038   77.79000092    3.23000002    2.89000010
   16.18444443   80.43229675    3.20000005    2.89000010
   16.19055557   80.43229675    3.14000010    2.89000010
   16.19472122   76.59590149    3.14000010    2.91000009
   16.19777679   77.72070313    3.09999990    2.91000009
   16.20111275   79.99490356    3.14000010    2.91000009
   16.20416832   81.02259827    3.14000010    2.89000010
   16.20750046   76.23200226    3.14000010    2.89000010
   16.21083450   76.36509705    3.14000010    2.91000009
   16.21389008   85.96340179    3.18000007    2.89000010
   16.21722221   78.97840118    3.14000010    2.89000010
   16.22055626   75.47419739    3.14000010    2.89000010
   16.22361183   79.29070282    3.14000010    2.89000010
   16.22694588   83.02989960    3.09999990    2.89000010
   16.22777748   77.12870026    3.14000010    2.91000009
   16.23333359   77.12870026    3.07999992    2.91000009
   16.23750114   86.61299896    3.14000010    2.89000010
   16.24055672   80.24030304    3.14000010    2.89000010
   16.24388885   77.75409698    3.14000010    2.91000009
   16.26138878   75.21849823    3.11999989    2.91000009
   16.26388931   77.43009949    3.16000009    2.89000010
   16.26722145   87.22059631    3.32999992    2.89000010
   16.27027702   81.92600250    3.46000004    2.89000010
   16.27638817   81.92600250    3.51999998    2.89000010
   16.28055573   80.93979645    3.51999998    2.89000010
   16.28361130   76.54850006    3.51999998    2.89000010
   16.28694344   74.64309692    3.55999994    2.89000010
   16.29027748   75.47859955    3.51999998    2.89000010
   16.29333305   80.07060242    3.50000000    2.89000010
   16.29472160   80.23370361    3.50000000    2.89000010
   16.29722214   78.37789917    3.46000004    2.91000009
   16.30027771   79.24120331    3.43000007    2.91000009
   16.30360985   80.07109833    3.48000002    2.91000009
   16.30694389   81.56819916    3.51999998    2.89000010
   16.30999947   85.00409698    3.53999996    2.89000010
   16.31333351   86.55110168    3.48000002    2.89000010
   16.31916809   86.55110168    3.50000000    2.89000010
   16.32333374   76.92489624    3.57999992    2.89000010
   16.32666779   80.16870117    3.59999990    2.89000010
   16.32805634   77.14260101    3.59999990    2.89000010
   16.33027840   78.53620148    3.61999989    2.89000010
   16.33333397   80.41490173    3.57999992    2.91000009
   16.33666801   92.07839966    3.70000005    2.89000010
   16.34000015   84.29979706    3.66000009    2.91000009
   16.34305573   86.06490326    3.68000007    2.91000009
   16.34638977   87.44120026    3.68000007    2.89000010
   16.34972191   81.11789703    3.66000009    2.89000010
   16.35277748   81.96119690    3.68000007    2.89000010
   16.35611153   79.65329742    3.57999992    2.89000010
   16.36194420   79.65329742    3.51999998    2.91000009
   16.36611176   82.42279816    3.53999996    2.89000010
   16.36944389   88.14749908    3.53999996    2.91000009
   16.37249947   83.48239899    3.57999992    2.91000009
   16.37583351   81.59130096    3.61999989    2.91000009
   16.37916756   82.10340118    3.68000007    2.91000009
   16.38222313   77.72820282    3.75000000    2.89000010
   16.38555527   74.91419983    3.80999994    2.89000010
   16.38888931   76.88009644    3.76999998    2.89000010
   16.39194489   74.59529877    3.80999994    2.89000010
   16.39472198   77.49500275    3.78999996    2.89000010
   16.39583397   81.89179993    3.80999994    2.89000010
   16.39888954   84.18800354    3.80999994    2.89000010
   16.40499878   84.18800354    3.72000003    2.89000010
   16.40888786   82.49900055    3.72000003    2.91000009
   16.41222191   80.87319946    3.66000009    2.89000010
   16.41555595   79.56490326    3.64000010    2.91000009
   16.41860962   82.32050323    3.64000010    2.89000010
   16.42194366   87.13110352    3.61999989    2.89000010
   16.42527771   80.30989838    3.61999989    2.91000009
   16.42805481   81.20559692    3.64000010    2.89000010
   16.42888832   82.57599640    3.64000010    2.89000010
   16.43222237   79.45570374    3.57999992    2.89000010
   16.43527603   77.57749939    3.51999998    2.91000009
   16.43861008   75.39900208    3.48000002    2.91000009
   16.44194412   81.24600220    3.50000000    2.89000010
   16.44777679   81.24600220    3.51999998    2.91000009
   16.45194435   79.56980133    3.51999998    2.89000010
   16.45499992   84.69149780    3.48000002    2.91000009
   16.45833397   76.70899963    3.45000005    2.91000009
   16.46138954   85.02300262    3.39000010    2.91000009
   16.46194458   80.52719879    3.34999990    2.91000009
   16.46500015   83.01670074    3.32999992    2.91000009
   16.46833420   82.46050262    3.25000000    2.91000009
   16.47166634   82.77660370    3.21000004    2.91000009
   16.47472191   85.75409698    3.23000002    2.91000009
   16.47805595   80.15940094    3.30999994    2.91000009
   16.48139000   85.38059998    3.41000009    2.91000009
   16.48444557   83.88110352    3.34999990    2.91000009
   16.49055672   83.88110352    3.39000010    2.89000010
   16.49472237   84.11180115    3.39000010    2.89000010
   16.49527740   87.62870026    3.39000010    2.89000010
   16.49833298   82.18170166    3.39000010    2.91000009
   16.50166702   89.37359619    3.41000009    2.91000009
   16.50499916   87.46900177    3.41000009    2.91000009
   16.50805473   84.68180084    3.36999989    2.91000009
   16.51138878   82.15339661    3.41000009    2.91000009
   16.51472282   79.98410034    3.45000005    2.91000009
   16.51777840   81.79699707    3.50000000    2.91000009
   16.52111053   84.58989716    3.51999998    2.89000010
   16.52444458   76.78610229    3.61999989    2.89000010
   16.52750015   89.36569977    3.55999994    2.91000009
   16.52805519   88.19709778    3.57999992    2.91000009
   16.53333282   88.19709778    3.59999990    2.89000010
   16.53750038   83.37570190    3.68000007    2.89000010
   16.54083252   88.48680115    3.73000002    2.89000010
   16.54388809   93.07779694    3.91000009    2.89000010
   16.54722214   89.61319733    3.93000007    2.89000010
   16.55055428  100.23000336    3.95000005    2.91000009
   16.55360985   93.74340057    3.95000005    2.91000009
   16.55694389  106.84100342    3.86999989    2.89000010
   16.56027794   94.46320343    3.86999989    2.89000010
   16.56138802   96.34439850    3.82999992    2.89000010
   16.56388855   96.97709656    3.84999990    2.91000009
   16.56722260   93.64530182    3.78999996    2.89000010
   16.57027817   89.53130341    3.78999996    2.89000010
   16.57638931   89.53130341    3.80999994    2.89000010
   16.58027840   88.50499725    3.80999994    2.91000009
   16.58361244   86.98139954    3.78999996    2.91000009
   16.58694458   84.44799805    3.73000002    2.91000009
   16.59000015   99.24890137    3.75000000    2.91000009
   16.59333420   91.10849762    3.70000005    2.89000010
   16.59472275   86.65299988    3.66000009    2.89000010
   16.59694481   86.71549988    3.73000002    2.89000010
   16.60027885   85.12349701    3.73000002    2.89000010
   16.60333443   88.64119720    3.72000003    2.91000009
   16.60666656   81.92749786    3.70000005    2.89000010
   16.60972214   80.93370056    3.68000007    2.89000010
   16.61305618   84.22470093    3.66000009    2.89000010
   16.61916733   84.22470093    3.70000005    2.91000009
   16.62333298   79.91709900    3.68000007    2.91000009
   16.62638855   82.90740204    3.72000003    2.91000009
   16.62805557   81.98159790    3.72000003    2.89000010
   16.63027763   90.00119781    3.72000003    2.89000010
   16.63361168   84.88220215    3.76999998    2.89000010
   16.63666725   78.79470062    3.76999998    2.91000009
   16.63999939   87.28250122    3.78999996    2.89000010
   16.64305496   80.81060028    3.80999994    2.91000009
   16.64638901   82.33499908    3.76999998    2.89000010
   16.64972115   81.52850342    3.80999994    2.91000009
   16.65277672   81.81939697    3.86999989    2.91000009
   16.65611076   82.33470154    3.93000007    2.91000009
   16.66194344   82.33470154    3.97000003    2.91000009
   16.66611099   81.54660034    4.00000000    2.89000010
   16.66944313   83.73459625    4.03999996    2.89000010
   16.67249870   90.66850281    4.03999996    2.89000010
   16.67583275   84.87719727    4.07999992    2.89000010
   16.67888832   82.73159790    4.00000000    2.89000010
   16.68222237   92.29830170    4.00000000    2.89000010
   16.68555450   83.61569977    3.95000005    2.91000009
   16.68861008   88.85639954    3.95000005    2.91000009
   16.69194412   80.92849731    3.84999990    2.91000009
   16.69472122   88.28720093    3.82999992    2.89000010
   16.69555473   89.41750336    3.75000000    2.91000009
   16.69888878   88.14810181    3.72000003    2.89000010
   16.70472336   88.14810181    3.61999989    2.91000009
   16.70888901   84.18289948    3.53999996    2.91000009
   16.71222305   85.56590271    3.48000002    2.91000009
   16.71527863   84.57910156    3.45000005    2.91000009
   16.71861076   86.73220062    3.45000005    2.91000009
   16.72194481   93.94280243    3.43000007    2.91000009
   16.72500038   95.17590332    3.46000004    2.91000009
   16.72805595   89.07700348    3.50000000    2.91000009
   16.72861099   92.81950378    3.50000000    2.91000009
   16.73194504   87.57199860    3.50000000    2.91000009
   16.73500061   95.33820343    3.57999992    2.91000009
   16.73833275   83.39550018    3.73000002    2.91000009
   16.74138832   94.14769745    3.82999992    2.91000009
   16.74749947   94.14769745    3.91000009    2.91000009
   16.75166702   90.01820374    3.93000007    2.91000009
   16.75499916   86.14890289    3.97000003    2.89000010
   16.75833321   78.97869873    3.95000005    2.91000009
   16.76138878   87.15940094    3.91000009    2.91000009
   16.76194382   90.35620117    3.95000005    2.91000009
   16.76527786   82.66760254    3.84999990    2.91000009
   16.76833344   76.40080261    3.84999990    2.91000009
   16.77166557   76.87550354    3.86999989    2.89000010
   16.77472115   80.69219971    3.89000010    2.91000009
   16.77805519   86.49449921    3.89000010    2.89000010
   16.78138924   81.12039948    3.93000007    2.89000010
   16.78444481   79.34760284    3.93000007    2.91000009
   16.79055595   79.34760284    3.99000001    2.91000009
   16.79472160   89.43180084    4.07999992    2.91000009
   16.79500008   77.87400055    4.07999992    2.89000010
   16.79833221   82.96549988    4.01999998    2.89000010
   16.80166626   77.48239899    4.00000000    2.91000009
   16.80472183   77.89270020    3.97000003    2.89000010
   16.80805397   79.30989838    3.93000007    2.89000010
   16.81138802   80.02459717    4.03999996    2.89000010
   16.81444359   77.26629639    4.03999996    2.89000010
   16.81777954   82.61180115    4.19999981    2.89000010
   16.82111168   85.89869690    4.21999979    2.89000010
   16.82416725   84.98600006    4.21999979    2.89000010
   16.82750130   92.85559845    4.09999990    2.91000009
   16.82833481   82.24680328    4.03999996    2.91000009
   16.83333397   82.24680328    4.00000000    2.89000010
   16.83750153   83.73629761    3.99000001    2.89000010
   16.84055710   81.45040131    4.03999996    2.89000010
   16.84388924   86.63059998    4.05999994    2.91000009
   16.84722328   81.90249634    3.99000001    2.91000009
   16.85055542   90.07080078    3.95000005    2.91000009
   16.85361099   84.40959930    3.99000001    2.89000010
   16.85694504   84.29139709    3.89000010    2.89000010
   16.86000061   88.61119843    3.66000009    2.89000010
   16.86166763   87.89219666    3.68000007    2.91000009
   16.86361122   88.54329681    3.66000009    2.91000009
   16.86694527   86.90380096    3.73000002    2.91000009
   16.87000084   89.26750183    3.72000003    2.91000009
   16.87611198   89.26750183    3.72000003    2.91000009
   16.88027763   88.93049622    3.68000007    2.91000009
   16.88361168   88.94409943    3.68000007    2.91000009
   16.88666725   89.32240295    3.68000007    2.91000009
   16.88999939   86.20140076    3.68000007    2.91000009
   16.89333344   80.44840240    3.64000010    2.89000010
   16.89500046   89.96279907    3.66000009    2.91000009
   16.89666748   87.21260071    3.68000007    2.91000009
   16.89999962   83.07219696    3.64000010    2.91000009
   16.90305519   91.31310272    3.61999989    2.91000009
   16.90638924   82.88110352    3.64000010    2.89000010
   16.90972137   78.34629822    3.73000002    2.91000009
   16.91277695   89.25509644    3.84999990    2.91000009
   16.91888809   89.25509644    3.95000005    2.91000009
   16.92305565   87.97540283    3.86999989    2.89000010
   16.92638779   87.48449707    3.89000010    2.89000010
   16.92860985   92.08630371    3.86999989    2.89000010
   16.93000031   87.29109955    3.89000010    2.91000009
   16.93333244  102.22299957    3.91000009    2.91000009
   16.93638802   90.63880157    3.80999994    2.91000009
   16.93972206   84.55329895    3.80999994    2.91000009
   16.94305420   90.73100281    3.80999994    2.91000009
   16.94610977   87.39730072    3.78999996    2.89000010
   16.94944382   77.28630066    3.78999996    2.89000010
   16.95277786   87.95110321    3.80999994    2.91000009
   16.95583344   80.50730133    3.82999992    2.89000010
   16.96194458   80.50730133    3.89000010    2.91000009
   16.96583366   84.74819946    3.82999992    2.91000009
   16.96916771   88.73999786    3.84999990    2.91000009
   16.97249985   94.06140137    3.84999990    2.91000009
   16.97555542   79.78459930    3.78999996    2.91000009
   16.97888947   91.93070221    3.78999996    2.91000009
   16.98222351   88.11399841    3.84999990    2.89000010
   16.98527718   87.17320251    3.86999989    2.91000009
   17.02499962   87.15609741    3.84999990    2.89000010
   17.02833366   81.27770233    3.82999992    2.91000009
   17.03138924   86.00499725    3.76999998    2.91000009
   17.03472137   84.16819763    3.82999992    2.89000010
   17.03777695   77.02999878    3.80999994    2.89000010
   17.04111099   80.78959656    3.80999994    2.91000009
   17.04527664   80.78959656    3.86999989    2.91000009
   17.04944420   83.51640320    3.86999989    2.91000009
   17.05249977   88.08550262    3.91000009    2.89000010
   17.05583191   87.22769928    3.84999990    2.91000009
   17.05833244   78.41159821    3.82999992    2.89000010
   17.05972099   82.01660156    3.84999990    2.91000009
   17.06277657   82.92649841    3.86999989    2.91000009
   17.06611061   81.08650208    3.82999992    2.89000010
   17.06944466   86.31250000    3.78999996    2.91000009
   17.07250023   83.61499786    3.86999989    2.91000009
   17.07583427   79.84980011    3.78999996    2.91000009
   17.07888985   79.35109711    3.82999992    2.91000009
   17.08222389   76.72460175    3.86999989    2.91000009
   17.08805656   76.72460175    3.82999992    2.91000009
   17.09222221   79.29810333    3.76999998    2.91000009
   17.09555626   82.27890015    3.78999996    2.91000009
   17.09861183   82.04239655    3.76999998    2.91000009
   17.10194397   79.14649963    3.76999998    2.91000009
   17.10527802   81.98500061    3.80999994    2.91000009
   17.10833359   95.22550201    3.78999996    2.91000009
   17.11166763   88.46489716    3.76999998    2.91000009
   17.11472321   85.25360107    3.80999994    2.91000009
   17.11805534   82.83029938    3.86999989    2.91000009
   17.12138939   90.46119690    3.84999990    2.89000010
   17.12444496   86.15529633    3.82999992    2.89000010
   17.12500000   83.30940247    3.82999992    2.89000010
   17.13111115   83.30940247    3.89000010    2.89000010
   17.13500023   77.87709808    3.86999989    2.91000009
   17.13833237   81.21849823    3.82999992    2.89000010
   17.14166641   83.59770203    3.84999990    2.91000009
   17.14472198   85.24330139    3.84999990    2.91000009
   17.14805603   85.68219757    3.82999992    2.91000009
   17.15138817   82.13639832    3.82999992    2.91000009
   17.15444374   82.08480072    3.82999992    2.89000010
   17.15777779   76.04609680    3.82999992    2.91000009
   17.15833282   83.84120178    3.78999996    2.91000009
   17.16138840   84.37889862    3.80999994    2.89000010
   17.16472244   83.65519714    3.78999996    2.91000009
   17.16777802   75.92340088    3.80999994    2.91000009
   17.17388916   75.92340088    3.75000000    2.91000009
   17.17805481   84.77410126    3.76999998    2.91000009
   17.18111038   82.27290344    3.82999992    2.91000009
   17.18444443   85.72709656    3.78999996    2.91000009
   17.18750000   81.72080231    3.82999992    2.91000009
   17.19083214   91.77490234    3.95000005    2.91000009
   17.19166565   86.94920349    3.97000003    2.89000010
   17.19444275   83.09059906    4.09999990    2.91000009
   17.19777679   80.88140106    4.21999979    2.89000010
   17.20083427   84.23329926    4.21999979    2.91000009
   17.20416832   76.26080322    4.32999992    2.89000010
   17.20750046   81.85569763    4.32999992    2.89000010
   17.21055603   90.49659729    4.42999983    2.89000010
   17.21666718   90.49659729    4.44999981    2.86999989
   17.22083473   89.12290192    4.51000023    2.89000010
   17.22389030   84.18540192    4.55999994    2.86999989
   17.22500038   80.77420044    4.57999992    2.89000010
   17.22777748   80.14360046    4.61999989    2.89000010
   17.23111153   79.40039825    4.55999994    2.86999989
   17.23416710   81.95749664    4.65999985    2.89000010
   17.23750114   82.47830200    4.63999987    2.86999989
   17.24055672   80.30709839    4.59999990    2.89000010
   17.24388885   78.14759827    4.61999989    2.89000010
   17.24722290   83.77739716    4.61999989    2.89000010
   17.25027847   79.50720215    4.59999990    2.89000010
   17.25361061   80.80239868    4.61999989    2.89000010
   17.25944519   80.80239868    4.61999989    2.89000010
   17.26361084   76.70120239    4.57999992    2.89000010
   17.26694489   75.50839996    4.57999992    2.86999989
   17.27000046   78.30239868    4.55999994    2.86999989
   17.27333260   74.72689819    4.53999996    2.89000010
   17.27666664   80.66020203    4.53999996    2.89000010
   17.27972221   81.72419739    4.53999996    2.89000010
   17.28305435   78.17549896    4.53999996    2.89000010
   17.28610992   80.28420258    4.53999996    2.89000010
   17.28944397   83.93609619    4.53000021    2.89000010
   17.29166603   85.27069855    4.46999979    2.89000010
   17.29305458   82.53849792    4.48999977    2.89000010
   17.29638863   84.88749695    4.46999979    2.89000010
   17.30222130   84.88749695    4.44999981    2.89000010
   17.30638885   88.77909851    4.38999987    2.89000010
   17.30972099   77.95690155    4.40999985    2.89000010
   17.31305504   85.63339996    4.40999985    2.89000010
   17.31611061   82.61150360    4.40999985    2.89000010
   17.31944466   91.43920135    4.36999989    2.89000010
   17.32277870   84.31420135    4.42999983    2.89000010
   17.32500076   80.64579773    4.36999989    2.89000010
   17.32638931   80.58129883    4.34999990    2.89000010
   17.32972336   83.40660095    4.44999981    2.89000010
   17.33277893   94.15709686    4.44999981    2.89000010
   17.33611107   80.07859802    4.48999977    2.89000010
   17.33916664   83.48930359    4.46999979    2.89000010
   17.34527779   83.48930359    4.44999981    2.89000010
   17.34944534   79.76129913    4.53999996    2.86999989
   17.35250092   80.89620209    4.53999996    2.89000010
   17.35583305   84.25720215    4.51000023    2.89000010
   17.35833359   84.54969788    4.53999996    2.86999989
   17.35944557   80.51889801    4.53999996    2.89000010
   17.36277771   83.51850128    4.51000023    2.89000010
   17.36583328   84.30410004    4.51000023    2.91000009
   17.36916733   81.23049927    4.53000021    2.89000010
   17.37222290   80.36879730    4.90999985    3.00000000
   17.37555504   80.48529816    0.23000000    0.50000000
   17.37888908   83.70890045    0.09000000    0.11000000
   17.38194466   82.32800293    0.09000000    0.03000000
   17.38805580   82.32800293    0.09000000    0.03000000
   17.39222145   79.70110321    0.09000000    0.03000000
   17.39527702   78.29000092    0.09000000    0.03000000
   17.39861107   74.13739777    0.09000000    0.03000000
   17.40194321   86.12560272    0.09000000    0.03000000
   17.40499878   80.53150177    0.09000000    0.03000000
   17.40833282   75.99700165    0.09000000    0.03000000
   17.41166687   77.05300140    0.09000000    0.03000000
   17.41472244   77.56050110    0.09000000    0.03000000
   17.41805458   78.62770081    0.09000000    0.03000000
   17.42111015   82.88980103    0.09000000    0.03000000
   17.42444420   77.69770050    0.09000000    0.03000000
   17.42499924   76.92929840    0.09000000    0.03000000
   17.43083191   76.92929840    0.09000000    0.03000000
   17.43499947   75.69080353    0.09000000    0.03000000
   17.43833160   83.32299805    0.09000000    0.03000000
   17.44138718   86.01560211    0.09000000    0.03000000
   17.44472122   84.43460083    0.09000000    0.03000000
   17.44805527   82.77040100    0.09000000    0.03000000
   17.45111275   82.89150238    0.09000000    0.03000000
   17.45444489   80.50900269    0.09000000    0.03000000
   17.45750046   78.77570343    0.09000000    0.03000000
   17.45833397   78.13839722    0.09000000    0.03000000
   17.46111107   78.09429932    0.09000000    0.03000000
   17.46444511   77.11170197    0.09000000    0.03000000
   17.46750069   81.08589935    0.09000000    0.03000000
   17.47389030   81.08589935    0.09000000    0.03000000
   17.47777748   77.72350311    0.09000000    0.03000000
   17.48111153   75.58249664    0.09000000    0.03000000
   17.48444557   80.06250000    0.09000000    0.03000000
   17.48750114   79.47619629    0.09000000    0.03000000
   17.49083328   77.23840332    0.09000000    0.03000000
   17.49166679   84.67489624    0.09000000    0.03000000
   17.49444389   78.09510040    0.09000000    0.03000000
   17.49777794   76.45320129    0.09000000    0.03000000
   17.50083351   83.46739960    0.09000000    0.03000000
   17.50416756   79.28320313    0.09000000    0.03000000
   17.50749969   79.33010101    0.09000000    0.03000000
   17.51055527   81.02300262    0.09000000    0.03000000
   17.51666641   81.02300262    0.09000000    0.03000000
   17.52083397   84.99909973    0.09000000    0.03000000
   17.52388954   83.05010223    0.09000000    0.03000000
   17.52499962   85.50980377    0.09000000    0.03000000
   17.52750015   80.08580017    0.09000000    0.03000000
   17.53083229   79.03050232    0.09000000    0.03000000
   17.53388786   80.57920074    0.09000000    0.03000000
   17.53722191   77.10849762    0.09000000    0.03000000
   17.54055595   78.02410126    0.09000000    0.03000000
   17.54361153   78.06359863    0.09000000    0.03000000
   17.54694366   77.20240021    0.09000000    0.03000000
   17.54999924   73.96170044    0.09000000    0.03000000
   17.55333328   72.70079803    0.09000000    0.03000000
   17.55944443   72.70079803    0.09000000    0.03000000
   17.56361008   81.36160278    0.09000000    0.03000000
   17.56666756   76.28710175    0.09000000    0.03000000
   17.57000160   79.06130219    0.09000000    0.03000000
   17.57333374   76.44349670    0.09000000    0.03000000
   17.57638931   75.97070313    0.09000000    0.03000000
   17.57972336   79.95860291    0.09000000    0.03000000
   17.58305550   78.91339874    0.09000000    0.03000000
   17.58611107   77.68399811    0.09000000    0.03000000
   17.58944511   81.75839996    0.09000000    0.03000000
   17.59194565   84.44879913    0.09000000    0.03000000
   17.59305573   85.96880341    0.09000000    0.03000000
   17.59638977   83.40409851    0.09000000    0.03000000
   17.60222244   83.40409851    0.09000000    0.03000000
   17.60639000   78.25489807    0.09000000    0.03000000
   17.60972214   84.71420288    0.09000000    0.03000000
   17.61277771   79.28910065    0.09000000    0.03000000
   17.61611176   80.80609894    0.09000000    0.03000000
   17.61944389   79.89140320    0.09000000    0.03000000
   17.62249947   76.19110107    0.09000000    0.03000000
   17.62527847   80.22930145    0.09000000    0.03000000
   17.62611198   78.90480042    0.09000000    0.03000000
   17.62944412   75.19699860    0.09000000    0.03000000
   17.63249969   78.97949982    0.09000000    0.03000000
   17.63583374   78.81289673    0.09000000    0.03000000
   17.63916588   75.47660065    0.09000000    0.03000000
   17.64527702   75.47660065    0.09000000    0.03000000
   17.64916611   82.10970306    0.09000000    0.03000000
   17.65250015   78.67440033    0.09000000    0.03000000
   17.65583229   75.64669800    0.09000000    0.03000000
   17.65861130   76.96420288    0.09000000    0.03000000
   17.65944481   79.94799805    0.09000000    0.03000000
   17.66277695   81.64810181    0.09000000    0.03000000
   17.66583252   78.64530182    0.09000000    0.03000000
   17.66916656   86.45970154    0.09000000    0.03000000
   17.67249870   81.01069641    0.09000000    0.03000000
   17.67555428   82.35320282    0.09000000    0.03000000
   17.67888832   80.36319733    0.09000000    0.03000000
   17.68194389   76.68470001    0.09000000    0.03000000
   17.68805504   76.68470001    0.09000000    0.03000000
   17.69222069   88.62560272    0.09000000    0.03000000
   17.69527626   84.19409943    0.09000000    0.03000000
   17.69861031   86.65959930    0.09000000    0.03000000
   17.70166779   83.58010101    0.09000000    0.03000000
   17.70499992   76.90989685    0.09000000    0.03000000
   17.70833397   78.09549713    0.09000000    0.03000000
   17.71138954   79.14849854    0.09000000    0.03000000
   17.71472359   82.43509674    0.09000000    0.03000000
   17.71805573   79.95169830    0.09000000    0.03000000
   17.72111130   80.40740204    0.09000000    0.03000000
   17.72444534   77.43530273    0.09000000    0.03000000
   17.72527885   79.22630310    0.09000000    0.03000000
   17.73083305   79.22630310    0.09000000    0.03000000
   17.73500061   82.36940002    0.09000000    0.03000000
   17.73805618   79.61150360    0.09000000    0.03000000
   17.74138832   80.30259705    0.09000000    0.03000000
   17.74472237   83.38379669    0.09000000    0.03000000
   17.74777794   81.97059631    0.09000000    0.03000000
   17.75111198   82.71849823    0.09000000    0.03000000
   17.75444412   80.96369934    0.09000000    0.03000000
   17.75749969   81.31909943    0.09000000    0.03000000
   17.75861168   82.11740112    0.09000000    0.03000000
   17.76111031   81.10209656    0.09000000    0.03000000
   17.76444435   80.36399841    0.09000000    0.03000000
   17.76749992   88.86589813    0.09000000    0.03000000
   17.77361107   88.86589813    0.09000000    0.03000000
   17.77777672   78.72080231    0.09000000    0.03000000
   17.78111076   78.13950348    0.09000000    0.03000000
   17.78416634   78.71479797    0.09000000    0.03000000
   17.78750038   89.98040009    0.09000000    0.03000000
   17.79083252   78.51319885    0.09000000    0.03000000
   17.79194450   82.93190002    0.09000000    0.03000000
   17.79416656   76.76619720    0.09000000    0.03000000
   17.79749870   87.69499969    0.09000000    0.03000000
   17.80055428   88.13719940    0.09000000    0.03000000
   17.80388832   87.65579987    0.09000000    0.03000000
   17.80722237   79.07599640    0.09000000    0.03000000
   17.81027794   79.33149719    0.09000000    0.03000000
   17.81666756   79.33149719    0.09000000    0.03000000
   17.82055664   93.02369690    0.09000000    0.03000000
   17.82389069   95.41840363    0.09000000    0.03000000
   17.82527924   78.57029724    0.09000000    0.03000000
   17.82750130   84.94740295    0.09000000    0.03000000
   17.83083344   84.15650177    0.09000000    0.03000000
   17.83388901   93.58879852    0.09000000    0.03000000
   17.83722305   87.42009735    0.09000000    0.03000000
   17.84055710   93.90550232    0.09000000    0.03000000
   17.84361267   77.76419830    0.09000000    0.03000000
   17.84694481   88.26499939    0.09000000    0.03000000
   17.85027885   84.02709961    0.09000000    0.03000000
   17.85333443   88.22879791    0.09000000    0.03000000
   17.85944557   88.22879791    0.09000000    0.03000000
   17.86361122   86.36730194    0.09000000    0.03000000
   17.86666679   81.71849823    0.09000000    0.03000000
   17.87000084   86.68379974    0.09000000    0.03000000
   17.87305641   86.48960114    0.09000000    0.03000000
   17.87638855   81.36039734    0.09000000    0.03000000
   17.87972260   78.58329773    0.09000000    0.03000000
   17.88277817   82.51360321    0.09000000    0.03000000
   17.88611031   83.11309814    0.09000000    0.03000000
   17.88944435   90.36789703    0.09000000    0.03000000
   17.89194489   79.85350037    0.09000000    0.03000000
   17.89277840   79.85289764    0.09000000    0.03000000
   17.89611053   92.52100372    0.09000000    0.03000000
   17.90222168   92.52100372    0.09000000    0.03000000
   17.90638924   80.42780304    0.09000000    0.03000000
   17.90944481   78.59590149    0.09000000    0.03000000
   17.91277695   81.35019684    0.09000000    0.03000000
   17.91611099   80.22039795    0.09000000    0.03000000
   17.91916656   77.78279877    0.09000000    0.03000000
   17.92249870   77.97730255    0.09000000    0.03000000
   17.92527771   79.71099854    0.09000000    0.03000000
   17.92611122   87.06310272    0.09000000    0.03000000
   17.92944336   83.21970367    0.09000000    0.03000000
   17.93249893   80.40689850    0.09000000    0.03000000
   17.93583298   77.60820007    0.09000000    0.03000000
   17.93916512   83.02469635    0.09000000    0.03000000
   17.94499969   83.02469635    0.09000000    0.03000000
   17.94916534   81.31500244    0.09000000    0.03000000
   17.95250130   79.93129730    0.09000000    0.03000000
   17.95555687   86.09339905    0.09000000    0.03000000
   17.95861244   87.50039673    0.09000000    0.03000000
   17.95916748   81.53839874    0.09000000    0.03000000
   17.96250153   77.46890259    0.09000000    0.03000000
   17.96555710   79.38549805    0.09000000    0.03000000
   17.96888924   78.51879883    0.09000000    0.03000000
   17.97222328   78.19170380    0.09000000    0.03000000
   17.97527885   78.51329803    0.09000000    0.03000000
   17.97861099   79.36309814    0.09000000    0.03000000
   17.98194504   78.01799774    0.09000000    0.03000000
   17.98805618   78.01799774    0.09000000    0.03000000
   17.99194527   77.90029907    0.09000000    0.03000000
   17.99527740   78.52600098    0.09000000    0.03000000
   17.99861145   82.18879700    0.09000000    0.03000000
   18.00166702   76.16840363    0.09000000    0.03000000
   18.00499916   86.90850067    0.09000000    0.03000000
   18.00833321   80.83409882    0.09000000    0.03000000
   18.01138878   84.19570160    0.09000000    0.03000000
   18.01472282   81.80629730    0.09000000    0.03000000
   18.01805496   80.28240204    0.09000000    0.03000000
   18.02111053   81.30639648    0.09000000    0.03000000
   18.02444458   78.40270233    0.09000000    0.03000000
   18.02527809   78.77909851    0.09000000    0.03000000
   18.04583359   78.77909851    0.09000000    0.03000000
   18.04999924   78.86810303    0.09000000    0.03000000
   18.05333328   80.00559998    0.09000000    0.03000000
   18.05638885   75.64119720    0.09000000    0.03000000
   18.05861092   79.31069946    0.09000000    0.03000000
   18.05999947   90.03389740    0.09000000    0.03000000
   18.06333351   74.48799896    0.09000000    0.03000000
   18.06666756   81.48100281    0.09000000    0.03000000
   18.06972313   79.92330170    0.09000000    0.03000000
   18.07305717   82.44390106    0.09000000    0.03000000
   18.07611275   79.59609985    0.09000000    0.03000000
   18.07944489   79.98069763    0.09000000    0.03000000
   18.08277893   79.66809845    0.09000000    0.03000000
   18.08861160   79.66809845    0.09000000    0.03000000
   18.09277916   79.26660156    0.09000000    0.03000000
   18.09583473   79.97589874    0.09000000    0.03000000
   18.09916687   77.84380341    0.09000000    0.03000000
   18.10250092   82.94619751    0.09000000    0.03000000
   18.10555649   80.49530029    0.09000000    0.03000000
   18.10888863   81.72869873    0.09000000    0.03000000
   18.11222267   81.33029938    0.09000000    0.03000000
   18.11527824   83.90989685    0.09000000    0.03000000
   18.11861038   94.13999939    0.09000000    0.03000000
   18.12166595   76.42780304    0.09000000    0.03000000
   18.12500000   77.46510315    0.09000000    0.03000000
   18.12555504   84.35230255    0.09000000    0.03000000
   18.13138962   84.35230255    0.09000000    0.03000000
   18.13555527   82.69730377    0.09000000    0.03000000
   18.13888931   85.02709961    0.09000000    0.03000000
   18.14194489   81.49680328    0.09000000    0.03000000
   18.14527702   79.86630249    0.09000000    0.03000000
   18.14861107   78.60410309    0.09000000    0.03000000
   18.15166664   76.12059784    0.09000000    0.03000000
   18.15499878   77.34390259    0.09000000    0.03000000
   18.15805435   77.75839996    0.09000000    0.03000000
   18.15888786   77.39659882    0.09000000    0.03000000
   18.16194344   78.88800049    0.09000000    0.03000000
   18.16499901   78.30239868    0.09000000    0.03000000
   18.16833305   80.79789734    0.09000000    0.03000000
   18.17416573   80.79789734    0.09000000    0.03000000
   18.17833328   78.94809723    0.09000000    0.03000000
   18.18166542   76.34929657    0.09000000    0.03000000
   18.18499947   78.57409668    0.09000000    0.03000000
   18.18805504   81.51309967    0.09000000    0.03000000
   18.19138718   79.59400177    0.09000000    0.03000000
   18.19222069   79.49849701    0.09000000    0.03000000
   18.19499969   77.06670380    0.09000000    0.03000000
   18.19805527   74.81610107    0.09000000    0.03000000
   18.20138931   87.53639984    0.09000000    0.03000000
   18.20472336   80.36150360    0.09000000    0.03000000
   18.20777893   80.28430176    0.09000000    0.03000000
   18.21111107   82.76470184    0.09000000    0.03000000
   18.21722221   82.76470184    0.09000000    0.03000000
   18.22138977   80.40329742    0.09000000    0.03000000
   18.22444534   83.03029633    0.09000000    0.03000000
   18.22555542   79.74210358    0.09000000    0.03000000
   18.22833443   78.11319733    0.09000000    0.03000000
   18.23139000   76.46710205    0.09000000    0.03000000
   18.23472214   77.84839630    0.09000000    0.03000000
   18.23805618   83.46040344    0.09000000    0.03000000
   18.24111176   80.09200287    0.09000000    0.03000000
   18.24444389   81.81050110    0.09000000    0.03000000
   18.24749947   80.05319977    0.09000000    0.03000000
   18.25083351   75.93959808    0.09000000    0.03000000
   18.25416756   81.79160309    0.09000000    0.03000000
   18.26000023   81.79160309    0.09000000    0.03000000
   18.26416588   85.28330231    0.09000000    0.03000000
   18.26722145   78.15080261    0.09000000    0.03000000
   18.27055550   85.21849823    0.09000000    0.03000000
   18.27388954   76.82230377    0.09000000    0.03000000
   18.27694511   74.46900177    0.09000000    0.03000000
   18.28027725   80.46189880    0.09000000    0.03000000
   18.28361130   77.27749634    0.09000000    0.03000000
   18.28666687   80.81060028    0.09000000    0.03000000
   18.28999901   81.59470367    0.09000000    0.03000000
   18.29222107   80.75589752    0.09000000    0.03000000
   18.29361153   79.48729706    0.09000000    0.03000000
   18.29666710   90.05190277    0.09000000    0.03000000
   18.30277634   90.05190277    0.09000000    0.03000000
   18.30694389   77.02349854    0.09000000    0.03000000
   18.31027794   81.23950195    0.09000000    0.03000000
   18.31333351   82.71949768    0.09000000    0.03000000
   18.31666756   86.42259979    0.09000000    0.03000000
   18.32000160   79.62640381    0.09000000    0.03000000
   18.32305717   82.37539673    0.09000000    0.03000000
   18.32555580   82.00589752    0.09000000    0.03000000
   18.32694626   77.90039825    0.09000000    0.03000000
   18.33000183   79.98919678    0.09000000    0.03000000
   18.33333397   77.79589844    0.09000000    0.03000000
   18.33666801   76.99320221    0.09000000    0.03000000
   18.33972359   80.46350098    0.09000000    0.03000000
   18.34583473   80.46350098    0.09000000    0.03000000
   18.34972191   75.29450226    0.09000000    0.03000000
   18.35305595   76.96140289    0.09000000    0.03000000
   18.35639000   76.61029816    0.09000000    0.03000000
   18.35888863   76.21959686    0.09000000    0.03000000
   18.36000061   80.78250122    0.09000000    0.03000000
   18.36305618   84.08609772    0.09000000    0.03000000
   18.36638832   79.42130280    0.09000000    0.03000000
   18.36972237   79.85250092    0.09000000    0.03000000
   18.37277794   80.57569885    0.09000000    0.03000000
   18.37611198   75.95780182    0.09000000    0.03000000
   18.37916756   82.33679962    0.09000000    0.03000000
   18.38249969   92.77410126    0.09000000    0.03000000
   18.38888931   92.77410126    0.09000000    0.03000000
   18.39305496   80.68150330    0.09000000    0.03000000
   18.39611053   76.64179993    0.09000000    0.03000000
   18.39944458   81.75000000    0.09000000    0.03000000
   18.40277672   81.91600037    0.09000000    0.03000000
   18.40611076   77.56259918    0.09000000    0.03000000
   18.40916634   80.72799683    0.09000000    0.03000000
   18.41277695   79.02279663    0.09000000    0.03000000
   18.41611099   82.71569824    0.09000000    0.03000000
   18.41916656   80.96569824    0.09000000    0.03000000
   18.42277718   85.47000122    0.09000000    0.03000000
   18.42583275   78.60289764    0.09000000    0.03000000
   18.42694473   80.50530243    0.09000000    0.03000000
   18.43138885   80.50530243    0.09000000    0.03000000
   18.43555450   78.74629974    0.09000000    0.03000000
   18.43888855   76.55740356    0.09000000    0.03000000
   18.44222069   88.93399811    0.09000000    0.03000000
   18.44527626   80.08029938    0.09000000    0.03000000
   18.44861031   77.86540222    0.09000000    0.03000000
   18.45194435   82.55670166    0.09000000    0.03000000
   18.45499992   77.92289734    0.09000000    0.03000000
   18.45833397   77.35119629    0.09000000    0.03000000
   18.45888901   75.75759888    0.09000000    0.03000000
   18.46194458   75.00469971    0.09000000    0.03000000
   18.46527863   80.13079834    0.09000000    0.03000000
   18.46833420   72.59660339    0.09000000    0.03000000
   18.47500038   72.59660339    0.09000000    0.03000000
   18.47888947   75.49839783    0.09000000    0.03000000
   18.48222351   82.09790039    0.09000000    0.03000000
   18.48555565   78.59349823    0.09000000    0.03000000
   18.48888969   79.24690247    0.09000000    0.03000000
   18.49194527   76.45359802    0.09000000    0.03000000
   18.49250031   78.16729736    0.09000000    0.03000000
   18.49583435   82.78510284    0.09000000    0.03000000
   18.49888992   77.81500244    0.09000000    0.03000000
   18.50222206   79.95559692    0.09000000    0.03000000
   18.50555611   76.60430145    0.09000000    0.03000000
   18.50861168   77.23200226    0.09000000    0.03000000
   18.51194382   75.02020264    0.09000000    0.03000000
   18.51694489   75.02020264    0.09000000    0.03000000
   18.52111053   80.54830170    0.09000000    0.03000000
   18.52444458   84.18099976    0.09000000    0.03000000
   18.52583313   75.50019836    0.09000000    0.03000000
   18.52805519   80.42929840    0.09000000    0.03000000
   18.53111076   79.17929840    0.09000000    0.03000000
   18.53444481   81.14150238    0.09000000    0.03000000
   18.53777695   94.79699707    0.09000000    0.03000000
   18.54083252   85.40560150    0.09000000    0.03000000
   18.54416656   83.81520081    0.09000000    0.03000000
   18.54749870   79.16439819    0.09000000    0.03000000
   18.55055428   84.13870239    0.09000000    0.03000000
   18.55388832   83.25499725    0.09000000    0.03000000
   18.55999947   83.25499725    0.09000000    0.03000000
   18.56388855   80.79820251    0.09000000    0.03000000
   18.56722260   88.79170227    0.09000000    0.03000000
   18.57055664   78.84310150    0.09000000    0.03000000
   18.57361221   96.39689636    0.09000000    0.03000000
   18.57694626   90.57489777    0.09000000    0.03000000
   18.58027840   84.08850098    0.09000000    0.03000000
   18.58333397   91.25630188    0.09000000    0.03000000
   18.58666801   81.26260376    0.09000000    0.03000000
   18.58972359   84.26979828    0.09000000    0.03000000
   18.59250069   84.97560120    0.09000000    0.03000000
   18.59361267   83.87950134    0.09000000    0.03000000
   18.59694481   84.76770020    0.09000000    0.03000000
   18.60277748   84.76770020    0.09000000    0.03000000
   18.60694504   81.21679688    0.09000000    0.03000000
   18.61000061   77.56089783    0.09000000    0.03000000
   18.61333466   79.81199646    0.09000000    0.03000000
   18.61666679   88.86789703    0.09000000    0.03000000
   18.61972237   76.80529785    0.09000000    0.03000000
   18.62305641   80.50109863    0.09000000    0.03000000
   18.62583351   83.65180206    0.09000000    0.03000000
   18.62666702   77.92369843    0.09000000    0.03000000
   18.63000107   77.77680206    0.09000000    0.03000000
   18.63305473   79.39679718    0.09000000    0.03000000
   18.63638878   79.89749908    0.09000000    0.03000000
   18.63944435   78.97720337    0.09000000    0.03000000
   18.64555550   78.97720337    0.09000000    0.03000000
   18.64972115   80.65160370    0.09000000    0.03000000
   18.65305519   78.36849976    0.09000000    0.03000000
   18.65611076   78.82679749    0.09000000    0.03000000
   18.65916634   78.98789978    0.09000000    0.03000000
   18.65972137   85.97499847    0.09000000    0.03000000
   18.66305542   82.58249664    0.09000000    0.03000000
   18.66611099   76.12840271    0.09000000    0.03000000
   18.66944313   81.55760193    0.09000000    0.03000000
   18.67249870   78.65709686    0.09000000    0.03000000
   18.67583275   82.46009827    0.09000000    0.03000000
   18.67916679   84.26390076    0.09000000    0.03000000
   18.68222237   81.56809998    0.09000000    0.03000000
   18.68833160   81.56809998    0.09000000    0.03000000
   18.69249916   77.61840057    0.09000000    0.03000000
   18.69305420   85.40070343    0.09000000    0.03000000
   18.69638824   83.26490021    0.09000000    0.03000000
   18.69944382   83.68659973    0.09000000    0.03000000
   18.70277786   83.86350250    0.09000000    0.03000000
   18.70583344   87.17780304    0.09000000    0.03000000
   18.70916748   81.99210358    0.09000000    0.03000000
   18.71250153   84.14209747    0.09000000    0.03000000
   18.71555710   79.23120117    0.09000000    0.03000000
   18.71888924   80.67489624    0.09000000    0.03000000
   18.72222328   79.25700378    0.09000000    0.03000000
   18.72527885   77.19020081    0.09000000    0.03000000
   18.72583389   77.78220367    0.09000000    0.03000000
   18.73139000   77.78220367    0.09000000    0.03000000
   18.73555565   78.28579712    0.09000000    0.03000000
   18.73861122   80.44480133    0.09000000    0.03000000
   18.74194527   80.56900024    0.09000000    0.03000000
   18.74500084   79.15149689    0.09000000    0.03000000
   18.74833298   81.09729767    0.09000000    0.03000000
   18.75166702   77.38349915    0.09000000    0.03000000
   18.75472260   80.48419952    0.09000000    0.03000000
   18.75805473   78.55470276    0.09000000    0.03000000
   18.75916672   81.92269897    0.09000000    0.03000000
   18.76166725   79.63990021    0.09000000    0.03000000
   18.76499939   77.73349762    0.09000000    0.03000000
   18.76805496   87.24400330    0.09000000    0.03000000
   18.77416611   87.24400330    0.09000000    0.03000000
   18.77833366   79.65619659    0.09000000    0.03000000
   18.78138924   80.63809967    0.09000000    0.03000000
   18.78472137   78.62740326    0.09000000    0.03000000
   18.78805542   76.82199860    0.09000000    0.03000000
   18.79111099   77.42610168    0.09000000    0.03000000
   18.79249954   79.47519684    0.09000000    0.03000000
   18.79472160   79.40110016    0.09000000    0.03000000
   18.79805565   81.65270233    0.09000000    0.03000000
   18.80111122   77.38780212    0.09000000    0.03000000
   18.80444336   82.06289673    0.09000000    0.03000000
   18.80777740   84.18280029    0.09000000    0.03000000
   18.81083298   82.29380035    0.09000000    0.03000000
   18.81694603   82.29380035    0.09000000    0.03000000
   18.82111168   77.93540192    0.09000000    0.03000000
   18.82444572   80.52510071    0.09000000    0.03000000
   18.82583427   79.52179718    0.09000000    0.03000000
   18.82805634   78.48809814    0.09000000    0.03000000
   18.83139038   80.44490051    0.09000000    0.03000000
   18.83444595   77.05519867    0.09000000    0.03000000
   18.83777809   80.71510315    0.09000000    0.03000000
   18.84111214   79.76000214    0.09000000    0.03000000
   18.84416771   79.10179901    0.09000000    0.03000000
   18.84749985   81.16470337    0.09000000    0.03000000
   18.85055542   81.80429840    0.09000000    0.03000000
   18.85388947   81.21900177    0.09000000    0.03000000
   18.85972214   81.21900177    0.09000000    0.03000000
   18.86388969   77.63780212    0.09000000    0.03000000
   18.86722183   78.38680267    0.09000000    0.03000000
   18.87027740   81.66079712    0.09000000    0.03000000
   18.87361145   79.05269623    0.09000000    0.03000000
   18.87694550   80.70330048    0.09000000    0.03000000
   18.88000107   79.99610138    0.09000000    0.03000000
   18.88333321   79.69229889    0.09000000    0.03000000
   18.88666725   78.94219971    0.09000000    0.03000000
   18.88972282   81.18879700    0.09000000    0.03000000
   18.89249992   82.12560272    0.09000000    0.03000000
   18.89333344   80.88980103    0.09000000    0.03000000
   18.89666748   81.63220215    0.09000000    0.03000000
   18.90277672   81.63220215    0.09000000    0.03000000
   18.90666580   79.49230194    0.09000000    0.03000000
   18.90999985   85.17530060    0.09000000    0.03000000
   18.91333389   81.08090210    0.09000000    0.03000000
   18.91638756   80.87920380    0.09000000    0.03000000
   18.91972160   87.82510376    0.09000000    0.03000000
   18.92305565   86.06079865    0.09000000    0.03000000
   18.92583275   81.09780121    0.09000000    0.03000000
   18.92666626   77.24770355    0.09000000    0.03000000
   18.93000031   83.97630310    0.09000000    0.03000000
   18.93305397   82.57839966    0.09000000    0.03000000
   18.93638802   82.49220276    0.09000000    0.03000000
   18.93972206   87.58080292    0.09000000    0.03000000
   18.94555473   87.58080292    0.09000000    0.03000000
   18.94972038   82.82289886    0.09000000    0.03000000
   18.95277786   78.74140167    0.09000000    0.03000000
   18.95611191   77.68440247    0.09000000    0.03000000
   18.95916748   78.38569641    0.09000000    0.03000000
   18.95972252   77.98130035    0.09000000    0.03000000
   18.96305656   77.05819702    0.09000000    0.03000000
   18.96611214   79.98190308    0.09000000    0.03000000
   18.96944427   76.60169983    0.09000000    0.03000000
   18.97277832   79.30660248    0.09000000    0.03000000
   18.97583389   86.80139923    0.09000000    0.03000000
   18.97916794   81.38870239    0.09000000    0.03000000
   18.98222351   79.26380157    0.09000000    0.03000000
   18.98833275   79.26380157    0.09000000    0.03000000
   18.99250031   78.33560181    0.09000000    0.03000000
   18.99305534   83.20700073    0.09000000    0.03000000
   18.99638939   77.88269806    0.09000000    0.03000000
   18.99944496   81.20079803    0.09000000    0.03000000
   19.00277710   85.13059998    0.09000000    0.03000000
   19.00583267   83.29560089    0.09000000    0.03000000
   19.00916672   87.66860199    0.09000000    0.03000000
   19.01250076   83.19940186    0.09000000    0.03000000
   19.01555634   81.61949921    0.09000000    0.03000000
   19.01888847   82.17710114    0.09000000    0.03000000
   19.02222252   82.27989960    0.09000000    0.03000000
   19.02527809   82.78179932    0.09000000    0.03000000
   19.02638817   83.37670135    0.09000000    0.03000000
   19.03111076   83.37670135    0.09000000    0.03000000
   19.03527641   77.48470306    0.09000000    0.03000000
   19.03861046   76.72419739    0.09000000    0.03000000
   19.04166603   84.24919891    0.09000000    0.03000000
   19.05999947   77.15239716    0.09000000    0.03000000
   19.06194305   79.86540222    0.09000000    0.03000000
   19.06527710   80.13050079    0.09000000    0.03000000
   19.06833458   81.71779633    0.09000000    0.03000000
   19.07416725   81.71779633    0.09000000    0.03000000
   19.07833481  223.77799988    0.09000000    0.03000000
   19.08166695   83.76300049    0.09000000    0.03000000
   19.08472252   83.19110107    0.09000000    0.03000000
   19.08805656   78.10250092    0.09000000    0.03000000
   19.09138870   77.99160004    0.09000000    0.03000000
   19.09305573   80.57520294    0.09000000    0.03000000
   19.09500122   75.43440247    0.09000000    0.03000000
   19.09805679   86.72399902    0.09000000    0.03000000
   19.10138893   80.77330017    0.09000000    0.03000000
   19.10472298   86.79319763    0.09000000    0.03000000
   19.10777855   75.30719757    0.09000000    0.03000000
   19.11111069   82.85449982    0.09000000    0.03000000
   19.11694527   82.85449982    0.09000000    0.03000000
   19.12111092   81.17649841    0.09000000    0.03000000
   19.12444496   77.30609894    0.09000000    0.03000000
   19.12638855   86.47119904    0.09000000    0.03000000
   19.12805557   88.64579773    0.09000000    0.03000000
   19.13138962   84.96410370    0.09000000    0.03000000
   19.13444519   76.23960114    0.09000000    0.03000000
   19.13777733   81.94640350    0.09000000    0.03000000
   19.14083290   80.60600281    0.09000000    0.03000000
   19.14416695   85.05970001    0.09000000    0.03000000
   19.14749908   82.53309631    0.09000000    0.03000000
   19.15055466   80.19599915    0.09000000    0.03000000
   19.15388870   80.08809662    0.09000000    0.03000000
   19.15999985   80.08809662    0.09000000    0.03000000
   19.16416550   84.89330292    0.09000000    0.03000000
   19.16722107   82.54119873    0.09000000    0.03000000
   19.17055511   77.13369751    0.09000000    0.03000000
   19.17361069   79.76619720    0.09000000    0.03000000
   19.17694473   79.49980164    0.09000000    0.03000000
   19.18027687   81.87519836    0.09000000    0.03000000
   19.18333244   85.69360352    0.09000000    0.03000000
   19.18666649   80.86630249    0.09000000    0.03000000
   19.18999863   80.19429779    0.09000000    0.03000000
   19.19305420   77.86280060    0.09000000    0.03000000
   19.19361115   79.90029907    0.09000000    0.03000000
   19.19666672   82.51020050    0.09000000    0.03000000
   19.20277786   82.51020050    0.09000000    0.03000000
   19.20694542   81.52300262    0.09000000    0.03000000
   19.21000099   84.59600067    0.09000000    0.03000000
   19.21333504   79.41649628    0.09000000    0.03000000
   19.21666718   87.54139709    0.09000000    0.03000000
   19.21972275   87.49720001    0.09000000    0.03000000
   19.22305679   88.00659943    0.09000000    0.03000000
   19.22638893   86.74710083    0.09000000    0.03000000
   19.22694588   82.15239716    0.09000000    0.03000000
   19.23000145   78.70690155    0.09000000    0.03000000
   19.23333359   79.83260345    0.09000000    0.03000000
   19.23638916   74.90380096    0.09000000    0.03000000
   19.23972321   80.92330170    0.09000000    0.03000000
   19.24555588   80.92330170    0.09000000    0.03000000
   19.24972153   84.11720276    0.09000000    0.03000000
   19.25305557   77.83370209    0.09000000    0.03000000
   19.25611115   81.53279877    0.09000000    0.03000000
   19.25944519   87.57440186    0.09000000    0.03000000
   19.26027870   96.59320068    0.09000000    0.03000000
   19.26305580   79.51909637    0.09000000    0.03000000
   19.26638794   83.16059875    0.09000000    0.03000000
   19.26972198   80.43750000    0.09000000    0.03000000
   19.27277756   86.66490173    0.09000000    0.03000000
   19.27611160   77.85040283    0.09000000    0.03000000
   19.27972221   83.16259766    0.09000000    0.03000000
   19.28277779   81.66539764    0.09000000    0.03000000
   19.28833199   81.66539764    0.09000000    0.03000000
   19.29249954   79.21790314    0.09000000    0.03000000
   19.29361153   84.07790375    0.09000000    0.03000000
   19.29611015   91.24079895    0.09000000    0.03000000
   19.29944420   87.56639862    0.09000000    0.03000000
   19.30277634   82.70770264    0.09000000    0.03000000
   19.30583191   90.31009674    0.09000000    0.03000000
   19.30916595   83.33540344    0.09000000    0.03000000
   19.31222153   87.14959717    0.09000000    0.03000000
   19.31555557   87.08660126    0.09000000    0.03000000
   19.31888962  100.33300018    0.09000000    0.03000000
   19.32194519   90.19550323    0.09000000    0.03000000
   19.32527924   80.27410126    0.09000000    0.03000000
   19.32694626   78.25700378    0.09000000    0.03000000
   19.33139038   78.25700378    0.09000000    0.03000000
   19.33555603   80.59929657    0.09000000    0.03000000
   19.33861160   91.25499725    0.09000000    0.03000000
   19.34194565   84.19190216    0.09000000    0.03000000
   19.34500122   86.68800354    0.09000000    0.03000000
   19.34833336   79.76809692    0.09000000    0.03000000
   19.35166740   79.25689697    0.09000000    0.03000000
   19.35472298   78.48940277    0.09000000    0.03000000
   19.35805511   79.71450043    0.09000000    0.03000000
   19.36027908   88.04000092    0.09000000    0.03000000
   19.36166763   81.06069946    0.09000000    0.03000000
   19.36499977   78.82009888    0.09000000    0.03000000
   19.36833382   75.17739868    0.09000000    0.03000000
   19.37416649   75.17739868    0.09000000    0.03000000
   19.37833405   84.47480011    0.09000000    0.03000000
   19.38138962   89.04989624    0.09000000    0.03000000
   19.38472176   78.93280029    0.09000000    0.03000000
   19.38805580   85.64730072    0.09000000    0.03000000
   19.39111137   89.44499969    0.09000000    0.03000000
   19.39361191   90.54389954    0.09000000    0.03000000
   19.39472198   79.03330231    0.09000000    0.03000000
   19.39805603   80.43599701    0.09000000    0.03000000
   19.40138817   81.65910339    0.09000000    0.03000000
   19.40444374   81.18099976    0.09000000    0.03000000
   19.40777779   83.46710205    0.09000000    0.03000000
   19.41083336   93.42569733    0.09000000    0.03000000
   19.41694450   93.42569733    0.09000000    0.03000000
   19.42111015   86.38040161    0.09000000    0.03000000
   19.42444420   84.47589874    0.09000000    0.03000000
   19.42694473   97.46099854    0.09000000    0.03000000
   19.42777634   78.19249725    0.09000000    0.03000000
   19.43111038   81.98010254    0.09000000    0.03000000
   19.43444443   88.74659729    0.09000000    0.03000000
   19.43750000   91.48819733    0.09000000    0.03000000
   19.44083214   86.36820221    0.09000000    0.03000000
   19.44388771   99.52839661    0.09000000    0.03000000
   19.44722176   86.37689972    0.09000000    0.03000000
   19.45055580   84.42659760    0.09000000    0.03000000
   19.45361137   81.52770233    0.09000000    0.03000000
   19.45972252   81.52770233    0.09000000    0.03000000
   19.46389008   90.64910126    0.09000000    0.03000000
   19.46722221   85.11859894    0.09000000    0.03000000
   19.47055626   79.90679932    0.09000000    0.03000000
   19.47361183   81.40399933    0.09000000    0.03000000
   19.47694588   87.66139984    0.09000000    0.03000000
   19.48027802   95.17859650    0.09000000    0.03000000
   19.48333359   88.08789825    0.09000000    0.03000000
   19.48666763   92.53869629    0.09000000    0.03000000
   19.48972321   83.42099762    0.09000000    0.03000000
   19.49305534   85.22879791    0.09000000    0.03000000
   19.49500084   81.95989990    0.09000000    0.03000000
   19.49666786   87.84639740    0.09000000    0.03000000
   19.50277710   87.84639740    0.09000000    0.03000000
   19.50694466   85.76490021    0.09000000    0.03000000
   19.51000023   84.95999908    0.09000000    0.03000000
   19.51333427   86.15809631    0.09000000    0.03000000
   19.51638794   80.31870270    0.09000000    0.03000000
   19.51972198   86.98120117    0.09000000    0.03000000
   19.52305603   86.18720245    0.09000000    0.03000000
   19.52611160   85.77610016    0.09000000    0.03000000
   19.52833366   79.28140259    0.09000000    0.03000000
   19.52972221   81.17089844    0.09000000    0.03000000
   19.53305435   85.15299988    0.09000000    0.03000000
   19.53638840   79.85820007    0.09000000    0.03000000
   19.53944397   83.90470123    0.09000000    0.03000000
   19.54555511   83.90470123    0.09000000    0.03000000
   19.54972076   81.75789642    0.09000000    0.03000000
   19.55277634   83.84909821    0.09000000    0.03000000
   19.55611038   84.59480286    0.09000000    0.03000000
   19.55944443   88.01519775    0.09000000    0.03000000
   19.56166649   79.05889893    0.09000000    0.03000000
   19.56305504   78.63430023    0.09000000    0.03000000
   19.56638718   80.36380005    0.09000000    0.03000000
   19.56972313   81.37110138    0.09000000    0.03000000
   19.57277870   91.91400146    0.09000000    0.03000000
   19.57611275   80.85330200    0.09000000    0.03000000
   19.57916832   88.64309692    0.09000000    0.03000000
   19.58250046   90.73300171    0.09000000    0.03000000
   19.58833313   90.73300171    0.09000000    0.03000000
   19.59250069   82.82170105    0.09000000    0.03000000
   19.59500122   81.98989868    0.09000000    0.03000000
   19.59611130   88.06909943    0.09000000    0.03000000
   19.59944534   82.52189636    0.09000000    0.03000000
   19.60250092   90.12590027    0.09000000    0.03000000
   19.60583305   94.15280151    0.09000000    0.03000000
   19.60916710   97.46970367    0.09000000    0.03000000
   19.61222267   87.87380219    0.09000000    0.03000000
   19.61555672   82.79370117    0.09000000    0.03000000
   19.61861038   82.61450195    0.09000000    0.03000000
   19.62194443   81.13020325    0.09000000    0.03000000
   19.62527847   86.17150116    0.09000000    0.03000000
   19.63111115   86.17150116    0.09000000    0.03000000
   19.63527679   83.39559937    0.09000000    0.03000000
   19.63861084   79.87259674    0.09000000    0.03000000
   19.64194489   80.51999664    0.09000000    0.03000000
   19.64500046   80.78099823    0.09000000    0.03000000
   19.64833260   86.45980072    0.09000000    0.03000000
   19.65166664   79.33149719    0.09000000    0.03000000
   19.65472221   82.21739960    0.09000000    0.03000000
   19.65805435   83.78230286    0.09000000    0.03000000
   19.66138840   81.82859802    0.09000000    0.03000000
   19.66222191   83.96710205    0.09000000    0.03000000
   19.66472244   81.55940247    0.09000000    0.03000000
   19.66805458   84.04039764    0.09000000    0.03000000
   19.67416573   84.04039764    0.09000000    0.03000000
   19.67833328   83.61190033    0.09000000    0.03000000
   19.68138885   78.38349915    0.09000000    0.03000000
   19.68472099   90.46630096    0.09000000    0.03000000
   19.68777657   80.69159698    0.09000000    0.03000000
   19.69111061   80.90309906    0.09000000    0.03000000
   19.69444275   78.33509827    0.09000000    0.03000000
   19.69555473   79.06890106    0.09000000    0.03000000
   19.69777679   81.04720306    0.09000000    0.03000000
   19.70111275   82.45719910    0.09000000    0.03000000
   19.70444489   81.23950195    0.09000000    0.03000000
   19.70750046   81.45629883    0.09000000    0.03000000
   19.71083450   81.80960083    0.09000000    0.03000000
   19.71694565   81.80960083    0.09000000    0.03000000
   19.72111130   88.69999695    0.09000000    0.03000000
   19.72444534   87.87390137    0.09000000    0.03000000
   19.72750092  100.15399933    0.09000000    0.03000000
   19.72888947   81.25170135    0.09000000    0.03000000
   19.73111153   78.81169891    0.09000000    0.03000000
   19.73444557   81.39579773    0.09000000    0.03000000
   19.73777771   82.44000244    0.09000000    0.03000000
   19.74083328   89.03710175    0.09000000    0.03000000
   19.74416733   89.60160065    0.09000000    0.03000000
   19.74722290   82.08239746    0.09000000    0.03000000
   19.75055504   80.33029938    0.09000000    0.03000000
   19.75388908   85.38279724    0.09000000    0.03000000
   19.75972176   85.38279724    0.09000000    0.03000000
   19.76388931   79.29679871    0.09000000    0.03000000
   19.76722145   87.19200134    0.09000000    0.03000000
   19.77027702   84.80180359    0.09000000    0.03000000
   19.77361107   81.63169861    0.09000000    0.03000000
   19.77694511   83.12349701    0.09000000    0.03000000
   19.78000069   87.60669708    0.09000000    0.03000000
   19.78333282   81.64320374    0.09000000    0.03000000
   19.78638840   93.03800201    0.09000000    0.03000000
   19.78972244   88.92489624    0.09000000    0.03000000
   19.79305458   90.86450195    0.09000000    0.03000000
   19.79555511   83.64880371    0.09000000    0.03000000
   19.79666710   88.73770142    0.09000000    0.03000000
   19.80249977   88.73770142    0.09000000    0.03000000
   19.80666542   82.82810211    0.09000000    0.03000000
   19.80999947   97.02079773    0.09000000    0.03000000
   19.81333351  101.36799622    0.09000000    0.03000000
   19.81638718   83.78199768    0.09000000    0.03000000
   19.81972313  100.99600220    0.09000000    0.03000000
   19.82277870   83.06500244    0.09000000    0.03000000
   19.82611275  102.75700378    0.09000000    0.03000000
   19.82916832   88.94719696    0.09000000    0.03000000
   19.82972336   85.15820313    0.09000000    0.03000000
   19.83305550   83.78559875    0.09000000    0.03000000
   19.83611107   88.20520020    0.09000000    0.03000000
   19.83944511   83.11769867    0.09000000    0.03000000
