    HOUR (UT)   FLARE FACTOR    SKY TESTER    SUN TESTER
   12.49166679   -1.00000000   -1.00000000   -1.00000000
   12.52222157   98.30419922    1.63000000    1.89999998
   12.52527714   88.90039825    1.83000004    1.89999998
   12.52861118   88.77899933    2.00000000    1.89999998
   12.53194427   88.62850189    2.03999996    1.89999998
   12.53500080   90.49320221    1.80999994    1.89999998
   12.53833389   90.97850037    1.55999994    1.91999996
   12.54250050   90.97850037    1.46000004    1.91999996
   12.54666710   90.59410095    1.48000002    1.91999996
   12.54972267   87.54399872    1.50000000    1.91999996
   12.55305576   97.40820313    1.46000004    1.91999996
   12.55527782   88.53839874    1.46000004    1.91999996
   12.55666733   87.46800232    1.46000004    1.91999996
   12.56000042   90.03610229    1.48000002    1.94000006
   12.56305599   94.63030243    1.55999994    1.94000006
   12.56638908   92.45359802    1.46000004    1.94000006
   12.56972218   94.75879669    1.44000006    1.94000006
   12.57277775   89.44180298    1.41999996    1.94000006
   12.57611084   87.19909668    1.41999996    1.94000006
   12.57944393   91.67160034    1.39999998    1.94000006
   12.58527756   91.67160034    1.39999998    1.96000004
   12.58944416   87.10030365    1.39999998    1.96000004
   12.59249973   90.29850006    1.38000000    1.96000004
   12.59583282   86.74479675    1.36000001    1.96000004
   12.59916592   86.21029663    1.36000001    1.96000004
   12.60222244   87.75820160    1.36000001    1.98000002
   12.60555553   94.43720245    1.39999998    1.98000002
   12.60888958   85.42479706    1.36000001    1.98000002
   12.61194515   88.75099945    1.34000003    1.96000004
   12.61527824   89.52980042    1.33000004    1.98000002
   12.61833382   90.56649780    1.33000004    1.98000002
   12.62166691   88.39610291    1.30999994    1.98000002
   12.62222195   86.87779999    1.30999994    1.98000002
   12.62805557   86.87779999    1.33000004    1.98000002
   12.63222218   89.40689850    1.33000004    1.98000002
   12.63555527   89.71440125    1.33000004    1.98000002
   12.63861084   89.48519897    1.33000004    1.98000002
   12.64194393   90.07759857    1.34000003    2.00000000
   12.64527798   90.71980286    1.30999994    1.98000002
   12.64833355   85.88520050    1.28999996    2.00000000
   12.65166664   92.06220245    1.28999996    2.00000000
   12.65472221   93.80079651    1.28999996    2.00000000
   12.65555477   84.42230225    1.28999996    2.00000000
   12.65861034   91.48220062    1.28999996    2.00000000
   12.66166592   89.14230347    1.26999998    2.00000000
   12.66499996   87.86019897    1.28999996    2.00000000
   12.67083359   87.86019897    1.30999994    2.01999998
   12.67500019   91.30480194    1.28999996    2.01999998
   12.67833328   87.43820190    1.28999996    2.01999998
   12.68166733   83.39240265    1.28999996    2.01999998
   12.68472195   90.57039642    1.28999996    2.01999998
   12.68805599   89.06060028    1.26999998    2.01999998
   12.68888855   87.42569733    1.26999998    2.01999998
   12.69166660   89.93240356    1.26999998    2.01999998
   12.69472218   91.90180206    1.26999998    2.01999998
   12.69805527   87.48680115    1.25000000    2.01999998
   12.70138836   95.13030243    1.25000000    2.01999998
   12.70444393   94.74040222    1.26999998    2.03999996
   12.70777798   91.41130066    1.26999998    2.03999996
   12.71388912   91.41130066    1.25000000    2.05999994
   12.71805477   91.75859833    1.26999998    2.05999994
   12.72111034   89.89620209    1.26999998    2.03999996
   12.72222137   95.29730225    1.26999998    2.05999994
   12.72499943  101.97699738    1.26999998    2.05999994
   12.72805500   89.38849640    1.26999998    2.05999994
   12.73138809   92.54640198    1.26999998    2.03999996
   12.73472214   88.93640137    1.25000000    2.05999994
   12.73777771   84.12200165    1.25000000    2.05999994
   12.74111176   87.27290344    1.25000000    2.05999994
   12.74416733   85.56250000    1.25000000    2.07999992
   12.74750042   92.69249725    1.25000000    2.07999992
   12.75083351   97.90779877    1.23000002    2.05999994
   12.75666714   97.90779877    1.21000004    2.07999992
   12.76083374   88.86160278    1.21000004    2.07999992
   12.76388931   83.65670013    1.19000006    2.07999992
   12.76722240   86.35220337    1.19000006    2.07999992
   12.77055550   83.98300171    1.19000006    2.07999992
   12.77361107   86.98979950    1.19000006    2.07999992
   12.77694416   86.65940094    1.19000006    2.09999990
   12.78027725   98.31719971    1.19000006    2.07999992
   12.78333378   90.01110077    1.16999996    2.09999990
   12.78666687   88.59449768    1.16999996    2.07999992
   12.78888893   84.05750275    1.16999996    2.09999990
   12.79027843   96.37539673    1.16999996    2.09999990
   12.79333401   90.12560272    1.14999998    2.09999990
   12.79944515   90.12560272    1.14999998    2.09999990
   12.80361176  106.82399750    1.13000000    2.09999990
   12.80694485   87.48789978    1.13000000    2.09999990
   12.81000042   98.14109802    1.13000000    2.09999990
   12.81333351   83.83190155    1.13000000    2.09999990
   12.81666660   86.90170288    1.13000000    2.09999990
   12.81972218   87.04859924    1.13000000    2.11999989
   12.82222176   88.37460327    1.13000000    2.11999989
   12.82361126   90.91539764    1.13000000    2.11999989
   12.82666683   86.77500153    1.13000000    2.11999989
   12.82999992   89.27760315    1.13000000    2.11999989
   12.83333302   94.69080353    1.13000000    2.11999989
   12.83638859   85.77059937    1.13000000    2.11999989
   12.84222221   85.77059937    1.13000000    2.11999989
   12.84638882   90.80899811    1.13000000    2.13000011
   12.84972191   92.65170288    1.11000001    2.13000011
   12.85305595   90.81109619    1.11000001    2.13000011
   12.85555553   84.42919922    1.11000001    2.11999989
   12.85666752   93.53970337    1.11000001    2.13000011
   12.85972214   82.48429871    1.11000001    2.13000011
   12.86305618   89.27449799    1.11000001    2.11999989
   12.86638927   83.14659882    1.11000001    2.11999989
   12.86944485   85.85449982    1.11000001    2.13000011
   12.87277794   98.68350220    1.11000001    2.13000011
   12.87583351   94.35780334    1.11000001    2.13000011
   12.87916660   91.82230377    1.09000003    2.13000011
   12.88527775   91.82230377    1.09000003    2.13000011
   12.88944435   88.37069702    1.09000003    2.13000011
   12.89249992   91.51589966    1.09000003    2.13000011
   12.89583302   89.05989838    1.09000003    2.13000011
   12.89888859   91.99060059    1.16999996    2.13000011
   12.90222168   99.39119720    1.11000001    2.15000010
   12.90555477   95.08010101    1.13000000    2.15000010
   12.90861034   93.30069733    1.14999998    2.15000010
   12.91194439   95.71640015    1.11000001    2.15000010
   12.91527748   92.86889648    1.11000001    2.15000010
   12.91833401   92.13970184    1.11000001    2.15000010
   12.92166710   85.12149811    1.11000001    2.15000010
   12.92250061   92.67140198    1.36000001    2.15000010
   12.92805576   92.67140198    1.09000003    2.15000010
   12.93222237   87.54039764    1.09000003    2.15000010
   12.93527794   94.18530273    1.09000003    2.17000008
   12.93861103  101.58699799    1.07000005    2.15000010
   12.94194412   92.38379669    1.07000005    2.17000008
   12.94499969  104.83499908    1.05999994    2.17000008
   12.94833374   96.41079712    1.05999994    2.17000008
   12.95166683  104.17600250    1.05999994    2.17000008
   12.95472240  102.65399933    1.03999996    2.17000008
   12.95555496   99.06569672    1.03999996    2.17000008
   12.95833302  118.11900330    1.05999994    2.17000008
   12.96138859   96.06929779    1.03999996    2.17000008
   12.96472168  102.21499634    1.03999996    2.17000008
   12.97083282  102.21499634    1.03999996    2.17000008
   12.97499943   99.39430237    1.01999998    2.19000006
   12.97833252   99.60859680    1.03999996    2.17000008
   12.98138809  138.95599365    1.01999998    2.17000008
   12.98472214  107.43099976    1.01999998    2.19000006
   12.98805618  117.26899719    1.01999998    2.19000006
   12.98888874  117.78199768    1.01999998    2.19000006
   12.99166679  117.67800140    1.01999998    2.19000006
   12.99472237  115.13099670    1.00000000    2.21000004
   12.99805546  107.13800049    1.01999998    2.19000006
   13.00138855  123.69699860    1.01999998    2.19000006
   13.00444412  114.02500153    1.00000000    2.19000006
   13.00777817  100.23799896    1.01999998    2.19000006
   13.01388931  100.23799896    1.01999998    2.19000006
   13.01777744  120.41799927    1.01999998    2.19000006
   13.02138901  120.07900238    1.01999998    2.21000004
   13.02222157  105.48699951    1.01999998    2.21000004
   13.02499962   92.67449951    1.01999998    2.19000006
   13.02805519  108.73500061    1.01999998    2.19000006
   13.03138828  100.77600098    1.01999998    2.21000004
   13.03472233   99.99829865    1.01999998    2.19000006
   13.03777790  105.44599915    1.00000000    2.21000004
   13.04111195   96.77899933    1.00000000    2.21000004
   13.04444504   90.07579803    1.00000000    2.21000004
   13.04750061   92.01719666    1.00000000    2.21000004
   13.05083370   92.87139893    1.00000000    2.21000004
   13.05666733   92.87139893    1.00000000    2.21000004
   13.06083393   96.82920074    1.00000000    2.21000004
   13.06388950   99.46109772    1.00000000    2.21000004
   13.06722260   95.33419800    1.00000000    2.21000004
   13.07027817   91.17449951    0.98000002    2.21000004
   13.07361126   86.82730103    0.98000002    2.23000002
   13.07694435   84.52349854    0.98000002    2.23000002
   13.07999992   92.19170380    0.98000002    2.23000002
   13.08333302   96.20520020    0.98000002    2.23000002
   13.08666611   88.96279907    0.98000002    2.23000002
   13.08888817   93.45480347    0.98000002    2.23000002
   13.09027767   98.11759949    0.98000002    2.23000002
   13.09333324   87.93620300    0.98000002    2.23000002
   13.09944439   87.93620300    0.98000002    2.23000002
   13.10361195   89.81559753    0.95999998    2.23000002
   13.10666752   92.94470215    0.98000002    2.23000002
   13.11000061   95.81600189    0.95999998    2.23000002
   13.11333370   89.17819977    0.95999998    2.23000002
   13.11666679   83.45259857    0.95999998    2.25000000
   13.11972237   93.50250244    0.95999998    2.25000000
   13.12222195   88.21720123    0.95999998    2.25000000
   13.12333393   88.68489838    0.95999998    2.25000000
   13.12638855   86.47599792    0.95999998    2.23000002
   13.12972260   83.27169800    0.94000000    2.23000002
   13.13305569   82.72899628    0.94000000    2.25000000
   13.13611126   84.80310059    0.92000002    2.25000000
   13.14222240   84.80310059    0.92000002    2.25000000
   13.14638901   92.80909729    0.92000002    2.25000000
   13.14972210   89.12950134    0.92000002    2.25000000
   13.15277767   90.88059998    0.92000002    2.25000000
   13.15555477   86.65249634    0.92000002    2.25000000
   13.15666676   88.36569977    0.92000002    2.25000000
   13.15972137   89.47080231    0.92000002    2.25000000
   13.16305542   89.57920074    0.92000002    2.25000000
   13.16638851  101.67299652    0.92000002    2.25000000
   13.16944504   85.88739777    0.92000002    2.25000000
   13.17277813   90.86900330    0.89999998    2.25000000
   13.17611122   85.49720001    0.89999998    2.25000000
   13.17944431   95.62729645    0.89999998    2.26999998
   13.18500042   95.62729645    0.89999998    2.26999998
   13.18916702   92.11309814    0.89999998    2.26999998
   13.19250011   92.63220215    0.88000000    2.26999998
   13.19583321   96.79039764    0.88000000    2.26999998
   13.19888878   95.83039856    0.89999998    2.26999998
   13.20222187   94.81729889    0.88000000    2.26999998
   13.20555496   88.34729767    0.88000000    2.26999998
   13.20861053   86.95790100    0.88000000    2.26999998
   13.21194458   88.41680145    0.89999998    2.26999998
   13.21500015   91.39350128    0.88000000    2.28999996
   13.21833324   84.22740173    0.88000000    2.28999996
   13.22166634   82.15450287    0.86000001    2.26999998
   13.22222137   91.47709656    0.86000001    2.26999998
   13.22805500   91.47709656    0.83999997    2.28999996
   13.23222160   88.47309875    0.83999997    2.26999998
   13.23527813   89.48159790    0.83999997    2.28999996
   13.23861122   86.39640045    0.83999997    2.28999996
   13.24166679   92.88529968    0.81999999    2.28999996
   13.24499989   91.61910248    0.81999999    2.28999996
   13.24833393   93.13020325    0.81999999    2.28999996
   13.25138855   90.39489746    0.81999999    2.28999996
   13.25472260   93.69889832    0.81999999    2.28999996
   13.25555515   86.55549622    0.81999999    2.30999994
   13.25833321   89.43710327    0.83999997    2.30999994
   13.26166630   93.37750244    0.81999999    2.28999996
   13.26472187   92.76460266    0.81999999    2.30999994
   13.27083302   92.76460266    0.81999999    2.28999996
   13.27499962   88.79560089    0.81999999    2.28999996
   13.27805519   88.83730316    0.80000001    2.28999996
   13.28138828   88.32189941    0.80000001    2.28999996
   13.28472233   94.47840118    0.80000001    2.28999996
   13.28777790   86.72260284    0.81999999    2.28999996
   13.28888893   94.10019684    0.81999999    2.28999996
   13.29138947   85.01660156    0.81999999    2.30999994
   13.29472256   84.22399902    0.81999999    2.30999994
   13.29777813   90.18810272    0.81999999    2.30999994
   13.30111122   87.31330109    0.81999999    2.30999994
   13.30416679   84.62000275    0.81999999    2.30999994
   13.30749989   87.65489960    0.81999999    2.30999994
   13.31361103   87.65489960    0.81999999    2.30999994
   13.31777763   94.40249634    0.81999999    2.30999994
   13.32111073   93.27429962    0.81999999    2.32999992
   13.32222176   94.70220184    0.81999999    2.30999994
   13.32472229   87.06300354    0.81999999    2.32999992
   13.32805538   87.04689789    0.81999999    2.32999992
   13.33111095   91.11489868    0.81999999    2.30999994
   13.33444405   97.50910187    0.81999999    2.30999994
   13.33777714   90.56680298    0.80000001    2.32999992
   13.34111118   96.60939789    0.80000001    2.30999994
   13.34416676   93.76640320    0.80000001    2.30999994
   13.34749985   90.29859924    0.80000001    2.30999994
   13.35083389  100.90599823    0.80000001    2.32999992
   13.35638905  100.90599823    0.80000001    2.32999992
   13.36055565   92.92669678    0.79000002    2.32999992
   13.36388969   90.64369965    0.79000002    2.32999992
   13.36722279   91.86160278    0.79000002    2.32999992
   13.37027836   86.39679718    0.79000002    2.32999992
   13.37361145   87.79810333    0.79000002    2.32999992
   13.37694454   81.92669678    0.79000002    2.32999992
   13.38000011   84.95410156    0.79000002    2.32999992
   13.38333321   91.92870331    0.79000002    2.32999992
   13.38638878   86.86260223    0.79000002    2.32999992
   13.38888836   88.63520050    0.80000001    2.32999992
   13.39027786   88.25620270    0.80000001    2.32999992
   13.39361095   91.16750336    0.79000002    2.32999992
   13.39944458   91.16750336    0.79000002    2.32999992
   13.40361118   88.20729828    0.79000002    2.32999992
   13.40666676   83.56250000    0.79000002    2.32999992
   13.40999985   85.76480103    0.79000002    2.34999990
   13.41305542   83.60440063    0.79000002    2.34999990
   13.41638851   87.98079681    0.76999998    2.32999992
   13.41972256   82.99079895    0.76999998    2.34999990
   13.42222214   83.30750275    0.79000002    2.34999990
   13.42333412   84.95989990    0.76999998    2.34999990
   13.42666721   94.91410065    0.79000002    2.34999990
   13.42972279   81.17649841    0.79000002    2.34999990
   13.43305588   86.63569641    0.76999998    2.34999990
   13.43611145   84.02670288    0.79000002    2.34999990
   13.44222260   84.02670288    0.76999998    2.34999990
   13.44638920   85.24289703    0.75000000    2.34999990
   13.44972229   96.42819977    0.76999998    2.34999990
   13.45277786   85.24610138    0.76999998    2.34999990
   13.45555496   82.91179657    0.76999998    2.34999990
   13.45638847   88.93460083    0.76999998    2.34999990
   13.45972157   93.30319977    0.76999998    2.36999989
   13.46277714   94.49649811    0.76999998    2.36999989
   13.46611118   89.52130127    0.75000000    2.34999990
   13.46916580   91.66619873    0.75000000    2.34999990
   13.47249985   94.58799744    0.75000000    2.34999990
   13.47583294   84.96549988    0.75000000    2.34999990
   13.47888851   82.67199707    0.76999998    2.34999990
   13.48500061   82.67199707    0.76999998    2.34999990
   13.48916721   90.69529724    0.75000000    2.34999990
   13.49250031   83.60099792    0.76999998    2.36999989
   13.49555588   87.65879822    0.76999998    2.36999989
   13.49888897   85.33609772    0.75000000    2.36999989
   13.50222206   84.28990173    0.75000000    2.36999989
   13.50527763   87.76069641    0.75000000    2.36999989
   13.50861073   84.47760010    0.75000000    2.36999989
   13.51166630   86.31040192    0.75000000    2.36999989
   13.51500034   87.50910187    0.75000000    2.36999989
   13.51833344   89.12969971    0.75000000    2.36999989
   13.52138901   96.46829987    0.75000000    2.36999989
   13.52222157   87.05950165    0.75000000    2.36999989
   13.54305553   87.05950165    0.73000002    2.39000010
   13.54722309   83.73639679    0.75000000    2.39000010
   13.55027771   85.99169922    0.75000000    2.36999989
   13.55361176   88.97470093    0.75000000    2.36999989
   13.55555534   84.90450287    0.73000002    2.36999989
   13.55722237   84.79429626    0.73000002    2.39000010
   13.56055546   91.07150269    0.73000002    2.39000010
   13.56361103   89.17259979    0.73000002    2.39000010
   13.56694412   86.39659882    0.75000000    2.39000010
   13.57027817   81.83969879    0.73000002    2.39000010
   13.57333374   94.30149841    0.73000002    2.39000010
   13.57666683   86.09329987    0.73000002    2.39000010
   13.57972240   90.19869995    0.73000002    2.36999989
   13.58583260   90.19869995    0.70999998    2.39000010
   13.59000015   87.56649780    0.70999998    2.39000010
   13.59305477   98.21540070    0.70999998    2.39000010
   13.59638882   86.95110321    0.70999998    2.39000010
   13.59972191   85.75659943    0.70999998    2.39000010
   13.60277843   89.31439972    0.70999998    2.39000010
   13.60611153   89.94730377    0.70999998    2.39000010
   13.60916710   87.04039764    0.70999998    2.39000010
   13.61250019   83.57309723    0.70999998    2.39000010
   13.61583328   87.61160278    0.70999998    2.39000010
   13.61888885   82.53839874    0.70999998    2.39000010
   13.62222195   82.66210175    0.73000002    2.39000010
   13.62277794   80.21820068    0.73000002    2.39000010
   13.62861156   80.21820068    0.70999998    2.39000010
   13.63277817   89.14559937    0.73000002    2.40000010
   13.63611126   88.81199646    0.73000002    2.40000010
   13.63916683   83.27929688    0.73000002    2.40000010
   13.64249992   88.89949799    0.73000002    2.39000010
   13.64555550   93.29319763    0.70999998    2.39000010
   13.64888859   86.51529694    0.70999998    2.39000010
   13.65222168   84.17050171    0.70999998    2.39000010
   13.65527725   87.97709656    0.73000002    2.40000010
   13.65611076   84.23020172    0.73000002    2.40000010
   13.65916634   89.65129852    0.73000002    2.40000010
   13.66222191   85.91280365    0.73000002    2.40000010
   13.66555500   88.52449799    0.73000002    2.40000010
   13.67138958   88.52449799    0.73000002    2.40000010
   13.67555618   92.64080048    0.70999998    2.40000010
   13.67888927   86.38089752    0.73000002    2.40000010
   13.68194485   90.53269958    0.73000002    2.40000010
   13.68527794   87.74970245    0.70999998    2.40000010
   13.68861103   94.37169647    0.73000002    2.40000010
   13.68944454   81.68389893    0.73000002    2.40000010
   13.69222260   79.14920044    0.73000002    2.40000010
   13.69527817   88.99369812    0.73000002    2.40000010
   13.69861126   83.26860046    0.70999998    2.40000010
   13.70166683   83.96009827    0.73000002    2.40000010
   13.70499992   87.07759857    0.73000002    2.40000010
   13.70833302   96.90640259    0.73000002    2.40000010
   13.71444416   96.90640259    0.70999998    2.42000008
   13.71833324   87.79979706    0.70999998    2.40000010
   13.72166634   91.09459686    0.70999998    2.40000010
   13.72277737   90.86889648    0.70999998    2.40000010
   13.72555542   87.28189850    0.70999998    2.40000010
   13.72861099   92.35449982    0.70999998    2.40000010
   13.73194408   94.98729706    0.70999998    2.42000008
   13.73500061   88.30000305    0.70999998    2.42000008
   13.73833370   85.66249847    0.70999998    2.42000008
   13.74166679   82.41660309    0.73000002    2.42000008
   13.74472237   93.16459656    0.73000002    2.42000008
   13.74805546   86.67859650    0.70999998    2.42000008
   13.75138855   87.63649750    0.70999998    2.42000008
   13.75833321   87.63649750    0.70999998    2.42000008
   13.76249981   86.52249908    0.70999998    2.40000010
   13.76555538   86.98410034    0.69000000    2.42000008
   13.76888847   90.37110138    0.70999998    2.42000008
   13.77222157   85.31710052    0.69000000    2.42000008
   13.77527714   90.96970367    0.70999998    2.42000008
   13.77861118   94.38950348    0.69000000    2.42000008
   13.78194427   96.21620178    0.69000000    2.42000008
   13.78500080   92.90950012    0.69000000    2.42000008
   13.78833389   96.51570129    0.69000000    2.42000008
   13.78944492   90.56069946    0.69000000    2.42000008
   13.79194450   96.80400085    0.69000000    2.42000008
   13.79500008   90.80840302    0.69000000    2.42000008
   13.80000019   90.80840302    0.69000000    2.42000008
   13.80416679   94.60910034    0.69000000    2.42000008
   13.80722237   91.00879669    0.69000000    2.44000006
   13.81055546   88.86039734    0.69000000    2.44000006
   13.81388950   96.00330353    0.69000000    2.40000010
   13.81694412   98.68540192    0.69000000    2.44000006
   13.82027817   94.25209808    0.69000000    2.44000006
   13.82277775   98.77159882    0.69000000    2.42000008
   13.82416630   91.20030212    0.69000000    2.42000008
   13.82722187   84.55619812    0.69000000    2.44000006
   13.83055592   92.21410370    0.69000000    2.44000006
   13.83361053   86.34989929    0.67000002    2.44000006
   13.83694458   92.68669891    0.67000002    2.42000008
   13.84277725   92.68669891    0.69000000    2.44000006
   13.84694386   87.54229736    0.67000002    2.44000006
   13.85027790   93.55139923    0.67000002    2.44000006
   13.85333347   88.08940125    0.67000002    2.44000006
   13.85611153   96.34200287    0.67000002    2.44000006
   13.85722256   89.84089661    0.67000002    2.44000006
   13.86027813   91.00849915    0.69000000    2.44000006
   13.86361122   92.44830322    0.67000002    2.44000006
   13.86666679   86.40910339    0.69000000    2.44000006
   13.86999989   91.79149628    0.67000002    2.44000006
   13.87333393   90.39299774    0.69000000    2.44000006
   13.87666702   87.64800262    0.69000000    2.44000006
   13.87972260   89.89469910    0.67000002    2.44000006
   13.88555527   89.89469910    0.69000000    2.44000006
   13.88972187   88.81089783    0.69000000    2.46000004
   13.89305496   93.37470245    0.69000000    2.44000006
   13.89638901   93.99430084    0.69000000    2.46000004
   13.89944458   93.84929657    0.67000002    2.44000006
   13.90277767   94.28209686    0.69000000    2.44000006
   13.90583324   93.34410095    0.67000002    2.46000004
   13.90916634   92.92230225    0.69000000    2.46000004
   13.91249943   90.38279724    0.67000002    2.46000004
   13.91555500   95.43560028    0.67000002    2.46000004
   13.91888905   89.63829803    0.67000002    2.44000006
   13.92222214   92.80899811    0.67000002    2.46000004
   13.92277813   91.55650330    0.67000002    2.46000004
   13.92861176   91.55650330    0.67000002    2.46000004
   13.93277836   96.05169678    0.67000002    2.46000004
   13.93583298   92.93039703    0.67000002    2.46000004
   13.93916702   94.20240021    0.67000002    2.46000004
   13.94222260   89.60949707    0.67000002    2.44000006
   13.94555569   94.27500153    0.69000000    2.46000004
   13.94888878   91.61979675    0.69000000    2.46000004
   13.95194435   89.23020172    0.67000002    2.46000004
   13.95527744   93.74990082    0.64999998    2.46000004
   13.95611095   94.12650299    0.64999998    2.46000004
   13.95888901   90.38819885    0.64999998    2.46000004
   13.96194458   91.50499725    0.64999998    2.46000004
   13.96527767   95.75779724    0.64999998    2.46000004
   13.97138882   95.75779724    0.64999998    2.46000004
   13.97555542   87.14810181    0.67000002    2.46000004
   13.97861099  100.25399780    0.64999998    2.46000004
   13.98194408   90.56140137    0.64999998    2.46000004
   13.98527813   95.14710236    0.64999998    2.46000004
   13.98861122   95.21939850    0.64999998    2.46000004
   13.98944473   89.83989716    0.64999998    2.46000004
   13.99222279   96.11360168    0.64999998    2.46000004
   13.99527836   88.82369995    0.64999998    2.46000004
   13.99861145   74.41130066    0.67000002    2.46000004
   14.00194454   94.81240082    0.64999998    2.46000004
   14.00500011   87.71269989    0.64999998    2.46000004
   14.00833321   92.13200378    0.64999998    2.46000004
   14.01416683   92.13200378    0.67000002    2.46000004
   14.01833344   88.28749847    0.64999998    2.48000002
   14.02166653   90.13089752    0.64999998    2.46000004
   14.02277756   91.69390106    0.64999998    2.46000004
   14.02527714   89.03600311    0.64999998    2.46000004
   14.02833271   88.82309723    0.67000002    2.46000004
   14.03166676   90.04750061    0.67000002    2.46000004
   14.03500080   83.80110168    0.64999998    2.46000004
   14.03805637   91.23860168    0.64999998    2.46000004
   14.04138947   83.60399628    0.64999998    2.48000002
   14.04472256   87.46810150    0.64999998    2.46000004
   14.04777813   95.46019745    0.64999998    2.46000004
   14.05111122   84.54820251    0.64999998    2.46000004
   14.05694485   84.54820251    0.64999998    2.48000002
   14.06111145   90.10469818    0.64999998    2.46000004
   14.06444454   87.52249908    0.64999998    2.46000004
   14.06777763   92.43869781    0.64999998    2.48000002
   14.07083321   83.39080048    0.64999998    2.48000002
   14.07416630   90.80940247    0.67000002    2.46000004
   14.07722187   94.24490356    0.67000002    2.48000002
   14.08055592   95.64980316    0.64999998    2.48000002
   14.08388901   92.15249634    0.64999998    2.48000002
   14.08694458   88.78040314    0.64999998    2.48000002
   14.08944416   91.62879944    0.67000002    2.48000002
   14.09083271   95.99720001    0.67000002    2.48000002
   14.09388828   92.48760223    0.67000002    2.46000004
   14.10000038   92.48760223    0.67000002    2.48000002
   14.10416698   95.24469757    0.67000002    2.48000002
   14.10722256   83.69170380    0.64999998    2.48000002
   14.11055565   86.15789795    0.67000002    2.48000002
   14.11361122   83.80780029    0.67000002    2.48000002
   14.11694431   89.38390350    0.67000002    2.46000004
   14.12027836   88.86949921    0.67000002    2.48000002
   14.12277794   82.09380341    0.67000002    2.48000002
   14.12388897   85.45890045    0.67000002    2.48000002
   14.12722206   90.33399963    0.67000002    2.48000002
   14.13027763   88.44650269    0.67000002    2.48000002
   14.13361073   99.66320038    0.67000002    2.48000002
   14.13666630   82.80750275    0.67000002    2.48000002
   14.14277744   82.80750275    0.64999998    2.48000002
   14.14694405   87.19879913    0.64999998    2.50000000
   14.14999962   83.59559631    0.64999998    2.48000002
   14.15333271   84.90460205    0.64999998    2.48000002
   14.15611076   95.74790192    0.64999998    2.48000002
   14.15694427   86.33429718    0.64999998    2.48000002
   14.15999985   81.48670197    0.64999998    2.48000002
   14.16333294   87.07379913    0.67000002    2.50000000
   14.16666698   89.79260254    0.64999998    2.50000000
   14.16972256   93.64150238    0.64999998    2.48000002
   14.17305565   82.18900299    0.64999998    2.48000002
   14.17611122   90.41429901    0.64999998    2.48000002
   14.17944431   86.53520203    0.64999998    2.50000000
   14.18555546   86.53520203    0.67000002    2.50000000
   14.18972206   87.42939758    0.64999998    2.48000002
   14.19305515   89.02760315    0.67000002    2.48000002
   14.19611073   83.70230103    0.64999998    2.50000000
   14.19944477   86.07270050    0.64999998    2.50000000
   14.20277786   87.01200104    0.67000002    2.50000000
   14.20583344   89.29920197    0.64999998    2.50000000
   14.20916653   92.65689850    0.64999998    2.50000000
   14.21249962   92.87149811    0.67000002    2.50000000
   14.21555519   92.11129761    0.67000002    2.50000000
   14.21888828   89.80139923    0.64999998    2.50000000
   14.22194386   85.77919769    0.67000002    2.51999998
   14.22277737   94.74939728    0.64999998    2.48000002
   14.22833252   94.74939728    0.64999998    2.50000000
   14.23249912   99.17130280    0.67000002    2.50000000
   14.23583317   96.46779633    0.67000002    2.48000002
   14.23916721   97.60189819    0.67000002    2.50000000
   14.24222279   86.20040131    0.67000002    2.50000000
   14.24555588   84.73539734    0.69000000    2.51999998
   14.24861145   82.28430176    0.67000002    2.50000000
   14.25194454   89.72769928    0.67000002    2.50000000
   14.25527763   82.27850342    0.67000002    2.50000000
   14.25611115   86.39140320    0.67000002    2.51999998
   14.25888920   88.10420227    0.67000002    2.51999998
   14.26194477   90.79930115    0.67000002    2.50000000
   14.26527786   87.48419952    0.64999998    2.50000000
   14.27138901   87.48419952    0.64999998    2.51999998
   14.27555561   86.59999847    0.64999998    2.51999998
   14.27861118   82.40609741    0.67000002    2.50000000
   14.28194427   82.45339966    0.67000002    2.51999998
   14.28500080   88.34200287    0.67000002    2.51999998
   14.28833389   83.07279968    0.67000002    2.50000000
   14.28944492   87.22339630    0.64999998    2.48000002
   14.29194450   82.46540070    0.67000002    2.50000000
   14.29500008   79.31330109    0.67000002    2.51999998
   14.29833412   88.80930328    0.64999998    2.50000000
   14.30166721   81.43340302    0.64999998    2.50000000
   14.30472279   84.39610291    0.64999998    2.50000000
   14.30805588   89.03450012    0.64999998    2.50000000
   14.31416702   89.03450012    0.64999998    2.50000000
   14.31833363   89.87059784    0.64999998    2.51999998
   14.32138920   87.86579895    0.63000000    2.50000000
   14.32277775   87.21589661    0.63000000    2.51999998
   14.32527733   85.97419739    0.64999998    2.51999998
   14.32833290   81.56040192    0.64999998    2.51999998
   14.33166695   81.74019623    0.64999998    2.51999998
   14.33500004   84.99089813    0.64999998    2.51999998
   14.33805561   85.97779846    0.64999998    2.51999998
   14.34138870   79.32129669    0.64999998    2.50000000
   14.34472179   83.68019867    0.64999998    2.51999998
   14.34777737   85.20189667    0.64999998    2.51999998
   14.35111141   79.95230103    0.64999998    2.51999998
   14.35694504   79.95230103    0.64999998    2.51999998
   14.36111164   92.29219818    0.64999998    2.51999998
   14.36444473   85.95069885    0.64999998    2.50000000
   14.36750031   83.73760223    0.63000000    2.53999996
   14.37083340   90.50859833    0.64999998    2.51999998
   14.37416649   86.63289642    0.64999998    2.51999998
   14.37722206   91.28189850    0.64999998    2.51999998
   14.38055611   83.13020325    0.64999998    2.51999998
   14.38388920   96.75720215    0.64999998    2.51999998
   14.38694477   87.87899780    0.64999998    2.51999998
   14.38944435   90.68890381    0.64999998    2.51999998
   14.39055538   83.62409973    0.64999998    2.51999998
   14.39361095   84.81069946    0.64999998    2.51999998
   14.39972210   84.81069946    0.64999998    2.53999996
   14.40388870   88.83699799    0.63000000    2.53999996
   14.40722179   84.74310303    0.63000000    2.51999998
   14.41055489   95.80410004    0.64999998    2.51999998
   14.41361046   91.13860321    0.63000000    2.53999996
   14.41694450   79.05239868    0.63000000    2.51999998
   14.42000008   86.09010315    0.64999998    2.51999998
   14.42277813   81.45089722    0.63000000    2.51999998
   14.42388916   83.18180084    0.63000000    2.51999998
   14.42722225   90.43849945    0.63000000    2.51999998
   14.43027782   78.55010223    0.63000000    2.51999998
   14.43361092   83.17350006    0.63000000    2.51999998
   14.43666649   82.82469940    0.63000000    2.51999998
   14.44277763   82.82469940    0.63000000    2.51999998
   14.44694424   92.10150146    0.63000000    2.53999996
   14.44999981   84.29060364    0.63000000    2.51999998
   14.45333290   86.83329773    0.63000000    2.51999998
   14.45611095   89.06880188    0.63000000    2.53999996
   14.45694447   84.42060089    0.63000000    2.53999996
   14.46027756   86.85179901    0.64999998    2.51999998
   14.46333313   82.80239868    0.64999998    2.53999996
   14.46666622   79.85430145    0.64999998    2.53999996
   14.46972179   83.22499847    0.64999998    2.53999996
   14.47305489   92.28679657    0.64999998    2.53999996
   14.47638798   85.03299713    0.64999998    2.53999996
   14.47944355   80.34390259    0.63000000    2.53999996
   14.48555565   80.34390259    0.63000000    2.53999996
   14.48972225   96.04170227    0.63000000    2.53999996
   14.49277782   85.60579681    0.63000000    2.53999996
   14.49611092   90.17400360    0.63000000    2.51999998
   14.49944496   92.62670135    0.63000000    2.51999998
   14.50249958   87.13439941    0.64999998    2.51999998
   14.50583363   83.64849854    0.64999998    2.53999996
   14.50916672   80.01100159    0.67000002    2.53999996
   14.51222229   91.92220306    0.67000002    2.53999996
   14.51555538   96.61569977    0.67000002    2.53999996
   14.51861095   84.51779938    0.67000002    2.53999996
   14.52194405   88.13939667    0.64999998    2.53999996
   14.52277756   85.09549713    0.64999998    2.53999996
   14.52833271   85.09549713    0.67000002    2.53999996
   14.53249931   96.99430084    0.64999998    2.53999996
   14.53583336   87.02980042    0.64999998    2.53999996
   14.53888893   82.44239807    0.64999998    2.53999996
   14.55749989   87.54589844    0.63000000    2.53999996
   14.55888939   83.49490356    0.63000000    2.53999996
   14.56194496   90.02269745    0.64999998    2.53999996
   14.56527805   94.02999878    0.64999998    2.53999996
   14.57138920   94.02999878    0.63000000    2.55999994
   14.57555580   84.34729767    0.63000000    2.53999996
   14.57888889   87.05249786    0.63000000    2.53999996
   14.58222198   82.86289978    0.64999998    2.55999994
   14.58527756   78.73169708    0.64999998    2.53999996
   14.58861065   94.78869629    0.64999998    2.55999994
   14.59083271   84.47879791    0.64999998    2.55999994
   14.59222221   77.25589752    0.64999998    2.53999996
   14.59555531   86.14489746    0.64999998    2.53999996
   14.59888840   92.69519806    0.64999998    2.53999996
   14.60194492   82.81199646    0.64999998    2.55999994
   14.60527802   89.65940094    0.64999998    2.53999996
   14.60833359   83.64109802    0.63000000    2.53999996
   14.61444473   83.64109802    0.63000000    2.55999994
   14.61861134   77.87319946    0.64999998    2.55999994
   14.62166691   82.50080109    0.63000000    2.55999994
   14.62416649   81.48699951    0.63000000    2.55999994
   14.62527752   77.06990051    0.63000000    2.55999994
   14.62861156   81.63410187    0.63000000    2.55999994
   14.63194466   85.08879852    0.63000000    2.53999996
   14.63500023   89.51270294    0.63000000    2.55999994
   14.63833332   78.63289642    0.63000000    2.55999994
   14.64166641   89.45960236    0.63000000    2.55999994
   14.64472198   87.33730316    0.63000000    2.55999994
   14.64805508   84.97869873    0.63000000    2.55999994
   14.65111065   91.97360229    0.63000000    2.53999996
   14.65722179   91.97360229    0.63000000    2.55999994
   14.66138840   85.77500153    0.63000000    2.55999994
   14.66444397   91.50109863    0.63000000    2.55999994
   14.66777802   81.98239899    0.63000000    2.53999996
   14.67111111   86.88929749    0.63000000    2.53999996
   14.67416668   91.06269836    0.63000000    2.55999994
   14.67750072   88.30269623    0.63000000    2.55999994
   14.68083382   89.98979950    0.63000000    2.55999994
   14.68388939   99.50229645    0.63000000    2.55999994
   14.68722248   91.08110046    0.63000000    2.55999994
   14.69055557   95.23940277    0.63000000    2.55999994
   14.69222260   93.07430267    0.63000000    2.55999994
   14.69416714   87.20770264    0.63000000    2.53999996
   14.69999981   87.20770264    0.63000000    2.55999994
   14.70416641   83.85959625    0.63000000    2.55999994
   14.70749950   88.60810089    0.63000000    2.55999994
   14.71055508   85.03309631    0.61000001    2.53999996
   14.71388912   96.25769806    0.61000001    2.55999994
   14.71722221   92.85500336    0.61000001    2.55999994
   14.72027779   89.74400330    0.61000001    2.53999996
   14.72361088   92.68350220    0.61000001    2.55999994
   14.72555542   91.08609772    0.61000001    2.55999994
   14.72722149   89.57830048    0.61000001    2.55999994
   14.73055553   89.28330231    0.61000001    2.55999994
   14.73361111   78.99040222    0.61000001    2.55999994
   14.73694515   84.50599670    0.61000001    2.55999994
   14.74277782   84.50599670    0.61000001    2.57999992
   14.74694443   90.25420380    0.61000001    2.53999996
   14.75027752   82.21240234    0.61000001    2.55999994
   14.75361156   87.11180115    0.61000001    2.55999994
   14.75666714   86.18250275    0.61000001    2.57999992
   14.75916672   78.85669708    0.58999997    2.55999994
   14.76027775   79.89309692    0.58999997    2.55999994
   14.76361084   97.30300140    0.61000001    2.55999994
   14.76694393   89.26580048    0.61000001    2.55999994
   14.76999950   88.91600037    0.61000001    2.55999994
   14.77333355   88.97160339    0.61000001    2.55999994
   14.77666664   94.35330200    0.61000001    2.55999994
   14.77972221   82.19809723    0.61000001    2.55999994
   14.78583336   82.19809723    0.61000001    2.55999994
   14.78972244   88.10260010    0.61000001    2.55999994
   14.79250050   93.66979980    0.61000001    2.57999992
   14.79333401   89.61329651    0.61000001    2.55999994
   14.79666710   93.19290161    0.61000001    2.57999992
   14.80000019   88.46579742    0.58999997    2.55999994
   14.80305576   86.05490112    0.61000001    2.53999996
   14.80638885   90.12129974    0.58999997    2.55999994
   14.80972195   79.99189758    0.58999997    2.55999994
   14.81277752   81.72889709    0.58999997    2.55999994
   14.81611156   87.05819702    0.61000001    2.55999994
   14.81944466   80.35919952    0.61000001    2.57999992
   14.82250023   78.84660339    0.61000001    2.55999994
   14.82861137   78.84660339    0.61000001    2.55999994
   14.83277798   79.01480103    0.61000001    2.55999994
   14.83583260   83.62870026    0.61000001    2.55999994
   14.83916664   82.70059967    0.58999997    2.55999994
   14.84249973   81.35119629    0.58999997    2.55999994
   14.84555531   88.35070038    0.58999997    2.57999992
   14.84888840   85.60430145    0.56999999    2.57999992
   14.85194492   88.38639832    0.56999999    2.57999992
   14.85527802   86.86100006    0.56999999    2.55999994
   14.85861111   79.99040222    0.56999999    2.55999994
   14.85944462   78.64320374    0.56999999    2.55999994
   14.86222267   86.83219910    0.56999999    2.55999994
   14.86527824   83.87100220    0.58999997    2.57999992
   14.87138939   83.87100220    0.58999997    2.57999992
   14.87555599   82.23650360    0.58999997    2.55999994
   14.87888908   83.09030151    0.58999997    2.57999992
   14.88194466   91.67369843    0.58999997    2.57999992
   14.88527775   81.58679962    0.58999997    2.55999994
   14.88833332   82.51239777    0.58999997    2.57999992
   14.89166641   83.03430176    0.56999999    2.55999994
   14.89277744   84.08609772    0.56999999    2.57999992
   14.89527798   82.46779633    0.58999997    2.57999992
   14.89861107   88.03500366    0.56999999    2.57999992
   14.90166664   82.26689911    0.56999999    2.55999994
   14.90499973   78.58950043    0.58999997    2.57999992
   14.90833282   84.29380035    0.58999997    2.57999992
   15.01333332   -1.00000000   -1.00000000   -1.00000000
   15.10888958   -1.00000000   -1.00000000   -1.00000000
   15.19916630   -1.00000000   -1.00000000   -1.00000000
   15.29444504   -1.00000000   -1.00000000   -1.00000000
   15.41583252   -1.00000000   -1.00000000   -1.00000000
   15.43916702   83.26570129    0.63000000    2.61999989
   15.44250011   87.12999725    0.64999998    2.59999990
   15.44583321   83.58519745    0.63000000    2.59999990
   15.44888878   83.57340240    0.64999998    2.61999989
   15.45222187   87.66809845    0.64999998    2.59999990
   15.45555496   88.08580017    0.64999998    2.59999990
   15.45972157   88.08580017    0.63000000    2.61999989
   15.46361065   81.50900269    0.64999998    2.59999990
   15.46694374   82.24680328    0.63000000    2.59999990
   15.47027779   90.20919800    0.63000000    2.61999989
   15.47249985   89.33499908    0.63000000    2.61999989
   15.47388840   81.25689697    0.63000000    2.61999989
   15.47694397   83.41269684    0.63000000    2.61999989
   15.48027706   80.66059875    0.63000000    2.59999990
   15.48333359   89.72370148    0.64999998    2.59999990
   15.48666668   83.92430115    0.67000002    2.61999989
   15.49000072   86.41680145    0.67000002    2.59999990
   15.49305534   82.51840210    0.64999998    2.61999989
   15.49638939   81.65059662    0.64999998    2.61999989
   15.50249958   81.65059662    0.64999998    2.59999990
   15.50666714   82.12259674    0.64999998    2.59999990
   15.50972176   84.01290131    0.64999998    2.61999989
   15.51305580   78.40570068    0.64999998    2.59999990
   15.51611137   77.12599945    0.67000002    2.61999989
   15.51944447   83.84179688    0.69000000    2.61999989
   15.52277756   79.18689728    0.69000000    2.59999990
   15.52583313   82.55609894    0.67000002    2.59999990
   15.52916622   80.35289764    0.67000002    2.61999989
   15.53249931   89.41149902    0.67000002    2.61999989
   15.53555584   86.55580139    0.64999998    2.61999989
   15.53888893   84.88200378    0.67000002    2.61999989
   15.53944492   84.47029877    0.67000002    2.61999989
   15.54527855   84.47029877    0.64999998    2.61999989
   15.54944515   85.19049835    0.64999998    2.61999989
   15.55277824   88.37599945    0.64999998    2.61999989
   15.55583382   94.86789703    0.64999998    2.61999989
   15.55916691   83.07710266    0.64999998    2.61999989
   15.56222248   86.69619751    0.63000000    2.61999989
   15.56555557   90.51419830    0.63000000    2.61999989
   15.56888866   80.52909851    0.63000000    2.61999989
   15.57194424   83.85729980    0.64999998    2.61999989
   15.57277775   87.23459625    0.64999998    2.61999989
   15.57583332   89.14640045    0.64999998    2.61999989
   15.57888889   84.36560059    0.67000002    2.61999989
   15.58222198   90.00219727    0.67000002    2.59999990
   15.58805561   90.00219727    0.67000002    2.61999989
   15.59222221   87.43650055    0.67000002    2.59999990
   15.59555531   87.37049866    0.67000002    2.61999989
   15.59861088   78.61540222    0.67000002    2.61999989
   15.60194492   82.66519928    0.67000002    2.61999989
   15.60527802   83.19740295    0.69000000    2.61999989
   15.60611153   75.63300323    0.69000000    2.61999989
   15.60888958   81.54479980    0.70999998    2.61999989
   15.61194515   82.58219910    0.70999998    2.61999989
   15.61527824   79.60150146    0.69000000    2.61999989
   15.61833382   78.78299713    0.69000000    2.61999989
   15.62166691   76.56870270    0.69000000    2.61999989
   15.62500000   77.84190369    0.70999998    2.64000010
   15.63111115   77.84190369    0.69000000    2.61999989
   15.63500023   86.52239990    0.69000000    2.61999989
   15.63833332   87.23960114    0.69000000    2.61999989
   15.63944435   84.02359772    0.69000000    2.61999989
   15.64194393   81.22820282    0.70999998    2.61999989
   15.64499950   87.35340118    0.73000002    2.61999989
   15.64833355   81.50810242    0.73000002    2.61999989
   15.65138817   86.05889893    0.73000002    2.61999989
   15.65472221   87.60829926    0.73000002    2.61999989
   15.65805531   84.65319824    0.70999998    2.61999989
   15.66111088   85.25099945    0.70999998    2.61999989
   15.66444397   84.99369812    0.70999998    2.61999989
   15.66777802   82.54869843    0.67000002    2.61999989
   15.67388916   82.54869843    0.69000000    2.61999989
   15.67805576   83.36180115    0.70999998    2.61999989
   15.68111134   93.15239716    0.70999998    2.61999989
   15.68444443   86.50129700    0.69000000    2.59999990
   15.68750000   79.48320007    0.69000000    2.61999989
   15.69083309   80.53659821    0.69000000    2.59999990
   15.69416714   81.78009796    0.67000002    2.61999989
   15.69750023   76.50219727    0.69000000    2.61999989
   15.70083332   77.72209930    0.67000002    2.61999989
   15.70416641   80.85260010    0.69000000    2.61999989
   15.70611095   79.86730194    0.69000000    2.61999989
   15.70777798   83.46610260    0.69000000    2.61999989
   15.71083355   84.58799744    0.69000000    2.61999989
   15.71666622   84.58799744    0.69000000    2.61999989
   15.72083282   77.62359619    0.69000000    2.59999990
   15.72416592   80.58200073    0.69000000    2.61999989
   15.72722149   86.55159760    0.67000002    2.61999989
   15.73055553   81.07920074    0.69000000    2.61999989
   15.73361111   87.51000214    0.67000002    2.61999989
   15.73694515   80.39070129    0.69000000    2.61999989
   15.73944473   81.02660370    0.69000000    2.61999989
   15.74083328   80.18779755    0.69000000    2.61999989
   15.74388885   82.80359650    0.67000002    2.61999989
   15.74722290   87.44589996    0.67000002    2.61999989
   15.75055599   82.30609894    0.67000002    2.61999989
   15.75361156   79.18370056    0.67000002    2.61999989
   15.75944424   79.18370056    0.64999998    2.61999989
   15.76361084   78.66419983    0.64999998    2.61999989
   15.76694393   82.21040344    0.63000000    2.61999989
   15.76999950   73.45200348    0.63000000    2.64000010
   15.77277756   77.45339966    0.63000000    2.64000010
   15.77388859   85.11129761    0.63000000    2.64000010
   15.77694416   79.38030243    0.61000001    2.61999989
   15.78027725   88.21949768    0.63000000    2.61999989
   15.78333378   86.75540161    0.63000000    2.61999989
   15.78666687   81.56809998    0.63000000    2.61999989
   15.79000092   85.26730347    0.63000000    2.64000010
   15.79305553   85.02169800    0.63000000    2.61999989
   15.79638958   81.27860260    0.61000001    2.61999989
   15.80249977   81.27860260    0.63000000    2.59999990
   15.80638885   82.01909637    0.63000000    2.61999989
   15.80972195   77.81780243    0.63000000    2.64000010
   15.81305599   78.10579681    0.63000000    2.61999989
   15.81611156   80.90779877    0.61000001    2.64000010
   15.81944466   80.25050354    0.61000001    2.64000010
   15.82250023   81.03320313    0.61000001    2.61999989
   15.82583332   82.80760193    0.61000001    2.61999989
   15.82916641   89.09380341    0.61000001    2.61999989
   15.83222198   84.40850067    0.61000001    2.61999989
   15.83555508   81.92769623    0.63000000    2.61999989
   15.83888817   84.55400085    0.63000000    2.61999989
   15.83944416   85.20909882    0.63000000    2.61999989
   15.84527779   85.20909882    0.64999998    2.61999989
   15.84944439   79.52719879    0.67000002    2.61999989
   15.85249996   79.59690094    0.67000002    2.64000010
   15.85583401   79.49299622    0.67000002    2.64000010
   15.85888958   77.23130035    0.64999998    2.61999989
   15.86222267   77.85119629    0.64999998    2.61999989
   15.86555576   84.75129700    0.64999998    2.61999989
   15.86861134   90.23670197    0.64999998    2.64000010
   15.87194443   82.03530121    0.64999998    2.61999989
   15.87277794   83.91290283    0.64999998    2.61999989
   15.87555599   82.30200195    0.64999998    2.61999989
   15.87861156   79.34729767    0.64999998    2.61999989
   15.88194466   80.56839752    0.63000000    2.64000010
   15.88805580   80.56839752    0.63000000    2.64000010
   15.89222240   81.47059631    0.63000000    2.61999989
   15.89527798   78.65850067    0.61000001    2.61999989
   15.89861107   79.23400116    0.63000000    2.61999989
   15.90194416   78.13240051    0.63000000    2.61999989
   15.90499973   81.46269989    0.63000000    2.59999990
   15.90611076   85.15989685    0.63000000    2.59999990
   15.90888882   76.77590179    0.63000000    2.61999989
   15.91194439   84.01629639    0.64999998    2.64000010
   15.91527748   78.46209717    0.64999998    2.61999989
   15.91861153   81.33879852    0.67000002    2.61999989
   15.92166710   84.45120239    0.67000002    2.61999989
   15.92500019   80.56459808    0.67000002    2.64000010
   15.93083382   80.56459808    0.67000002    2.61999989
   15.93500042   77.50749969    0.67000002    2.61999989
   15.93833351   87.18060303    0.67000002    2.61999989
   15.93944454   79.19259644    0.69000000    2.61999989
   15.94194412   88.43109894    0.67000002    2.64000010
   15.94527817   82.73729706    0.67000002    2.64000010
   15.94833374   88.71710205    0.69000000    2.61999989
   15.95166683   83.26599884    0.67000002    2.64000010
   15.95472240   90.56939697    0.64999998    2.64000010
   15.95805550   87.03050232    0.67000002    2.61999989
   15.96138859   93.86779785    0.64999998    2.61999989
   15.96444416   81.61319733    0.64999998    2.61999989
   15.96777725   83.59919739    0.64999998    2.61999989
   15.97388840   83.59919739    0.63000000    2.61999989
   15.97777748   87.92430115    0.63000000    2.61999989
   15.98138809   96.75579834    0.63000000    2.61999989
   15.98444462   90.80449677    0.63000000    2.61999989
   15.98777771   86.33129883    0.63000000    2.61999989
   15.99111176   81.72540283    0.63000000    2.64000010
   15.99416733   83.01069641    0.64999998    2.64000010
   15.99750042   88.37619781    0.64999998    2.61999989
   16.00055504   83.37449646    0.64999998    2.61999989
   16.00388908   82.91790009    0.63000000    2.61999989
   16.00611115   93.92639923    0.63000000    2.61999989
   16.00749969   81.80680084    0.63000000    2.61999989
   16.01055527   90.03320313    0.63000000    2.64000010
   16.01666641   90.03320313    0.63000000    2.61999989
   16.02083397   84.66100311    0.63000000    2.61999989
   16.02388954   86.89040375    0.63000000    2.61999989
   16.02722168   90.40280151    0.64999998    2.64000010
   16.03027725   82.11049652    0.63000000    2.61999989
   16.03361130   93.48989868    0.63000000    2.61999989
   16.03694344   86.41120148    0.64999998    2.61999989
   16.03944397   85.21679688    0.63000000    2.61999989
   16.04055595   87.21099854    0.63000000    2.61999989
   16.04361153   81.51920319    0.64999998    2.61999989
   16.04694366   74.76959991    0.63000000    2.61999989
   16.05027771   84.18109894    0.64999998    2.61999989
   16.05333328   77.56849670    0.63000000    2.61999989
   16.05944443   77.56849670    0.64999998    2.64000010
   16.06361008   78.44190216    0.63000000    2.61999989
   16.06666756   77.12590027    0.63000000    2.61999989
   16.07000160   84.87539673    0.63000000    2.61999989
   16.07277870   76.90209961    0.64999998    2.61999989
   16.07361221   75.72470093    0.64999998    2.61999989
   16.07666779   75.34700012    0.63000000    2.64000010
   16.08000183   82.06700134    0.63000000    2.61999989
   16.08333397   78.30079651    0.63000000    2.61999989
   16.08638954   80.25530243    0.63000000    2.61999989
   16.08972359   74.85310364    0.63000000    2.64000010
   16.09277916   83.25710297    0.63000000    2.64000010
   16.09611130   78.04039764    0.63000000    2.64000010
   16.10222244   78.04039764    0.63000000    2.64000010
   16.10639000   82.18560028    0.61000001    2.64000010
   16.10972214   79.61419678    0.63000000    2.61999989
   16.11277771   79.93199921    0.64999998    2.61999989
   16.11611176   80.18820190    0.64999998    2.61999989
   16.11944389   81.45020294    0.64999998    2.61999989
   16.12249947   84.26879883    0.64999998    2.64000010
   16.12583351   77.18849945    0.70999998    2.64000010
   16.12888908   79.18430328    0.73000002    2.64000010
   16.13222313   78.41120148    0.67000002    2.61999989
   16.13555527   85.68280029    0.64999998    2.61999989
   16.13861084   83.33200073    0.64999998    2.61999989
   16.13944435   86.57959747    0.67000002    2.64000010
   16.14527702   86.57959747    0.69000000    2.64000010
   16.14916611   78.36289978    0.69000000    2.64000010
   16.15250015   72.42230225    0.69000000    2.64000010
   16.15583229   75.90720367    0.67000002    2.61999989
   16.15888786   82.56670380    0.69000000    2.64000010
   16.16222191   83.63610077    0.67000002    2.64000010
   16.16555595   82.89910126    0.67000002    2.64000010
   16.16860962   77.57309723    0.67000002    2.61999989
   16.17194366   81.13929749    0.67000002    2.61999989
   16.17277718   81.38600159    0.67000002    2.61999989
   16.17555428   81.07820129    0.67000002    2.64000010
   16.17860985   83.76260376    0.67000002    2.64000010
   16.18194389   76.42369843    0.67000002    2.64000010
   16.18805504   76.42369843    0.64999998    2.64000010
   16.19222069   77.67209625    0.63000000    2.64000010
   16.19527626   75.62200165    0.63000000    2.64000010
   16.19861031   75.23400116    0.63000000    2.61999989
   16.20166779   75.44869995    0.61000001    2.64000010
   16.20499992   81.44529724    0.61000001    2.64000010
   16.20611191   82.89600372    0.61000001    2.64000010
   16.20861244   81.71379852    0.63000000    2.61999989
   16.21166801   79.42939758    0.64999998    2.64000010
   16.21500015   79.00679779    0.63000000    2.64000010
   16.21833420   79.16780090    0.63000000    2.64000010
   16.22138977   80.93489838    0.61000001    2.64000010
   16.22472191   86.50360107    0.61000001    2.64000010
   16.23083305   86.50360107    0.63000000    2.64000010
   16.23500061   80.11129761    0.64999998    2.64000010
   16.23805618   84.41870117    0.58999997    2.64000010
   16.23944473   83.44190216    0.58999997    2.64000010
   16.24194527   81.30180359    0.61000001    2.61999989
   16.24500084   80.55970001    0.61000001    2.64000010
   16.24833298   83.56269836    0.58999997    2.61999989
   16.25166702   78.26840210    0.58999997    2.61999989
   16.25472260   80.96779633    0.58999997    2.64000010
   16.25805473   77.04460144    0.56999999    2.64000010
   16.26138878   78.26640320    0.56999999    2.64000010
   16.26444435   77.38020325    0.58999997    2.64000010
   16.26777840   84.54029846    0.58999997    2.64000010
   16.27361107   84.54029846    0.56999999    2.64000010
   16.27777672   83.30549622    0.56999999    2.64000010
   16.28111076   85.72820282    0.56999999    2.64000010
   16.28416634   81.04380035    0.58999997    2.64000010
   16.28750038   79.93299866    0.58999997    2.61999989
   16.29083252   77.21510315    0.58999997    2.61999989
   16.29388809   78.73999786    0.58999997    2.64000010
   16.29722214   91.28160095    0.58999997    2.64000010
   16.30055428   78.22399902    0.61000001    2.64000010
   16.30360985   79.84420013    0.61000001    2.61999989
   16.30611038   95.92009735    0.61000001    2.61999989
   16.30749893   82.86689758    0.61000001    2.61999989
   16.31055450   79.85250092    0.58999997    2.64000010
   16.31638718   79.85250092    0.58999997    2.64000010
   16.32055664   79.99179840    0.58999997    2.64000010
   16.32389069   87.79910278    0.58999997    2.64000010
   16.32722282   86.00990295    0.58999997    2.64000010
   16.33027840   95.19460297    0.58999997    2.64000010
   16.33361244   82.11530304    0.58999997    2.64000010
   16.33666801   84.61090088    0.58999997    2.64000010
   16.33944511   75.54129791    0.61000001    2.61999989
   16.34055710   76.39730072    0.61000001    2.61999989
   16.34388924   74.65019989    0.61000001    2.64000010
   16.34694481   78.16570282    0.61000001    2.64000010
   16.35027885   85.00730133    0.61000001    2.64000010
   16.35333443   85.83989716    0.63000000    2.64000010
   16.35944557   85.83989716    0.63000000    2.64000010
   16.36361122   81.62550354    0.63000000    2.64000010
   16.36666679   81.69380188    0.63000000    2.61999989
   16.37000084   84.34329987    0.64999998    2.64000010
   16.37277794   75.13990021    0.63000000    2.64000010
   16.37361145   77.21739960    0.63000000    2.64000010
   16.37694550   77.81130219    0.63000000    2.64000010
   16.38000107   84.10279846    0.63000000    2.61999989
   16.38333321   82.40809631    0.63000000    2.64000010
   16.38638878   90.04260254    0.63000000    2.64000010
   16.38972282   76.71479797    0.63000000    2.61999989
   16.39305496   76.05670166    0.63000000    2.64000010
   16.39611053   77.68830109    0.63000000    2.61999989
   16.40222168   77.68830109    0.63000000    2.64000010
   16.40638924   73.37870026    0.63000000    2.61999989
   16.40944481   76.68389893    0.63000000    2.64000010
   16.41277695   75.11640167    0.63000000    2.64000010
   16.41611099   76.79100037    0.63000000    2.64000010
   16.41916656   80.06549835    0.64999998    2.64000010
   16.42249870   80.41690063    0.64999998    2.61999989
   16.42583275   79.65619659    0.63000000    2.64000010
   16.42888832   76.35559845    0.63000000    2.64000010
   16.43222237   80.13670349    0.63000000    2.66000009
   16.43527603   81.72859955    0.63000000    2.64000010
   16.43861008   78.96009827    0.61000001    2.64000010
   16.43944359   75.93740082    0.61000001    2.64000010
   16.46027946   75.93740082    0.61000001    2.64000010
   16.46444511   78.54640198    0.61000001    2.64000010
   16.46750069   83.83930206    0.61000001    2.64000010
   16.47083473   81.15450287    0.58999997    2.64000010
   16.47277832   80.70929718    0.58999997    2.64000010
   16.47444534   85.24289703    0.58999997    2.64000010
   16.47777748   90.51999664    0.58999997    2.64000010
   16.48083305   85.08999634    0.58999997    2.64000010
   16.48416710   86.33599854    0.58999997    2.61999989
   16.48750114   78.83519745    0.58999997    2.64000010
   16.49055672   82.26219940    0.58999997    2.64000010
   16.49388885   82.15119934    0.58999997    2.64000010
   16.49722290   82.03079987    0.58999997    2.64000010
   16.50305557   82.03079987    0.58999997    2.64000010
   16.50722313   85.27050018    0.58999997    2.64000010
   16.51055527   88.43070221    0.58999997    2.64000010
   16.51361084   80.45880127    0.58999997    2.64000010
   16.51694489   85.67720032    0.58999997    2.64000010
   16.52000046   85.96479797    0.58999997    2.64000010
   16.52333260   84.70130157    0.58999997    2.64000010
   16.52666664   86.46109772    0.58999997    2.64000010
   16.52972221   85.91649628    0.58999997    2.64000010
   16.53305435   89.82460022    0.56999999    2.61999989
   16.53638840   93.42939758    0.56999999    2.64000010
   16.53944397   87.42400360    0.56999999    2.64000010
   16.53999901   88.98069763    0.56999999    2.64000010
   16.54583359   88.98069763    0.55000001    2.64000010
   16.54999924   87.09210205    0.55000001    2.64000010
   16.55305481   89.10269928    0.55000001    2.64000010
   16.55638885   81.71540070    0.55000001    2.64000010
   16.55944443   89.83260345    0.56999999    2.64000010
   16.56277657   85.38459778    0.56999999    2.64000010
   16.56611061   88.46730042    0.56999999    2.64000010
   16.56944466   86.08599854    0.55000001    2.64000010
   16.57250023   80.56169891    0.55000001    2.64000010
   16.57305717   82.74810028    0.55000001    2.64000010
   16.57638931   89.10910034    0.56999999    2.64000010
   16.57972336   80.15160370    0.56999999    2.64000010
   16.58277893   88.04329681    0.56999999    2.64000010
   16.58861160   88.04329681    0.56999999    2.64000010
   16.59277916   84.56600189    0.56999999    2.64000010
   16.59611130   93.80329895    0.56999999    2.64000010
   16.59916687   73.40779877    0.56999999    2.64000010
   16.60250092   81.64689636    0.56999999    2.64000010
   16.60555649   78.52619934    0.56999999    2.64000010
   16.60639000   82.17620087    0.56999999    2.64000010
   16.60916710   85.73549652    0.56999999    2.64000010
   16.61250114   77.09249878    0.58999997    2.64000010
   16.61555672   85.74790192    0.56999999    2.64000010
   16.61888885   83.22879791    0.56999999    2.64000010
   16.62222290   83.44219971    0.56999999    2.64000010
   16.62527847   83.17630005    0.56999999    2.64000010
   16.63138962   83.17630005    0.56999999    2.64000010
   16.63555527   78.33889771    0.55000001    2.64000010
   16.63888931   74.99310303    0.58999997    2.64000010
   16.63972282   81.42299652    0.58999997    2.64000010
   16.64249992   74.95800018    0.58999997    2.64000010
   16.64583397   73.30799866    0.56999999    2.64000010
   16.64888954   78.13549805    0.56999999    2.64000010
   16.65222168   77.87090302    0.55000001    2.64000010
   16.65555573   78.78389740    0.56999999    2.64000010
   16.65861130   76.18589783    0.56999999    2.64000010
   16.66194344   79.92459869    0.55000001    2.64000010
   16.66527748   82.23729706    0.55000001    2.61999989
   16.66833305   84.46389771    0.55000001    2.64000010
   16.67444420   84.46389771    0.52999997    2.64000010
   16.67833328   80.97460175    0.52999997    2.64000010
   16.68166542   83.34030151    0.52999997    2.64000010
   16.68499947   73.64119720    0.52999997    2.64000010
   16.68805504   89.40889740    0.52999997    2.61999989
   16.69138718   79.66300201    0.52999997    2.64000010
   16.69472122   84.42089844    0.52999997    2.64000010
   16.69777679   83.41020203    0.52999997    2.64000010
   16.70111275   80.49400330    0.55000001    2.64000010
   16.70416832   90.43309784    0.55000001    2.64000010
   16.70639038   83.03700256    0.52999997    2.64000010
   16.70777893   83.85250092    0.55000001    2.64000010
   16.71111107   81.34390259    0.55000001    2.64000010
   16.71722221   81.34390259    0.55000001    2.64000010
   16.72138977   87.31629944    0.56999999    2.61999989
   16.72444534   77.65859985    0.55000001    2.64000010
   16.72777748   88.54979706    0.56999999    2.64000010
   16.73111153   91.65519714    0.56999999    2.64000010
   16.73416710   82.34059906    0.56999999    2.64000010
   16.73750114   84.44259644    0.56999999    2.64000010
   16.73972321   90.07029724    0.56999999    2.64000010
   16.74111176   85.14209747    0.58999997    2.64000010
   16.74444389   85.14730072    0.56999999    2.64000010
   16.74749947   79.18029785    0.58999997    2.64000010
   16.75083351   83.33699799    0.58999997    2.64000010
   16.75416756   82.56569672    0.58999997    2.61999989
   16.76000023   82.56569672    0.55000001    2.61999989
   16.76416588   87.11650085    0.52999997    2.64000010
   16.76749992   76.33619690    0.52999997    2.64000010
   16.77055550   78.62969971    0.52999997    2.64000010
   16.77305603   77.35980225    0.52999997    2.64000010
   16.77416611   79.82730103    0.52999997    2.64000010
   16.77750015   78.86969757    0.52999997    2.64000010
   16.78055573   78.73629761    0.52999997    2.64000010
   16.78388786   80.45709991    0.55000001    2.64000010
   16.78722191   77.45200348    0.55000001    2.64000010
   16.79027748   80.49960327    0.55000001    2.64000010
   16.79361153   78.93609619    0.52999997    2.64000010
   16.79666710   76.50379944    0.52999997    2.64000010
   16.80277634   76.50379944    0.52999997    2.64000010
   16.80694389   83.28459930    0.55000001    2.64000010
   16.81027794   82.49629974    0.55000001    2.64000010
   16.81333351   77.09310150    0.55000001    2.64000010
   16.81666756   79.00420380    0.55000001    2.64000010
   16.82000160   84.13580322    0.55000001    2.64000010
   16.82305717   88.03389740    0.55000001    2.64000010
   16.82638931   76.50669861    0.56999999    2.64000010
   16.82972336   83.90660095    0.55000001    2.64000010
   16.83277893   83.61329651    0.55000001    2.61999989
   16.83611107   82.86789703    0.55000001    2.61999989
   16.83916664   83.63430023    0.55000001    2.61999989
   16.83972359   80.78549957    0.55000001    2.64000010
   16.84583473   80.78549957    0.56999999    2.64000010
   16.84972191   77.67849731    0.56999999    2.64000010
   16.85305595   81.38089752    0.56999999    2.64000010
   16.85639000   83.77210236    0.55000001    2.64000010
   16.85944557   85.61769867    0.56999999    2.64000010
   16.86277771   87.10469818    0.55000001    2.61999989
   16.86611176   87.02159882    0.55000001    2.64000010
   16.86916733   84.32659912    0.52999997    2.64000010
   16.87249947   84.33760071    0.52999997    2.64000010
   16.87305641   84.63030243    0.52999997    2.64000010
   16.87611198   84.64959717    0.52999997    2.64000010
   16.87944412   85.70860291    0.55000001    2.64000010
   16.88249969   85.05590057    0.52999997    2.64000010
   16.88861084   85.05590057    0.55000001    2.64000010
   16.89277840   86.20529938    0.55000001    2.64000010
   16.89583397   81.08000183    0.52999997    2.64000010
   16.89916611   87.56240082    0.52999997    2.64000010
   16.90250015   90.59480286    0.52999997    2.64000010
   16.90555573   93.14749908    0.52999997    2.64000010
   16.90666580   85.49269867    0.52999997    2.64000010
   16.90916634   85.99600220    0.52999997    2.64000010
   16.91250038   87.55889893    0.55000001    2.64000010
   16.91555595   87.32830048    0.56999999    2.61999989
   16.91888809   90.92929840    0.56999999    2.61999989
   16.92222214   90.61270142    0.58999997    2.64000010
   16.92527771   88.93589783    0.58999997    2.64000010
   16.93138885   88.93589783    0.80000001    2.64000010
   16.93555450   98.42970276    0.86000001    2.64000010
   16.93888855   92.59850311    0.81999999    2.64000010
   16.93999863   88.66079712    0.80000001    2.64000010
   16.94249916   89.71399689    0.81999999    2.64000010
   16.94583321   82.81420135    0.86000001    2.61999989
   16.94888878   84.84899902    0.86000001    2.64000010
   16.95222282   97.38339996    0.73000002    2.64000010
   16.95555687   87.93589783    0.73000002    2.64000010
   16.95861244   88.51909637    0.70999998    2.64000010
   16.96194458   86.01319885    0.69000000    2.61999989
   16.96527863   86.02390289    0.69000000    2.64000010
   16.96833420   83.42569733    0.69000000    2.61999989
   16.97416687   83.42569733    0.61000001    2.64000010
   16.97833443   86.08080292    0.63000000    2.61999989
   16.98166656   87.56420135    0.63000000    2.61999989
   16.98472214   88.34999847    0.61000001    2.64000010
   16.98805618   87.80629730    0.61000001    2.64000010
   16.99138832   89.20729828    0.63000000    2.64000010
   16.99444389   93.34259796    0.64999998    2.61999989
   16.99777794   93.01889801    0.64999998    2.64000010
   17.00111198   92.53079987    0.63000000    2.64000010
   17.00416756   92.21510315    0.67000002    2.64000010
   17.00666618   82.54119873    0.67000002    2.61999989
   17.00777817   88.79370117    0.67000002    2.64000010
   17.01111031   88.70999908    0.69000000    2.64000010
   17.01722145   88.70999908    0.64999998    2.64000010
   17.02111053   97.13469696    0.67000002    2.61999989
   17.02444458   94.40429688    0.67000002    2.64000010
   17.02777672   84.82510376    0.67000002    2.64000010
   17.03083229   87.81379700    0.67000002    2.61999989
   17.03416634   79.56300354    0.61000001    2.64000010
   17.03750038   85.38809967    0.61000001    2.61999989
   17.03999901   91.24919891    0.61000001    2.61999989
   17.04083252   86.45030212    0.61000001    2.64000010
   17.04416656   92.01999664    0.61000001    2.64000010
   17.04749870   88.79820251    0.61000001    2.64000010
   17.05055428   85.81629944    0.63000000    2.64000010
   17.05388832   86.02850342    0.63000000    2.64000010
   17.05999947   86.02850342    0.63000000    2.64000010
   17.06416512   89.98650360    0.61000001    2.64000010
   17.06722260   89.50199890    0.61000001    2.64000010
   17.07055664   88.92859650    0.61000001    2.64000010
   17.07333374   92.46070099    0.61000001    2.64000010
   17.07416725   89.08249664    0.61000001    2.64000010
   17.07750130   91.50509644    0.61000001    2.64000010
   17.08055687   90.46700287    0.58999997    2.64000010
   17.08388901   81.64230347    0.58999997    2.64000010
   17.08722305   82.26969910    0.56999999    2.64000010
   17.09027863   84.22560120    0.56999999    2.64000010
   17.09361267   88.27459717    0.56999999    2.64000010
   17.09694481   87.13670349    0.55000001    2.61999989
   17.10277748   87.13670349    0.55000001    2.64000010
   17.10694504   82.79360199    0.55000001    2.64000010
   17.11027908   77.34210205    0.55000001    2.61999989
   17.11333466   84.58180237    0.56999999    2.64000010
   17.11666679   79.88020325    0.56999999    2.64000010
   17.11972237   77.89890289    0.56999999    2.61999989
   17.12305641   83.38549805    0.63000000    2.64000010
   17.12638855   82.87920380    0.63000000    2.64000010
   17.12944412   80.65270233    0.67000002    2.64000010
   17.13277817   79.15010071    0.67000002    2.64000010
   17.13611031   78.67030334    0.67000002    2.61999989
   17.13916588   83.46269989    0.76999998    2.64000010
   17.13999939   81.97630310    0.56999999    2.61999989
   17.14694405   81.97630310    0.55000001    2.64000010
   17.15111160   79.01959991    0.56999999    2.64000010
   17.15416718   76.32669830    0.56999999    2.64000010
   17.15749931   77.48880005    0.56999999    2.64000010
   17.16083336   81.89160156    0.56999999    2.64000010
   17.16388893   79.80220032    0.56999999    2.64000010
   17.16722107   81.90470123    0.56999999    2.64000010
   17.17027664   84.71450043    0.56999999    2.61999989
   17.17333221   83.36009979    0.56999999    2.64000010
   17.17388916   94.50289917    0.56999999    2.64000010
   17.17722130   82.71360016    0.56999999    2.61999989
   17.18055534   76.70939636    0.56999999    2.64000010
   17.18361092   76.57730103    0.56999999    2.64000010
   17.18861008   76.57730103    0.56999999    2.64000010
   17.19249916   78.04180145    0.58999997    2.64000010
   17.19583321   77.85990143    0.56999999    2.61999989
   17.19916534   77.20449829    0.58999997    2.64000010
   17.20222282   80.97419739    0.58999997    2.61999989
   17.20555687   84.20130157    0.58999997    2.61999989
   17.20666695   80.20580292    0.58999997    2.61999989
   17.20916748   79.78549957    0.58999997    2.64000010
   17.21250153   85.60070038    0.56999999    2.64000010
   17.21583366   82.94969940    0.56999999    2.61999989
   17.21888924   85.25199890    0.56999999    2.64000010
   17.22222328   83.94740295    0.55000001    2.64000010
   17.22527885   82.83409882    0.55000001    2.64000010
   17.23139000   82.83409882    0.55000001    2.61999989
   17.23555565   81.88320160    0.55000001    2.64000010
   17.23861122   77.37020111    0.52999997    2.64000010
   17.23999977   81.45379639    0.55000001    2.61999989
   17.24222183   78.43399811    0.55000001    2.64000010
   17.24555588   80.47720337    0.55000001    2.64000010
   17.24888992   78.15100098    0.55000001    2.61999989
   17.25194359   84.90529633    0.55000001    2.64000010
   17.25527763   80.25080109    0.55000001    2.64000010
   17.25861168   80.11380005    0.55000001    2.64000010
   17.26166725   77.09770203    0.55000001    2.64000010
   17.26499939   74.30400085    0.52999997    2.64000010
   17.26805496   77.39330292    0.55000001    2.64000010
   17.27416611   77.39330292    0.55000001    2.64000010
   17.27833366   78.00939941    0.55000001    2.64000010
   17.28166580   76.03589630    0.52999997    2.64000010
   17.28472137   84.56610107    0.51999998    2.64000010
   17.28805542   85.78569794    0.51999998    2.64000010
   17.29111099   85.90679932    0.51999998    2.64000010
   17.29444313   86.58640289    0.51999998    2.64000010
   17.29777718   87.37290192    0.51999998    2.64000010
   17.30083275   82.78260040    0.52999997    2.61999989
   17.30416679   83.92420197    0.51999998    2.64000010
   17.30666542   85.56449890    0.52999997    2.64000010
   17.30777740   87.19470215    0.51999998    2.64000010
   17.31110954   80.62539673    0.52999997    2.64000010
   17.31694603   80.62539673    0.51999998    2.61999989
   17.32111168   80.47859955    0.51999998    2.64000010
   17.32444572   80.21360016    0.51999998    2.64000010
   17.32750130   85.77749634    0.51999998    2.64000010
   17.33083344   80.68009949    0.51999998    2.61999989
   17.33416748   87.55249786    0.51999998    2.64000010
   17.33722305   84.70149994    0.51999998    2.64000010
   17.34000015   84.21980286    0.51999998    2.64000010
   17.34083366   77.48699951    0.51999998    2.61999989
   17.34416771   81.93569946    0.52999997    2.64000010
   17.34749985   80.53309631    0.51999998    2.61999989
   17.35055542   80.29730225    0.51999998    2.64000010
   17.35388947   79.94229889    0.51999998    2.64000010
   17.36000061   79.94229889    0.51999998    2.64000010
   17.36388969   86.19139862    0.51999998    2.64000010
   17.36722183   77.46659851    0.51999998    2.64000010
   17.37055588   80.35510254    0.51999998    2.64000010
   17.37333298   89.60009766    0.51999998    2.64000010
   17.37388992   81.52600098    0.51999998    2.64000010
   17.37722206   77.35359955    0.51999998    2.64000010
   17.38055611   81.36750031    0.52999997    2.64000010
   17.38361168   -1.00000000    0.52999997    2.64000010
   17.38694382   -1.00000000    0.51999998    2.64000010
   17.38999939   82.26660156    0.52999997    2.64000010
   17.39472198   79.81240082    0.55000001    2.61999989
   17.39805603   76.11560059    0.55000001    2.64000010
   17.40277672   76.11560059    0.55000001    2.64000010
   17.40694427   78.01760101    0.52999997    2.61999989
   17.40999985   78.70149994    0.56999999    2.61999989
   17.41333389   81.48239899    0.61000001    2.64000010
   17.41666603   76.79509735    0.56999999    2.64000010
   17.41972160   82.23490143    0.58999997    2.61999989
   17.42305565   75.62139893    0.55000001    2.61999989
   17.42611122   80.21649933    0.55000001    2.61999989
   17.42944336   76.23459625    0.55000001    2.64000010
   17.43277740   77.48560333    0.55000001    2.64000010
   17.43583298   76.96949768    0.55000001    2.61999989
   17.43916512   76.81439972    0.55000001    2.64000010
   17.43999863   78.82869720    0.56999999    2.61999989
   17.44555473   78.82869720    0.55000001    2.64000010
   17.44972038   76.96790314    0.55000001    2.61999989
   17.45277786   77.06430054    0.56999999    2.61999989
   17.45611191   77.34269714    0.56999999    2.61999989
   17.47361183   73.87409973    0.61000001    2.64000010
   17.47611237   74.49140167    0.61000001    2.64000010
   17.47944450   77.33080292    0.63000000    2.64000010
   17.48250008   81.77300262    0.63000000    2.61999989
   17.48861122   81.77300262    0.64999998    2.64000010
   17.49277878   75.58789825    0.64999998    2.64000010
   17.49583435   85.96340179    0.64999998    2.64000010
   17.49916649   76.75440216    0.67000002    2.64000010
   17.50250053   77.32039642    0.64999998    2.64000010
   17.50555611   80.24050140    0.67000002    2.64000010
   17.50694466   84.71679688    0.67000002    2.64000010
   17.50944519   85.26999664    0.63000000    2.61999989
   17.51250076   76.12470245    0.63000000    2.61999989
   17.51583290   85.83650208    0.58999997    2.64000010
   17.51916695   78.05190277    0.61000001    2.61999989
   17.52222252   76.55010223    0.61000001    2.61999989
   17.52555466   79.09140015    0.58999997    2.61999989
   17.53138924   79.09140015    0.58999997    2.64000010
   17.53555489   84.09349823    0.61000001    2.61999989
   17.53888893   78.62940216    0.61000001    2.64000010
   17.54027748   82.16380310    0.58999997    2.64000010
   17.54249954   84.63410187    0.58999997    2.64000010
   17.54555511   77.69159698    0.58999997    2.61999989
   17.54888916   82.94490051    0.58999997    2.64000010
   17.55222130   82.25080109    0.58999997    2.64000010
   17.55527687   82.73040009    0.58999997    2.61999989
   17.55861092   82.27050018    0.58999997    2.64000010
   17.56166649   82.81890106    0.58999997    2.64000010
   17.56499863   82.87390137    0.61000001    2.61999989
   17.56833458   77.65820313    0.61000001    2.61999989
   17.57416725   77.65820313    0.58999997    2.61999989
   17.57833481   81.72299957    0.61000001    2.61999989
   17.58166695   85.46730042    0.61000001    2.61999989
   17.58500099   79.51349640    0.58999997    2.64000010
   17.58805656   77.48349762    0.56999999    2.61999989
   17.59138870   80.23549652    0.58999997    2.61999989
   17.59472275   84.25710297    0.56999999    2.61999989
   17.59777832   83.69480133    0.56999999    2.61999989
   17.60111237   82.42829895    0.56999999    2.61999989
   17.60444450   77.65280151    0.58999997    2.64000010
   17.60694504   79.84149933    0.56999999    2.61999989
   17.60805511   75.25550079    0.56999999    2.61999989
   17.61111069   78.17440033    0.56999999    2.61999989
   17.61722183   78.17440033    0.58999997    2.61999989
   17.62138939   74.04850006    0.58999997    2.61999989
   17.62444496   85.54290009    0.58999997    2.61999989
   17.62777710   74.21160126    0.58999997    2.61999989
   17.63083267   78.68009949    0.61000001    2.61999989
   17.63416672   75.45269775    0.63000000    2.61999989
   17.63750076   75.90010071    0.63000000    2.61999989
   17.64027786   76.41249847    0.61000001    2.61999989
   17.64111137   75.87220001    0.61000001    2.61999989
   17.64416695   77.97979736    0.61000001    2.61999989
   17.64749908   77.32510376    0.63000000    2.61999989
   17.65083313   81.39260101    0.61000001    2.61999989
   17.65388870   77.89649963    0.61000001    2.61999989
   17.65999985   77.89649963    0.61000001    2.61999989
   17.66416550   76.99639893    0.61000001    2.61999989
   17.66722107   78.68489838    0.61000001    2.61999989
   17.67055511   76.40090179    0.63000000    2.61999989
   17.67361069   74.86959839    0.63000000    2.61999989
   17.67416573   79.55229950    0.63000000    2.61999989
   17.67722130   79.17449951    0.63000000    2.61999989
   17.68055534   77.01670074    0.63000000    2.61999989
   17.68388748   74.15979767    0.63000000    2.61999989
   17.68722153   76.10359955    0.63000000    2.61999989
   17.69055557   75.57209778    0.63000000    2.61999989
   17.69361115   73.03479767    0.63000000    2.61999989
   17.69694328   76.84989929    0.63000000    2.61999989
   17.70277786   76.84989929    0.63000000    2.61999989
   17.70694542   75.67900085    0.63000000    2.61999989
   17.71027946   76.92130280    0.63000000    2.61999989
   17.71333504   79.37349701    0.63000000    2.64000010
   17.71666718   75.88500214    0.64999998    2.61999989
   17.72000122   80.22760010    0.69000000    2.61999989
   17.72305679   73.95230103    0.70999998    2.61999989
   17.72638893   77.36360168    0.73000002    2.61999989
   17.72944450   76.78659821    0.75000000    2.61999989
   17.73277855   78.04239655    0.76999998    2.61999989
   17.73611069   78.75489807    0.76999998    2.64000010
   17.73916626   81.33399963    0.76999998    2.61999989
   17.74027824   85.34010315    0.76999998    2.61999989
   17.74555588   85.34010315    0.75000000    2.61999989
   17.74972153   80.94999695    0.75000000    2.61999989
   17.75305557   75.91269684    0.76999998    2.61999989
   17.75638962   87.76190186    0.79000002    2.61999989
   17.75944519   86.94219971    0.81999999    2.61999989
   17.76277733   74.91709900    0.83999997    2.61999989
   17.76583290   83.27079773    0.92000002    2.61999989
   17.76916695   84.70300293    1.01999998    2.61999989
   17.77249908   79.49829865    1.07000005    2.64000010
   17.77361107   95.32969666    0.92000002    2.61999989
   17.77611160   80.32460022    3.61999989    2.64000010
   17.77916718   92.07910156    4.90999985    2.64000010
   17.78249931   76.59339905    4.90999985    2.64000010
   17.78861046   76.59339905    0.92000002    2.61999989
   17.79277802   84.57700348    0.88000000    2.59999990
   17.79583359   83.70259857    0.88000000    2.61999989
   17.79916573  102.65100098    0.88000000    2.61999989
   17.80222130   81.94779968    0.89999998    2.61999989
   17.80555534   81.64170074    0.86000001    2.61999989
   17.80694389   79.65889740    0.86000001    2.61999989
   17.80916595   81.02880096    0.86000001    2.64000010
   17.81222153   78.99210358    0.83999997    2.61999989
   17.81555557   87.82270050    0.83999997    2.59999990
   17.81888962   79.67310333    0.88000000    2.61999989
   17.82194519   88.88520050    0.89999998    2.59999990
   17.82527924   82.87789917    0.89999998    2.61999989
   17.83139038   82.87789917    1.00000000    2.61999989
   17.83555603   87.50170135    1.03999996    2.61999989
   17.83861160   84.67839813    1.01999998    2.61999989
   17.84027863   87.83029938    0.98000002    2.61999989
   17.84250069   83.03309631    0.95999998    2.61999989
   17.84583473   94.03150177    0.95999998    2.61999989
   17.84889030   87.36409760    0.94000000    2.61999989
   17.85222244   80.14289856    0.92000002    2.59999990
   17.85527802   86.22170258    0.92000002    2.61999989
   17.85861206   82.24400330    0.86000001    2.61999989
   17.86194420   85.05599976    0.83999997    2.61999989
   17.86499977   86.85240173    0.83999997    2.61999989
   17.86833382   81.14170074    0.83999997    2.61999989
   17.87416649   81.14170074    0.81999999    2.61999989
   17.87833405   82.55480194    0.76999998    2.61999989
   17.88166618   79.86859894    0.79000002    2.61999989
   17.88472176   86.90899658    0.79000002    2.61999989
   17.88805580   76.21549988    0.76999998    2.61999989
   17.89138794   89.54429626    0.76999998    2.61999989
   17.89444351   94.66410065    0.76999998    2.61999989
   17.89777756   87.00409698    0.79000002    2.61999989
   17.90083313   81.44360352    0.79000002    2.61999989
   17.90416718   82.05460358    0.79000002    2.61999989
   17.90694427   86.73139954    0.76999998    2.61999989
   17.90777779   81.21459961    0.76999998    2.61999989
   17.91083336   79.85469818    0.75000000    2.59999990
   17.91694450   79.85469818    0.73000002    2.61999989
   17.92111015   77.59220123    0.70999998    2.61999989
   17.92444420   76.93109894    0.73000002    2.61999989
   17.92749977   85.32540131    0.73000002    2.61999989
   17.93083191   78.23429871    0.70999998    2.59999990
   17.93416595   77.06349945    0.70999998    2.61999989
   17.93722153   78.27059937    0.70999998    2.61999989
   17.94027710   78.04049683    0.70999998    2.59999990
   17.94111061   78.88439941    0.70999998    2.59999990
   17.94416618   80.12010193    0.70999998    2.61999989
   17.94749832   81.74539948    0.76999998    2.61999989
   17.95083427   82.46080017    0.76999998    2.59999990
   17.95388985   77.28579712    0.83999997    2.59999990
   17.96000099   77.28579712    0.89999998    2.59999990
   17.96416664   83.00700378    0.92000002    2.59999990
   17.96722221   75.93440247    0.92000002    2.59999990
   17.97055626   83.11370087    0.92000002    2.59999990
   17.97361183   91.33540344    0.92000002    2.59999990
   17.97416687   76.25209808    0.88000000    2.59999990
   17.97722244   80.30059814    0.88000000    2.59999990
   17.98055649   82.15129852    0.88000000    2.59999990
   17.98388863   81.45149994    0.83999997    2.59999990
   17.98694420   73.00129700    0.81999999    2.59999990
   17.99027824   73.58270264    0.92000002    2.59999990
   17.99361229   82.64019775    0.92000002    2.61999989
   17.99666786   85.01689911    0.92000002    2.61999989
   18.00277710   85.01689911    0.94000000    2.59999990
   18.00694466   86.65740204    1.01999998    2.59999990
   18.00749969   86.29489899    1.03999996    2.59999990
   18.01055527   77.49449921    1.03999996    2.59999990
   18.01388931   87.92819977    1.05999994    2.59999990
   18.01694489   82.83190155    1.09000003    2.59999990
   18.02027702   81.54779816    1.09000003    2.59999990
   18.02361107   87.20020294    1.11000001    2.59999990
   18.02666664   84.24890137    1.09000003    2.59999990
   18.03000069   87.25070190    1.09000003    2.59999990
   18.03333282   71.87059784    1.09000003    2.59999990
   18.03638840   91.50340271    1.13000000    2.61999989
   18.03972244   83.09529877    1.11000001    2.59999990
   18.04083252   82.44580078    1.11000001    2.59999990
   18.04555511   82.44580078    1.13000000    2.59999990
   18.04972076   87.05130005    1.14999998    2.61999989
   18.05305481   81.55460358    1.14999998    2.61999989
   18.05611038   79.55770111    1.16999996    2.59999990
   18.05944443   93.89369965    1.30999994    2.59999990
   18.06250000   88.94490051    1.44000006    2.59999990
   18.06583214   82.24189758    1.55999994    2.59999990
   18.06916809   89.21250153    1.61000001    2.59999990
   18.07222366   77.51779938    1.61000001    2.59999990
   18.07416725   75.42980194    1.63000000    2.59999990
   18.07583427   84.76869965    1.63000000    2.59999990
   18.07916832   78.21369934    1.61000001    2.59999990
   18.08250046   76.91680145    1.51999998    2.59999990
   18.08833313   76.91680145    1.26999998    2.59999990
   18.09250069   85.00340271    1.19000006    2.57999992
   18.09583473   78.82879639    1.14999998    2.59999990
   18.09916687   75.21219635    1.05999994    2.59999990
   18.10222244   85.16639709    1.05999994    2.59999990
   18.10555649   75.35900116    0.98000002    2.59999990
   18.10750008   78.34490204    0.94000000    2.59999990
   18.10916710   86.92479706    0.94000000    2.59999990
   18.11250114   76.09649658    0.94000000    2.59999990
   18.11583328   81.89900208    0.95999998    2.59999990
   18.11888885   81.06580353    0.94000000    2.59999990
   18.12222290   80.60060120    0.92000002    2.59999990
   18.12527847   76.54750061    0.89999998    2.59999990
   18.13138962   76.54750061    0.89999998    2.59999990
   18.13527679   81.16369629    0.88000000    2.59999990
   18.13861084   82.60119629    0.88000000    2.59999990
   18.14083290   81.76799774    0.86000001    2.59999990
   18.14222145   73.42819977    0.86000001    2.59999990
   18.14555550   77.62840271    0.83999997    2.59999990
   18.14888954   78.77549744    0.81999999    2.59999990
   18.15194321   74.24800110    0.81999999    2.59999990
   18.15527725   74.57469940    0.81999999    2.59999990
   18.15833282   77.16400146    0.81999999    2.59999990
   18.16166687   73.44819641    0.81999999    2.59999990
   18.16499901   75.85949707    0.83999997    2.59999990
   18.16805458   82.34880066    0.81999999    2.59999990
   18.17416573   82.34880066    0.83999997    2.59999990
   18.17833328   78.75620270    0.81999999    2.59999990
   18.18138885   79.36519623    0.94000000    2.59999990
   18.18472099   78.11569977    0.94000000    2.59999990
   18.18805504   84.27179718    0.94000000    2.59999990
   18.19111061   74.94889832    0.95999998    2.59999990
   18.19444275   80.49569702    0.98000002    2.59999990
   18.19749832   79.38659668    1.00000000    2.59999990
   18.20083427   78.80000305    1.01999998    2.59999990
   18.20416832   83.33010101    1.01999998    2.57999992
   18.20722389   79.83699799    1.01999998    2.59999990
   18.20777893   77.30609894    1.01999998    2.59999990
   18.21111107   72.63719940    1.01999998    2.59999990
   18.21694565   72.63719940    1.01999998    2.59999990
   18.22111130   80.26509857    1.01999998    2.59999990
   18.22444534   82.76660156    1.00000000    2.59999990
   18.22750092   80.64089966    0.95999998    2.59999990
   18.23083305   77.46949768    0.94000000    2.59999990
   18.23416710   85.71910095    0.89999998    2.59999990
   18.23722267   78.11710358    0.89999998    2.59999990
   18.24055672   84.73490143    0.89999998    2.59999990
   18.24111176   90.46779633    0.89999998    2.59999990
   18.24416733   83.25360107    0.89999998    2.59999990
   18.24749947   82.80840302    0.88000000    2.57999992
   18.25055504   89.17340088    0.88000000    2.59999990
   18.25388908   82.58979797    0.88000000    2.59999990
   18.25972176   82.58979797    0.89999998    2.57999992
   18.26388931   80.74469757    0.88000000    2.59999990
   18.26722145   77.71399689    0.88000000    2.59999990
   18.27027702   79.83930206    0.88000000    2.59999990
   18.27361107   73.40570068    0.88000000    2.59999990
   18.27444458   74.98770142    0.88000000    2.59999990
   18.27722168   76.81829834    0.89999998    2.59999990
   18.28055573   83.18280029    0.92000002    2.59999990
   18.28361130   80.50499725    0.89999998    2.59999990
   18.28694344   81.09739685    0.88000000    2.59999990
   18.28999901   80.02690125    0.88000000    2.61999989
   18.29333305   81.71219635    0.88000000    2.61999989
   18.29666710   76.04340363    0.94000000    2.61999989
   18.30277634   76.04340363    4.90999985    2.66000009
   18.30666542   77.72810364    4.90999985    1.26999998
   18.30777740   77.06909943    4.90999985    1.96000004
   18.31055450   80.70520020    4.90999985    2.71000004
   18.31388855   77.64880371    4.90999985    2.69000006
   18.31694603   79.28890228    4.90999985    2.66000009
   18.32027817   84.49469757    4.90999985    2.61999989
   18.32333374   79.10679626    2.51999998    2.61999989
   18.32666779   77.92179871    4.90999985    2.61999989
   18.33000183   86.14550018    4.90999985    2.66000009
   18.33305550   -1.00000000    4.90999985    1.55999994
   18.33638954   94.14689636    4.90999985    0.88000000
   18.33944511   -1.00000000    4.90999985    0.86000001
   18.34555626   -1.00000000    4.90999985    2.03999996
   18.34972191   78.17230225    4.90999985    2.64000010
   18.35277748   78.98870087    1.94000006    2.61999989
   18.35611153   79.34390259    1.58000004    2.59999990
   18.35944557   78.41819763    1.63000000    2.59999990
   18.36250114   74.53639984    3.76999998    2.55999994
   18.36583328   85.02179718    4.63999987    2.59999990
   18.36916733   80.55870056    4.90999985    1.58000004
   18.37222290  131.26899719    4.90999985    2.50000000
   18.37444496   94.43930054    4.90999985    1.76999998
   18.37583351   90.34140015    4.90999985    1.76999998
   18.37916756   77.17819977    4.90999985    2.64000010
   18.38222313   78.41130066    4.90999985    2.64000010
   18.38833237   78.41130066    1.80999994    2.59999990
   18.39249992   77.42259979    1.26999998    2.57999992
   18.39583397   86.27510071    1.28999996    2.57999992
   18.39888954   79.04660034    1.26999998    2.57999992
   18.40222168   80.65260315    1.25000000    2.57999992
   18.40527725   86.68710327    1.23000002    2.55999994
   18.40777779   94.15930176    1.25000000    2.57999992
   18.40916634   85.61450195    1.25000000    2.55999994
   18.41250038   86.29879761    1.25000000    2.55999994
   18.41555595   83.21019745    1.25000000    2.55999994
   18.41888809   80.20230103    1.25000000    2.57999992
   18.42194366   90.33129883    1.28999996    2.55999994
   18.42527771   83.64109802    1.33000004    2.57999992
   18.43111038   83.64109802    1.34000003    2.57999992
   18.43527603   89.67289734    1.41999996    2.57999992
   18.43861008   96.35340118    1.38000000    2.55999994
   18.44111061   79.38719940    1.38000000    2.55999994
   18.44222069   78.34169769    1.38000000    2.55999994
   18.44555473   80.05229950    1.55999994    2.57999992
   18.44861031   84.73339844    1.63000000    2.55999994
   18.45194435   76.01679993    1.64999998    2.55999994
   18.45499992   85.04090118    1.64999998    2.55999994
   18.45833397   81.78849792    1.73000002    2.55999994
   18.46166801   84.23889923    1.73000002    2.55999994
   18.46472359   87.21469879    1.64999998    2.55999994
   18.46805573   82.86250305    1.55999994    2.55999994
   18.47389030   82.86250305    1.28999996    2.55999994
   18.49250031   82.20290375    1.25000000    2.55999994
   18.49555588   81.81120300    1.25000000    2.55999994
   18.49888992   80.20500183    1.25000000    2.55999994
   18.50222206   88.69909668    1.28999996    2.55999994
   18.50527763   74.98249817    1.28999996    2.57999992
   18.50861168   84.88480377    1.28999996    2.57999992
   18.51166725   83.84300232    1.28999996    2.55999994
   18.51722145   83.84300232    1.28999996    2.57999992
   18.52138901   85.98079681    1.28999996    2.55999994
   18.52444458   79.42500305    1.38000000    2.55999994
   18.52555466   78.81620026    1.38000000    2.55999994
   18.52805519   81.14260101    1.48000002    2.55999994
   18.53138924   78.38189697    1.48000002    2.55999994
   18.53472137   77.74530029    1.50000000    2.55999994
   18.53777695   81.55349731    1.51999998    2.55999994
   18.54111099   81.83180237    1.51999998    2.55999994
   18.54444313   86.05529785    1.55999994    2.55999994
   18.54749870   84.51119995    1.60000002    2.55999994
   18.55083275   80.79620361    1.63000000    2.55999994
   18.55416679   85.91519928    1.64999998    2.55999994
   18.55999947   85.91519928    1.66999996    2.55999994
   18.56416512   84.36180115    1.71000004    2.55999994
   18.56722260   76.82730103    1.83000004    2.55999994
   18.57055664   76.83550262    1.86000001    2.55999994
   18.57389069   81.07029724    1.86000001    2.55999994
   18.57694626   80.22239685    1.86000001    2.55999994
   18.58027840   76.29350281    1.96000004    2.55999994
   18.58333397   78.38030243    1.96000004    2.55999994
   18.58666801   88.14949799    1.96000004    2.55999994
   18.59000015   77.03089905    1.96000004    2.55999994
   18.59222221   82.03690338    1.89999998    2.55999994
   18.59361267   82.24880219    1.89999998    2.55999994
   18.59694481   80.13529968    1.78999996    2.55999994
   18.60277748   80.13529968    1.66999996    2.55999994
   18.60694504   82.51660156    1.61000001    2.55999994
   18.61027908   77.37899780    1.61000001    2.55999994
   18.61333466   76.02960205    1.60000002    2.55999994
   18.61666679   74.40529633    1.55999994    2.55999994
   18.62000084   74.48229980    1.55999994    2.55999994
   18.62305641   79.03959656    1.50000000    2.53999996
   18.62555504   77.67400360    1.46000004    2.55999994
   18.62666702   75.52459717    1.46000004    2.55999994
   18.63000107   78.38230133    1.41999996    2.55999994
   18.63333321   78.77870178    1.44000006    2.55999994
   18.63638878   75.96739960    1.50000000    2.53999996
   18.63972282   79.55660248    1.55999994    2.55999994
   18.64555550   79.55660248    1.78999996    2.53999996
   18.64972115   78.90529633    1.78999996    2.55999994
   18.65305519   80.20790100    1.78999996    2.55999994
   18.65638924   87.56400299    1.96000004    2.55999994
   18.65888786   87.02610016    1.94000006    2.53999996
   18.65972137   90.42829895    1.96000004    2.53999996
   18.66305542   78.79350281    1.94000006    2.53999996
   18.66638756   79.86589813    1.91999996    2.53999996
   18.66944313   83.92919922    1.91999996    2.53999996
   18.67277718   79.99400330    1.89999998    2.53999996
   18.67583275   78.53959656    1.89999998    2.53999996
   18.67916679   80.42970276    1.89999998    2.55999994
   18.68249893   75.96410370    1.89999998    2.55999994
   18.68861008   75.96410370    1.91999996    2.53999996
   18.69249916   78.58049774    1.94000006    2.55999994
   18.69583321   80.52639771    1.94000006    2.53999996
   18.69916534   78.76809692    2.11999989    2.53999996
   18.70222282   80.06089783    2.15000010    2.53999996
   18.70555687   83.89720154    2.23000002    2.53999996
   18.70888901   78.32630157    2.26999998    2.55999994
   18.71194458   76.38469696    2.26999998    2.53999996
   18.71527863   79.35870361    2.25000000    2.53999996
   18.71833420   75.87719727    2.17000008    2.53999996
   18.72166634   77.93370056    2.09999990    2.53999996
   18.72500038   79.22429657    2.01999998    2.53999996
   18.72555542   74.14949799    2.01999998    2.53999996
   18.73139000   74.14949799    1.89999998    2.53999996
   18.73555565   82.71099854    1.83000004    2.55999994
   18.73861122   82.78500366    1.83000004    2.55999994
   18.74194527   83.64499664    1.85000002    2.55999994
   18.74500084   73.92680359    1.75000000    2.53999996
   18.74833298   78.12249756    1.75000000    2.53999996
   18.75166702   86.74430084    1.64999998    2.53999996
   18.75472260   83.36519623    1.64999998    2.53999996
   18.75805473   85.55539703    1.63000000    2.55999994
   18.75888824   78.06809998    1.63000000    2.55999994
   18.76166725   78.50229645    1.60000002    2.53999996
   18.76499939   77.40519714    1.58000004    2.53999996
   18.76833344   85.68070221    1.60000002    2.55999994
   18.77416611   85.68070221    1.50000000    2.53999996
   18.77833366   79.07800293    1.48000002    2.55999994
   18.78166580   84.50119781    1.48000002    2.55999994
   18.78472137   80.36080170    1.44000006    2.55999994
   18.78805542   80.72940063    1.44000006    2.53999996
   18.79111099   79.06320190    1.39999998    2.53999996
   18.79222107   77.07849884    1.39999998    2.53999996
   18.79472160   82.76570129    1.39999998    2.53999996
   18.79805565   77.43049622    1.44000006    2.53999996
   18.80138779   77.49819946    1.51999998    2.53999996
   18.80444336   79.49289703    1.51999998    2.53999996
   18.80777740   86.43029785    1.51999998    2.53999996
   18.81083298   76.93209839    1.53999996    2.53999996
   18.81694603   76.93209839    1.53999996    2.55999994
   18.82111168   80.44219971    1.50000000    2.53999996
   18.82444572   77.28340149    1.48000002    2.53999996
   18.82555580   82.30670166    1.48000002    2.53999996
   18.82777786   76.12570190    1.50000000    2.53999996
   18.83111191   74.24929810    1.53999996    2.53999996
   18.83444595   73.41960144    1.53999996    2.53999996
   18.83750153   76.31980133    1.53999996    2.53999996
   18.84083366   75.21549988    1.58000004    2.53999996
   18.84388924   74.28910065    1.63000000    2.53999996
   18.84722328   76.29730225    1.69000006    2.53999996
   18.85055542   78.25520325    1.75000000    2.53999996
   18.85361099   77.64730072    1.80999994    2.53999996
   18.86000061   77.64730072    1.86000001    2.51999998
   18.86388969   73.93199921    1.86000001    2.53999996
   18.86722183   76.89019775    1.86000001    2.51999998
   18.87055588   74.94139862    1.96000004    2.51999998
   18.87361145   79.66320038    1.96000004    2.51999998
   18.87694550   79.51629639    2.01999998    2.53999996
   18.88027763   79.19200134    2.05999994    2.51999998
   18.88333321   80.00659943    2.03999996    2.51999998
   18.88666725   81.16850281    2.01999998    2.53999996
   18.88972282   76.33080292    2.01999998    2.51999998
   18.89222145   76.85520172    2.01999998    2.51999998
   18.89333344   74.75890350    2.01999998    2.53999996
   18.89666748   75.41439819    2.00000000    2.51999998
   18.90277672   75.41439819    2.00000000    2.51999998
   18.90694427   79.18550110    2.00000000    2.51999998
   18.91055489   74.44280243    2.00000000    2.53999996
   18.91361046   75.44259644    2.00000000    2.53999996
   18.91694450   79.82060242    1.98000002    2.53999996
   18.92027664   75.54540253    1.98000002    2.51999998
   18.92333221   80.97540283    1.98000002    2.51999998
   18.92555428   79.20369720    1.98000002    2.51999998
   18.92722130   77.02079773    1.96000004    2.51999998
   18.93027687   84.65630341    1.98000002    2.51999998
   18.93361092   77.20909882    1.96000004    2.51999998
   18.93666649   79.06310272    1.96000004    2.53999996
   18.93999863   75.79049683    1.96000004    2.51999998
   18.94555473   75.79049683    1.96000004    2.51999998
   18.94972038   75.10549927    2.01999998    2.51999998
   18.95305634   76.82250214    1.98000002    2.51999998
   18.95611191   75.02300262    1.98000002    2.51999998
   18.95916748   76.89240265    1.96000004    2.51999998
   18.96000099   77.04149628    1.96000004    2.51999998
   18.96333504   78.44470215    1.91999996    2.51999998
   18.96666718   77.41380310    1.89999998    2.51999998
   18.96972275   78.76799774    1.94000006    2.51999998
   18.97305679   77.09819794    1.96000004    2.51999998
   18.97611237   76.50260162    1.96000004    2.50000000
   18.97944450   78.33529663    1.96000004    2.51999998
   18.98277855   78.40239716    1.96000004    2.51999998
   18.98833275   78.40239716    1.83000004    2.50000000
   18.99250031   79.11540222    1.80999994    2.51999998
   18.99583435   79.04940033    1.80999994    2.51999998
   18.99888992   82.78739929    1.80999994    2.51999998
   19.00222206   78.54900360    1.80999994    2.51999998
   19.00555611   77.39050293    1.78999996    2.51999998
   19.00861168   80.87650299    1.78999996    2.51999998
   19.01194382   81.28869629    1.76999998    2.51999998
   19.01527786   80.74130249    1.75000000    2.50000000
   19.01833344   76.71279907    1.71000004    2.50000000
   19.02166557   75.89939880    1.64999998    2.51999998
   19.02472115   80.46990204    1.64999998    2.51999998
   19.02555466   81.30280304    1.64999998    2.51999998
   19.03138924   81.30280304    1.48000002    2.51999998
   19.03527641   80.07279968    1.48000002    2.51999998
   19.03861046   80.99490356    1.48000002    2.50000000
   19.04194450   73.98159790    1.46000004    2.50000000
   19.04500008   80.84329987    1.48000002    2.50000000
   19.04833221   78.56739807    1.44000006    2.50000000
   19.05166626   78.74099731    1.41999996    2.51999998
   19.05472183   77.70339966    1.46000004    2.51999998
   19.05805397   83.95290375    1.48000002    2.51999998
   19.05888748   77.83709717    1.50000000    2.51999998
   19.06166649   75.16760254    1.51999998    2.50000000
   19.06472206   75.74269867    1.53999996    2.50000000
   19.06805611   80.19010162    1.55999994    2.50000000
   19.07416725   80.19010162    1.58000004    2.50000000
   19.07833481   80.10459900    1.58000004    2.50000000
   19.08139038   77.50550079    1.55999994    2.51999998
   19.08472252   76.27600098    1.55999994    2.51999998
   19.08777809   81.00969696    1.58000004    2.50000000
   19.09111214   75.49900055    1.61000001    2.50000000
   19.09222221   75.76049805    1.61000001    2.50000000
   19.09500122   77.11360168    1.60000002    2.50000000
   19.09805679   81.15920258    1.58000004    2.50000000
   19.10138893   76.46450043    1.58000004    2.50000000
   19.10444450   80.82859802    1.58000004    2.51999998
   19.10777855   82.29329681    1.60000002    2.50000000
   19.11111069   77.76699829    1.66999996    2.50000000
   19.11694527   77.76699829    1.66999996    2.50000000
   19.12111092   78.92970276    1.66999996    2.50000000
   19.12416649   87.62149811    1.78999996    2.50000000
   19.12555504   75.46420288    1.78999996    2.50000000
   19.12805557   74.08989716    1.80999994    2.50000000
   19.13111115   76.27980042    1.83000004    2.48000002
   19.13444519   78.38939667    1.83000004    2.50000000
   19.13777733   75.37889862    1.80999994    2.50000000
   19.14083290   76.18029785    1.78999996    2.50000000
   19.14416695   81.60579681    1.76999998    2.50000000
   19.14749908   79.87359619    1.76999998    2.50000000
   19.15055466   77.57180023    1.76999998    2.50000000
   19.15388870   75.14430237    1.75000000    2.50000000
   19.15972137   75.14430237    1.66999996    2.50000000
   19.16388893   80.26820374    1.64999998    2.50000000
   19.16722107   74.35880280    1.63000000    2.50000000
   19.17027664   75.59439850    1.63000000    2.50000000
   19.17361069   75.54669952    1.64999998    2.50000000
   19.17694473   80.61930084    1.64999998    2.50000000
   19.18000031   77.72769928    1.66999996    2.50000000
   19.18333244   78.60659790    1.69000006    2.50000000
   19.18638802   77.59539795    1.71000004    2.50000000
   19.18972206   76.86869812    1.69000006    2.50000000
   19.19222069   77.86289978    1.69000006    2.50000000
   19.19361115   78.05419922    1.66999996    2.48000002
   19.19666672   78.53130341    1.69000006    2.48000002
   19.20277786   78.53130341    1.66999996    2.48000002
   19.20666695   75.62310028    1.64999998    2.48000002
   19.21000099   76.75000000    1.64999998    2.48000002
   19.21333504   79.07050323    1.66999996    2.48000002
   19.21638870   79.68920135    1.66999996    2.50000000
   19.21972275   78.50769806    1.71000004    2.48000002
   19.22305679   82.12490082    1.73000002    2.48000002
   19.22555542   78.84989929    1.73000002    2.48000002
   19.22666740   77.95909882    1.75000000    2.50000000
   19.22972298   76.74849701    1.78999996    2.48000002
   19.23305511   81.31320190    1.78999996    2.48000002
   19.23638916   77.27919769    1.78999996    2.48000002
   19.23944473   76.84040070    1.80999994    2.50000000
   19.24555588   76.84040070    1.80999994    2.48000002
   19.24972153   79.29979706    1.83000004    2.48000002
   19.25277710   75.60179901    1.83000004    2.48000002
   19.25611115   77.26049805    1.64999998    2.48000002
   19.25888824   75.11720276    1.66999996    2.48000002
   19.25972176   75.80850220    1.66999996    2.48000002
   19.26277733   78.16380310    1.66999996    2.48000002
   19.26611137   74.55120087    1.64999998    2.48000002
   19.26944351   77.42539978    1.64999998    2.50000000
   19.27249908   78.55180359    1.63000000    2.48000002
   19.27583313   77.62259674    1.63000000    2.48000002
   19.27888870   77.69180298    1.63000000    2.48000002
   19.28222275   79.43070221    1.61000001    2.48000002
   19.28833199   79.43070221    1.63000000    2.48000002
   19.29249954   78.08020020    1.69000006    2.48000002
   19.29555511   77.32350159    1.69000006    2.48000002
   19.29888916   81.38690186    1.71000004    2.48000002
   19.30222130   77.86070251    1.71000004    2.48000002
   19.30527687   78.95189667    1.71000004    2.48000002
   19.30861092   74.40720367    1.73000002    2.48000002
   19.31194305   75.44840240    1.73000002    2.48000002
   19.31499863   76.53340149    1.73000002    2.48000002
   19.31833458   74.14869690    1.73000002    2.48000002
   19.32166672   78.55609894    1.71000004    2.48000002
   19.32472229   75.93540192    1.66999996    2.46000004
   19.32555580   82.02089691    1.69000006    2.48000002
   19.33111191   82.02089691    1.66999996    2.48000002
   19.33527756   75.34850311    1.66999996    2.48000002
   19.33861160   75.79579926    1.66999996    2.48000002
   19.34166718   75.30529785    1.66999996    2.46000004
   19.34500122   78.49169922    1.66999996    2.46000004
   19.34833336   75.62830353    1.64999998    2.46000004
   19.35138893   77.88569641    1.66999996    2.46000004
   19.35472298   78.55000305    1.63000000    2.46000004
   19.35777855   78.31929779    1.61000001    2.48000002
   19.35888863   83.30349731    1.61000001    2.48000002
   19.36166763   82.10459900    1.58000004    2.46000004
   19.36472321   80.28780365    1.58000004    2.46000004
   19.36805534   79.16790009    1.55999994    2.48000002
   19.37388992   79.16790009    1.48000002    2.46000004
   19.37805557   77.11419678    1.53999996    2.46000004
   19.38138962   79.38760376    1.53999996    2.46000004
   19.38472176   84.53109741    1.53999996    2.46000004
   19.38777733   78.34359741    1.53999996    2.46000004
   19.39111137   76.39189911    1.64999998    2.48000002
   19.39222145   82.86650085    1.64999998    2.48000002
   19.39472198   86.71980286    1.71000004    2.46000004
   19.39777756   81.77269745    1.69000006    2.46000004
   19.40111160   78.61650085    1.66999996    2.46000004
   19.40444374   85.56970215    1.69000006    2.46000004
   19.40749931   80.09780121    1.75000000    2.46000004
   19.41083336   79.02349854    1.75000000    2.46000004
   19.41694450   79.02349854    1.75000000    2.46000004
   19.42111015   81.44380188    1.75000000    2.46000004
   19.42416573   79.15039825    1.76999998    2.46000004
   19.42555428   76.75540161    1.75000000    2.48000002
   19.42777634   82.66179657    1.75000000    2.48000002
   19.43083191   84.84390259    1.75000000    2.46000004
   19.43416595   75.38510132    1.76999998    2.46000004
   19.43750000   81.75890350    1.83000004    2.46000004
   19.44055557   81.29309845    1.85000002    2.46000004
   19.44388771   84.21040344    1.83000004    2.46000004
   19.44722176   79.30220032    1.83000004    2.46000004
   19.45027924   77.43959808    1.83000004    2.46000004
   19.45361137   86.90440369    1.80999994    2.46000004
   19.45972252   86.90440369    1.75000000    2.44000006
   19.46389008   75.78199768    1.75000000    2.46000004
   19.46722221   81.96379852    1.75000000    2.46000004
   19.47027779   80.01319885    1.85000002    2.44000006
   19.47361183   83.99269867    1.86000001    2.44000006
   19.47666740   83.79470062    1.85000002    2.44000006
   19.48000145   80.09570313    1.85000002    2.46000004
   19.48333359   80.92430115    1.83000004    2.46000004
   19.48638916   76.73829651    1.83000004    2.46000004
   19.48972321   78.73179626    1.80999994    2.46000004
   19.49222183   84.66750336    1.78999996    2.44000006
   19.51305580   84.66750336    1.83000004    2.44000006
   19.51722145   79.72530365    1.76999998    2.44000006
   19.52027702   77.55899811    1.76999998    2.44000006
   19.52361107   83.61270142    1.76999998    2.44000006
   19.52555466   80.39399719    1.71000004    2.44000006
   19.52722168   78.20110321    1.51999998    2.44000006
   19.53027725   80.26249695    1.48000002    2.44000006
   19.53361130   80.86260223    1.46000004    2.44000006
   19.53694344   79.38040161    1.41999996    2.44000006
   19.53999901   77.71309662    1.41999996    2.44000006
   19.54333305   79.11889648    1.41999996    2.44000006
   19.54666710   76.24199677    1.41999996    2.44000006
   19.54972076   78.05069733    1.44000006    2.44000006
   19.55583191   78.05069733    1.60000002    2.44000006
   19.55972099   79.61450195    1.60000002    2.46000004
   19.56305504   80.15570068    1.61000001    2.44000006
   19.56638718   77.46309662    1.61000001    2.44000006
   19.56944466   78.66249847    1.63000000    2.44000006
   19.57277870   77.03990173    1.61000001    2.44000006
   19.57583427   77.23069763    1.61000001    2.44000006
   19.57916832   79.80139923    1.76999998    2.42000008
   19.58250046   77.35369873    1.78999996    2.42000008
   19.58583450   82.62190247    1.78999996    2.42000008
   19.58916664   79.19560242    1.78999996    2.42000008
   19.59222221   82.26770020    1.83000004    2.42000008
   19.59277916   81.52020264    1.83000004    2.42000008
   19.59861183   81.52020264    1.88000000    2.40000010
   19.60250092   77.19670105    1.91999996    2.42000008
   19.60583305   75.30770111    1.91999996    2.42000008
   19.60916710   76.60279846    1.91999996    2.44000006
   19.61222267   78.61360168    1.91999996    2.42000008
   19.61555672   78.72229767    1.91999996    2.42000008
   19.61888885   76.82099915    1.89999998    2.42000008
   19.62194443   81.20279694    1.89999998    2.42000008
   19.62527847   77.62560272    1.88000000    2.42000008
   19.62583351   81.03700256    1.88000000    2.42000008
   19.62861061   78.86380005    1.86000001    2.40000010
   19.63194466   77.60489655    1.85000002    2.42000008
   19.63527679   76.38999939    1.85000002    2.42000008
   19.64138794   76.38999939    1.80999994    2.40000010
   19.64555550   77.25019836    1.76999998    2.42000008
   19.64861107   78.53579712    1.78999996    2.40000010
   19.65194321   81.12270355    1.76999998    2.40000010
   19.65527725   81.39720154    1.78999996    2.40000010
   19.65833282   81.71579742    1.78999996    2.40000010
   19.65916634   79.12110138    1.78999996    2.40000010
   19.66194344   81.30979919    1.76999998    2.42000008
   19.66527748   83.78910065    1.76999998    2.42000008
   19.66860962   78.08560181    1.76999998    2.40000010
   19.67166519   76.94969940    1.75000000    2.40000010
   19.67499924   83.10939789    1.73000002    2.40000010
   19.67833328   83.16899872    1.76999998    2.40000010
   19.68416595   83.16899872    1.75000000    2.40000010
   19.68833160   76.98030090    1.71000004    2.40000010
   19.69166565   82.97930145    1.69000006    2.40000010
   19.69249916   81.68150330    1.69000006    2.40000010
   19.69499969   79.73210144    1.71000004    2.40000010
   19.69833183   78.47409821    1.66999996    2.42000008
   19.70166779   75.58059692    1.63000000    2.40000010
   19.70472336   76.72460175    1.63000000    2.40000010
   19.70805550   78.17250061    1.63000000    2.40000010
   19.71138954   78.25769806    1.63000000    2.40000010
   19.71444511   80.44999695    1.60000002    2.40000010
   19.71777916   78.91680145    1.58000004    2.40000010
   19.72083473   78.96230316    1.55999994    2.40000010
   19.72694588   78.96230316    1.55999994    2.40000010
   19.73111153   81.34960175    1.53999996    2.40000010
   19.73444557   80.31269836    1.53999996    2.40000010
   19.73750114   87.08799744    1.53999996    2.40000010
   19.74083328  101.41699982    1.53999996    2.40000010
   19.74416733   94.07420349    1.53999996    2.40000010
   19.74722290  102.49700165    1.51999998    2.40000010
   19.75055504  121.43299866    1.51999998    2.40000010
   19.75388908  146.12800598    1.51999998    2.39000010
   19.75694466  165.85200500    1.50000000    2.40000010
   19.75916672  173.68299866    1.48000002    2.40000010
   19.76055527  191.86999512    1.48000002    2.39000010
   19.76388931  254.07699585    1.48000002    2.39000010
   19.77000046  254.07699585    1.48000002    2.39000010
   19.77416611   -1.00000000    1.50000000    2.39000010
   19.77722168   -1.00000000    1.51999998    2.40000010
   19.78055573   -1.00000000    1.50000000    2.39000010
   19.78361130   -1.00000000    1.50000000    2.39000010
   19.78694344   -1.00000000    1.50000000    2.39000010
   19.79027748   -1.00000000    1.51999998    2.40000010
   19.79361153   -1.00000000    1.51999998    2.39000010
   19.79694366   -1.00000000    1.51999998    2.39000010
