    HOUR (UT)   FLARE FACTOR    SKY TESTER    SUN TESTER
   12.31166649   -1.00000000   -1.00000000   -1.00000000
   12.33194447  111.18199921    1.14999998    1.78999996
   12.33694458   97.67469788    1.14999998    1.78999996
   12.34000015   99.64550018    1.16999996    1.80999994
   12.34333324   92.99490356    1.14999998    1.80999994
   12.34666634   96.31680298    1.14999998    1.80999994
   12.34972191   89.37830353    1.14999998    1.80999994
   12.35305595   96.04440308    1.16999996    1.80999994
   12.35638905   88.56739807    1.16999996    1.83000004
   12.35944462   94.13130188    1.16999996    1.83000004
   12.36277771   93.40889740    1.16999996    1.85000002
   12.36527824   91.29340363    1.16999996    1.83000004
   12.36638927   92.98889923    1.16999996    1.83000004
   12.36972237   91.39060211    1.16999996    1.85000002
   12.37277794   92.96900177    1.16999996    1.83000004
   12.37611103   91.18109894    1.16999996    1.85000002
   12.37944412   90.44599915    1.16999996    1.85000002
   12.38249969   91.69200134    1.16999996    1.86000001
   12.38583279   92.02359772    1.16999996    1.85000002
   12.38916683   92.42549896    1.14999998    1.86000001
   12.39222240   91.33619690    1.14999998    1.85000002
   12.39555550   99.11710358    1.14999998    1.86000001
   12.39861107   99.81150055    1.14999998    1.86000001
   12.39916611   97.56829834    1.14999998    1.86000001
   12.40249920   99.41960144    1.14999998    1.86000001
   12.40555477   93.03700256    1.16999996    1.86000001
   12.40888882  101.10099792    1.14999998    1.88000000
   12.41222191   98.64669800    1.13000000    1.88000000
   12.41555500   92.58219910    1.13000000    1.88000000
   12.41861153   95.02670288    1.13000000    1.88000000
   12.42222214   90.29799652    1.13000000    1.88000000
   12.42555618   96.47709656    1.13000000    1.89999998
   12.42861176   89.99109650    1.13000000    1.89999998
   12.43194485   97.87660217    1.13000000    1.89999998
   12.43222237  102.24400330    1.13000000    1.89999998
   12.43555546   91.19609833    1.11000001    1.89999998
   12.43861103   92.49520111    1.13000000    1.89999998
   12.44194412   88.76820374    1.11000001    1.89999998
   12.44527817   90.75530243    1.11000001    1.89999998
   12.44833374  100.09400177    1.11000001    1.89999998
   12.45166683   88.45880127    1.09000003    1.91999996
   12.45499992   86.03810120    1.09000003    1.91999996
   12.45805550   92.44580078    1.09000003    1.91999996
   12.46138859   92.01490021    1.09000003    1.91999996
   12.46444416   88.00980377    1.09000003    1.91999996
   12.46527767   96.56379700    1.09000003    1.91999996
   12.46805477   94.07219696    1.09000003    1.91999996
   12.47138882   96.30690002    1.09000003    1.91999996
   12.47472191   87.53959656    1.09000003    1.91999996
   12.47777748   89.60710144    1.09000003    1.94000006
   12.48111057   89.46589661    1.07000005    1.94000006
   12.48416710   91.36630249    1.07000005    1.94000006
   12.48750019  100.19300079    1.07000005    1.94000006
   12.49083328   88.00199890    1.07000005    1.94000006
   12.49388885  102.45300293    1.07000005    1.96000004
   12.49722290   97.73120117    1.07000005    1.94000006
   12.49861145  103.08000183    1.07000005    1.96000004
   12.50083351   98.93900299    1.07000005    1.96000004
   12.50416660   94.59159851    1.07000005    1.96000004
   12.50749969  102.61799622    1.05999994    1.96000004
   12.51055527   87.14630127    1.05999994    1.96000004
   12.51388931   87.12860107    1.05999994    1.96000004
   12.51694393   93.40029907    1.05999994    1.96000004
   12.52027798   99.36489868    1.05999994    1.96000004
   12.52361107   94.20169830    1.05999994    1.98000002
   12.52666664   94.43979645    1.03999996    1.98000002
   12.52999973   87.63839722    1.03999996    1.98000002
   12.53194427   89.63839722    1.05999994    1.98000002
   12.53361130   93.54280090    1.05999994    1.98000002
   12.53694534   88.90270233    1.03999996    1.98000002
   12.54027843   96.67839813    1.03999996    1.98000002
   12.54333401   88.16919708    1.03999996    1.98000002
   12.54666710   87.84079742    1.03999996    1.98000002
   12.54972267   89.77439880    1.03999996    1.98000002
   12.55305576   88.44539642    1.03999996    2.00000000
   12.55638885   89.72660065    1.03999996    2.00000000
   12.55944443   91.67389679    1.03999996    2.00000000
   12.56277752   87.32369995    1.01999998    2.00000000
   12.56527805   91.24960327    1.01999998    2.00000000
   12.56638908   87.78639984    1.01999998    2.00000000
   12.56972218   92.35710144    1.01999998    2.01999998
   12.57305527   98.43530273    1.01999998    2.01999998
   12.57611084   93.24079895    1.01999998    2.01999998
   12.57944393  102.16799927    1.01999998    2.00000000
   12.58277798   92.81960297    1.01999998    2.01999998
   12.58583260  103.12899780    1.01999998    2.01999998
   12.58916664  105.82199860    1.01999998    2.01999998
   12.59222221  100.46299744    1.00000000    2.03999996
   12.59555531  105.52600098    1.00000000    2.03999996
   12.59861088  101.55699921    1.01999998    2.03999996
   12.59916592   94.48159790    1.00000000    2.03999996
   12.60249996   95.06060028    1.01999998    2.03999996
   12.60583401   95.00260162    1.01999998    2.03999996
   12.60888958   91.04740143    1.00000000    2.03999996
   12.61222267   91.97129822    1.00000000    2.03999996
   12.61527824   89.23419952    1.00000000    2.03999996
   12.61861134   95.41639709    1.00000000    2.03999996
   12.62194443   85.66770172    1.00000000    2.03999996
   12.62500000   88.52980042    0.98000002    2.05999994
   12.62833309   94.27020264    0.98000002    2.05999994
   12.63166714   93.00530243    0.98000002    2.05999994
   12.63194466   87.59889984    0.98000002    2.05999994
   12.63527775   86.81809998    0.98000002    2.05999994
   12.63861084  103.19100189    0.98000002    2.05999994
   12.64166641   94.69840240    1.00000000    2.05999994
   12.64499950   92.78160095    0.98000002    2.07999992
   12.64833355   96.94290161    0.98000002    2.05999994
   12.65138817  100.45700073    0.98000002    2.05999994
   12.65472221  101.34200287    0.95999998    2.07999992
   12.65805531  100.88099670    0.98000002    2.07999992
   12.66111088   94.99220276    0.95999998    2.07999992
   12.66444397   88.46070099    0.95999998    2.07999992
   12.66527748   90.41809845    0.95999998    2.07999992
   12.66805553   94.87079620    0.95999998    2.07999992
   12.67138958   89.54149628    0.95999998    2.07999992
   12.67444515   88.70549774    0.95999998    2.07999992
   12.67777824   87.67120361    0.95999998    2.09999990
   12.68111134   90.08309937    0.95999998    2.07999992
   12.68416691   90.01349640    0.94000000    2.09999990
   12.68750000   86.29389954    0.94000000    2.09999990
   12.69083309   85.46240234    0.94000000    2.09999990
   12.69388866  104.01799774    0.94000000    2.09999990
   12.69722271  101.66100311    0.94000000    2.09999990
   12.69861126   98.34619904    0.94000000    2.09999990
   12.70083332   98.81970215    0.94000000    2.09999990
   12.70416641   97.43779755    0.94000000    2.09999990
   12.70722198  107.86900330    0.94000000    2.11999989
   12.71055508  101.29599762    0.94000000    2.09999990
   12.71388912  101.65200043    0.94000000    2.11999989
   12.71694374   96.55930328    0.94000000    2.11999989
   12.72027779   87.96250153    0.94000000    2.11999989
   12.72361088   93.05159760    0.94000000    2.11999989
   12.72666645   91.98120117    0.94000000    2.11999989
   12.72999954   94.54720306    0.92000002    2.11999989
   12.73194408   96.15599823    0.92000002    2.11999989
   12.73361111   95.91860199    0.92000002    2.13000011
   12.73694515   86.99040222    0.92000002    2.13000011
   12.74000072   89.24900055    0.92000002    2.11999989
   12.74333382   94.08470154    0.92000002    2.11999989
   12.74666691  100.26399994    0.92000002    2.13000011
   12.74972248  103.31300354    0.92000002    2.11999989
   12.75305557  100.33999634    0.92000002    2.13000011
   12.75638866   98.34770203    0.92000002    2.11999989
   12.75972176   95.71980286    0.89999998    2.13000011
   12.76277733   91.00550079    0.89999998    2.13000011
   12.76555538   98.83570099    0.92000002    2.13000011
   12.76638889   94.80729675    0.92000002    2.13000011
   12.76972198   97.32199860    0.92000002    2.13000011
   12.77277756   99.10579681    0.89999998    2.13000011
   12.77611065   98.41390228    0.89999998    2.13000011
   12.77944374   94.21219635    0.89999998    2.13000011
   12.78249931   97.97010040    0.89999998    2.13000011
   12.78583336   93.44580078    0.89999998    2.13000011
   12.78916740  102.59899902    0.89999998    2.13000011
   12.79222298   96.93099976    0.89999998    2.15000010
   12.79555607   87.45780182    0.88000000    2.15000010
   12.79888916  109.30400085    0.88000000    2.15000010
   12.79916668   96.40290070    0.88000000    2.15000010
   12.80249977  100.31400299    0.88000000    2.15000010
   12.80555534   97.68090057    0.88000000    2.15000010
   12.80888939   98.03279877    0.88000000    2.17000008
   12.81222248   97.46939850    0.88000000    2.15000010
   12.81527805   97.51660156    0.88000000    2.15000010
   12.81861115  103.74299622    0.88000000    2.17000008
   12.82194424  108.60199738    0.88000000    2.17000008
   12.82499981   94.57810211    0.88000000    2.15000010
   12.82833290  102.36000061    0.88000000    2.17000008
   12.83166695  103.81600189    0.88000000    2.17000008
   12.83222198  114.04199982    0.88000000    2.17000008
   12.83500004   97.37120056    0.88000000    2.17000008
   12.83833313  104.13600159    0.86000001    2.17000008
   12.84138870  103.09100342    0.88000000    2.17000008
   12.84472179   99.84519958    0.86000001    2.17000008
   12.84805489  100.53199768    0.86000001    2.17000008
   12.85166740   98.87709808    0.88000000    2.17000008
   12.85472298   96.57749939    0.86000001    2.17000008
   12.85805607   95.00820160    0.86000001    2.17000008
   12.86111164   99.64469910    0.86000001    2.17000008
   12.86444473  101.74400330    0.86000001    2.17000008
   12.86555576   98.29380035    0.86000001    2.19000006
   12.86805534   98.29630280    0.86000001    2.19000006
   12.87138939   94.56020355    0.86000001    2.19000006
   12.87472248   99.26119995    0.86000001    2.19000006
   12.87777805  107.03099823    0.86000001    2.19000006
   12.88111115   99.86840057    0.86000001    2.19000006
   12.88416672  100.47599792    0.83999997    2.19000006
   12.88749981   92.50759888    0.83999997    2.19000006
   12.89083290  103.11299896    0.83999997    2.19000006
   12.89388847   97.08599854    0.86000001    2.19000006
   12.89722252   98.01080322    0.83999997    2.19000006
   12.89888859  100.94799805    0.86000001    2.19000006
   12.90083313  102.00499725    0.83999997    2.21000004
   12.90416622   89.24800110    0.83999997    2.21000004
   12.90749931   94.53620148    0.83999997    2.21000004
   12.91055489  101.01399994    0.83999997    2.21000004
   12.91388893   96.80079651    0.83999997    2.21000004
   12.91694450   96.65989685    0.83999997    2.21000004
   12.92027855  106.97699738    0.81999999    2.21000004
   12.92361164  103.23699951    0.81999999    2.21000004
   12.92666721  103.03600311    0.83999997    2.21000004
   12.93000031   95.51950073    0.83999997    2.21000004
   12.93222237  100.67099762    0.81999999    2.21000004
   12.93361092   99.21869659    0.81999999    2.21000004
   12.93694496   99.01999664    0.81999999    2.21000004
   12.94027805   94.18920135    0.81999999    2.21000004
   12.94333363  105.83599854    0.81999999    2.21000004
   12.94666672  102.72699738    0.81999999    2.23000002
   12.94972229   99.30090332    0.81999999    2.23000002
   12.95305538   94.35780334    0.81999999    2.23000002
   12.95638847   93.87660217    0.81999999    2.23000002
   12.95972157   96.28769684    0.81999999    2.23000002
   12.96333313   97.16179657    0.80000001    2.23000002
   12.96555519   93.00029755    0.81999999    2.23000002
   12.96694374   92.56839752    0.81999999    2.21000004
   12.97027779  106.02400208    0.80000001    2.23000002
   12.97333336  102.06099701    0.80000001    2.23000002
   12.97666645   99.19239807    0.80000001    2.23000002
   12.97972202   94.95880127    0.80000001    2.25000000
   12.98305511   96.90930176    0.80000001    2.25000000
   12.98638916  102.15000153    0.80000001    2.25000000
   12.98944473   99.79280090    0.80000001    2.23000002
   12.99277782   97.07319641    0.80000001    2.23000002
   12.99583340   95.62490082    0.79000002    2.25000000
   12.99888897   94.60780334    0.80000001    2.25000000
   12.99944496  104.37899780    0.80000001    2.25000000
   13.00277805   93.30439758    0.79000002    2.25000000
   13.00583363   94.68540192    0.80000001    2.25000000
   13.00916672   98.80899811    0.79000002    2.25000000
   13.01249981   98.08339691    0.79000002    2.25000000
   13.01555538   95.51879883    0.79000002    2.25000000
   13.01888847  101.65499878    0.79000002    2.25000000
   13.02194405  106.30799866    0.79000002    2.25000000
   13.02527714  100.25599670    0.79000002    2.25000000
   13.02833271   95.06600189    0.79000002    2.25000000
   13.03166676   98.74330139    0.79000002    2.26999998
   13.03222179   96.03810120    0.79000002    2.26999998
   13.03527832   98.21489716    0.79000002    2.25000000
   13.03833389   98.68669891    0.76999998    2.26999998
   13.04166698   91.92700195    0.76999998    2.26999998
   13.04472256  102.06500244    0.76999998    2.26999998
   13.04805565   94.91410065    0.76999998    2.26999998
   13.05111122  102.25499725    0.76999998    2.26999998
   13.05444431   93.59989929    0.76999998    2.28999996
   13.05777836   91.64019775    0.76999998    2.26999998
   13.06083393   93.54280090    0.76999998    2.28999996
   13.06416702   96.77639771    0.76999998    2.26999998
   13.06555557   97.04730225    0.76999998    2.26999998
   13.06777763   90.99579620    0.76999998    2.26999998
   13.07083321   96.00379944    0.76999998    2.26999998
   13.07416630  100.47599792    0.76999998    2.28999996
   13.07722187   96.22429657    0.76999998    2.26999998
   13.08055592  102.80200195    0.76999998    2.28999996
   13.08361053   98.29910278    0.76999998    2.28999996
   13.08694458  100.04299927    0.75000000    2.28999996
   13.09027767  100.55899811    0.75000000    2.28999996
   13.09333324   97.34960175    0.75000000    2.28999996
   13.09666634  100.06500244    0.76999998    2.28999996
   13.09888840   95.39520264    0.76999998    2.28999996
   13.10027790  101.92099762    0.76999998    2.28999996
   13.10333347  100.94799805    0.75000000    2.28999996
   13.10666752  100.44400024    0.75000000    2.28999996
   13.10972214   93.30120087    0.75000000    2.28999996
   13.11305618   97.44580078    0.75000000    2.28999996
   13.11611176   93.06759644    0.75000000    2.30999994
   13.11944485   93.62699890    0.75000000    2.30999994
   13.12277794  102.22000122    0.75000000    2.30999994
   13.12583351  104.22499847    0.75000000    2.30999994
   13.12916660   98.93859863    0.75000000    2.30999994
   13.13222218   92.73429871    0.75000000    2.30999994
   13.13277817   98.56109619    0.75000000    2.30999994
   13.13583279   92.56179810    0.73000002    2.28999996
   13.13916683   93.25420380    0.73000002    2.30999994
   13.14222240   98.38189697    0.73000002    2.30999994
   13.14555550   99.08439636    0.73000002    2.30999994
   13.14861107   99.88880157    0.73000002    2.30999994
   13.15194416   93.09149933    0.73000002    2.30999994
   13.15527725   97.56909943    0.73000002    2.30999994
   13.15833282   98.13390350    0.73000002    2.30999994
   13.16166592   97.04319763    0.73000002    2.30999994
   13.16472149  102.45600128    0.70999998    2.30999994
   13.16555500   99.52680206    0.70999998    2.30999994
   13.16861153   98.24440002    0.70999998    2.30999994
   13.17166710   94.92649841    0.70999998    2.30999994
   13.17500019   98.30139923    0.73000002    2.30999994
   13.17805576   91.54640198    0.70999998    2.30999994
   13.18138885   97.94020081    0.70999998    2.30999994
   13.18444443   96.34919739    0.70999998    2.30999994
   13.18777752   96.39050293    0.70999998    2.30999994
   13.19111156   95.05860138    0.70999998    2.30999994
   13.19416714  101.12699890    0.70999998    2.32999992
   13.19750023   96.84320068    0.70999998    2.32999992
   13.19888878   94.21920013    0.70999998    2.32999992
   13.20111084   97.18080139    0.70999998    2.32999992
   13.20416641   90.76370239    0.70999998    2.32999992
   13.20749950   95.07299805    0.70999998    2.32999992
   13.21055508   89.72640228    0.70999998    2.32999992
   13.21388912   92.56250000    0.70999998    2.32999992
   13.21722221   91.48400116    0.70999998    2.32999992
   13.22027779   88.74359894    0.70999998    2.32999992
   13.22361088   91.43969727    0.70999998    2.32999992
   13.22666645   98.14630127    0.70999998    2.32999992
   13.22999954   93.93209839    0.70999998    2.32999992
   13.23222160   99.78240204    0.69000000    2.34999990
   13.23361111   88.68139648    0.69000000    2.34999990
   13.23666668   90.42810059    0.69000000    2.32999992
   13.24000072   86.13680267    0.70999998    2.34999990
   13.24305534   90.36080170    0.69000000    2.34999990
   13.24638939   95.10559845    0.69000000    2.34999990
   13.24972248   91.74569702    0.70999998    2.34999990
   13.25277805   95.94529724    0.70999998    2.34999990
   13.25611115  100.82800293    0.69000000    2.32999992
   13.25916672   97.89369965    0.69000000    2.34999990
   13.26249981   91.76239777    0.70999998    2.34999990
   13.26555538   86.01470184    0.69000000    2.34999990
   13.26611137   93.85910034    0.69000000    2.34999990
   13.26916599   89.75180054    0.69000000    2.34999990
   13.27250004   95.58219910    0.69000000    2.34999990
   13.27555561   93.73439789    0.69000000    2.34999990
   13.27888870   94.29360199    0.69000000    2.34999990
   13.28222179   95.37729645    0.69000000    2.34999990
   13.28527832   96.79979706    0.67000002    2.34999990
   13.28861141  100.55100250    0.67000002    2.36999989
   13.29166698   92.19760132    0.69000000    2.36999989
   13.29500008   92.37210083    0.67000002    2.34999990
   13.29805565   92.49669647    0.67000002    2.36999989
   13.29888916   95.79620361    0.69000000    2.36999989
   13.30194473   95.52030182    0.69000000    2.36999989
   13.30500031   98.24210358    0.69000000    2.36999989
   13.30833340   95.71869659    0.69000000    2.36999989
   13.31138897   97.60600281    0.67000002    2.36999989
   13.31472206  100.36699677    0.69000000    2.36999989
   13.31805515  107.23100281    0.67000002    2.36999989
   13.32111073  100.06500244    0.67000002    2.36999989
   13.32444477   95.74659729    0.67000002    2.36999989
   13.32750034   95.16000366    0.67000002    2.36999989
   13.33083344  109.08000183    0.69000000    2.36999989
   13.34861088   96.76920319    0.67000002    2.36999989
   13.35055637   99.59719849    0.67000002    2.36999989
   13.35388947   96.64119720    0.69000000    2.36999989
   13.35722256   98.78890228    0.67000002    2.36999989
   13.36027813  106.66100311    0.67000002    2.39000010
   13.36361122   95.58529663    0.67000002    2.39000010
   13.36666679   93.25140381    0.67000002    2.39000010
   13.36999989   99.77570343    0.67000002    2.39000010
   13.37305546   93.12950134    0.67000002    2.39000010
   13.37638855   96.65750122    0.67000002    2.39000010
   13.37972260   95.20030212    0.67000002    2.36999989
   13.38166714  101.60900116    0.64999998    2.39000010
   13.38305569  106.71600342    0.67000002    2.39000010
   13.38638878   98.55200195    0.64999998    2.39000010
   13.38944435   99.18689728    0.64999998    2.39000010
   13.39277744   98.93319702    0.64999998    2.39000010
   13.39583302   95.11479950    0.64999998    2.39000010
   13.39916611  104.48400116    0.64999998    2.39000010
   13.40222168   95.65589905    0.64999998    2.39000010
   13.40555477  100.86100006    0.64999998    2.39000010
   13.40888882   97.33830261    0.64999998    2.39000010
   13.41194439   96.49849701    0.64999998    2.39000010
   13.41527748  100.71900177    0.64999998    2.39000010
   13.41555500   95.56369781    0.64999998    2.39000010
   13.41888905   92.59860229    0.64999998    2.39000010
   13.42194462   93.73220062    0.64999998    2.39000010
   13.42527771   99.38520050    0.64999998    2.40000010
   13.42861176   93.45230103    0.64999998    2.39000010
   13.43166733  100.36499786    0.64999998    2.40000010
   13.43500042  100.14099884    0.64999998    2.40000010
   13.43833351  110.49700165    0.64999998    2.40000010
   13.44138908   98.36910248    0.64999998    2.39000010
   13.44472218  100.80400085    0.64999998    2.40000010
   13.44805527  100.76799774    0.64999998    2.40000010
   13.44861126   99.45240021    0.64999998    2.40000010
   13.45138836   96.61280060    0.64999998    2.40000010
   13.45472240   94.87429810    0.64999998    2.40000010
   13.45805550   91.79160309    0.63000000    2.40000010
   13.46111107  102.59100342    0.64999998    2.40000010
   13.58166695   -1.00000000   -1.00000000   -1.00000000
   13.67555618   -1.00000000   -1.00000000   -1.00000000
   13.77166653   -1.00000000   -1.00000000   -1.00000000
   13.86583328   -1.00000000   -1.00000000   -1.00000000
   13.96249962   -1.00000000   -1.00000000   -1.00000000
   14.05944443   -1.00000000   -1.00000000   -1.00000000
   14.15499973   -1.00000000   -1.00000000   -1.00000000
   14.25111103   -1.00000000   -1.00000000   -1.00000000
   14.35194492   -1.00000000   -1.00000000   -1.00000000
   14.38777733   74.73079681    0.52999997    2.55999994
   14.39249992   90.40409851    0.50000000    2.55999994
   14.39555550   85.50140381    0.50000000    2.57999992
   14.39944458  163.80599976    0.51999998    2.55999994
   14.40361118   84.27950287    0.51999998    2.55999994
   14.40805531   84.27950287    0.51999998    2.55999994
   14.41222191   88.48320007    0.52999997    2.55999994
   14.41555500   84.05709839    0.51999998    2.57999992
   14.41861153   96.22969818    0.52999997    2.55999994
   14.42111111   88.90950012    0.51999998    2.57999992
   14.42250061   87.29419708    0.51999998    2.57999992
   14.42555618   84.91919708    0.51999998    2.57999992
   14.42888927   88.43289948    0.51999998    2.55999994
   14.43194485   88.09790039    0.52999997    2.57999992
   14.43527794   88.42209625    0.55000001    2.57999992
   14.43861103   84.62560272    0.56999999    2.57999992
   14.44166660   86.06449890    0.56999999    2.57999992
   14.44499969   94.59700012    0.56999999    2.55999994
   14.45083332   94.59700012    0.56999999    2.55999994
   14.45499992   90.05519867    0.56999999    2.57999992
   14.45833302   93.01219940    0.55000001    2.57999992
   14.46138859   93.52780151    0.52999997    2.57999992
   14.46472168   90.58020020    0.52999997    2.57999992
   14.46777725   89.94470215    0.52999997    2.57999992
   14.47111034   88.57240295    0.55000001    2.57999992
   14.47444439   88.66850281    0.51999998    2.57999992
   14.47749996   88.68540192    0.52999997    2.59999990
   14.48083305   86.91760254    0.51999998    2.57999992
   14.48416710   87.48570251    0.50000000    2.57999992
   14.48722267   90.18379974    0.50000000    2.57999992
   14.48777771   88.74720001    0.50000000    2.57999992
   14.49361134   88.74720001    0.50000000    2.59999990
   14.49777794   90.68150330    0.50000000    2.57999992
   14.50111103   86.64640045    0.47999999    2.59999990
   14.50416660   88.84020233    0.47999999    2.57999992
   14.50749969   86.83080292    0.46000001    2.57999992
   14.51083374   87.20330048    0.47999999    2.57999992
   14.51388931   86.06739807    0.47999999    2.57999992
   14.51722240   88.35900116    0.47999999    2.59999990
   14.52055550   84.01709747    0.47999999    2.57999992
   14.52111053   91.03359985    0.46000001    2.57999992
   14.52416611   95.72450256    0.46000001    2.57999992
   14.52722168   81.84390259    0.47999999    2.59999990
   14.53055573   84.18840027    0.47999999    2.57999992
   14.53666687   84.18840027    0.47999999    2.59999990
   14.54055595   86.33409882    0.46000001    2.57999992
   14.54388905   81.19560242    0.46000001    2.55999994
   14.54722309   82.84200287    0.46000001    2.57999992
   14.55027771  100.66899872    0.46000001    2.57999992
   14.55388927   83.30120087    0.46000001    2.59999990
   14.55444431   74.32369995    0.46000001    2.59999990
   14.55749989   87.66259766    0.46000001    2.59999990
   14.56055546   95.66190338    0.46000001    2.59999990
   14.56388950   74.62079620    0.46000001    2.57999992
   14.56722260   84.89170074    0.47999999    2.59999990
   14.57027817   83.72350311    0.46000001    2.57999992
   14.57361126   78.72579956    0.46000001    2.59999990
   14.57944393   78.72579956    0.46000001    2.57999992
   14.58361053   84.16850281    0.46000001    2.57999992
   14.58666611   82.44920349    0.46000001    2.57999992
   14.58777714   86.38379669    0.46000001    2.59999990
   14.59055519   84.13189697    0.46000001    2.57999992
   14.59361076   85.80690002    0.51999998    2.59999990
   14.59694386   83.31539917    0.51999998    2.59999990
   14.60027790   94.47429657    0.63000000    2.57999992
   14.60333347   80.09159851    0.67000002    2.57999992
   14.60666752   80.28919983    0.79000002    2.59999990
   14.61000061   86.13430023    0.79000002    2.57999992
   14.61305618   87.92410278    0.79000002    2.57999992
   14.61638927   87.46970367    0.76999998    2.57999992
   14.62222195   87.46970367    0.86000001    2.59999990
   14.62638855   90.08550262    0.70999998    2.59999990
   14.62972260   84.79930115    0.63000000    2.59999990
   14.63277817   84.59970093    0.63000000    2.59999990
   14.63611126   84.42690277    0.56999999    2.59999990
   14.63916683   82.96929932    0.56999999    2.59999990
   14.64249992   86.97509766    0.55000001    2.59999990
   14.64583302   90.08989716    0.58999997    2.57999992
   14.64888859   90.67099762    0.67000002    2.59999990
   14.65222168   91.69100189    0.81999999    2.59999990
   14.65444374   89.72660065    0.83999997    2.59999990
   14.65583324   88.88739777    0.83999997    2.59999990
   14.65888882   84.88800049    1.01999998    2.59999990
   14.66499996   84.88800049    1.41999996    2.59999990
   14.66916656   86.33119965    1.80999994    2.59999990
   14.67250061   89.10759735    2.67000008    2.59999990
   14.67555618   86.36170197    3.55999994    2.59999990
   14.67888927   89.63050079    4.61999989    2.59999990
   14.68222237  105.71600342    4.90999985    2.61999989
   14.68527794   91.13120270    4.90999985    2.53999996
   14.68777752   92.08650208    4.90999985    2.55999994
   14.68916702   96.49420166    4.90999985    2.53999996
   14.69222260   98.54119873    4.90999985    2.53999996
   14.69555569  102.23300171    4.90999985    2.32999992
   14.69888878  193.48399353    4.90999985    2.01999998
   14.70194435  250.66799927    4.90999985    1.78999996
   14.70805550  250.66799927    4.90999985    1.71000004
   14.71194458   -1.00000000    4.90999985    0.98000002
   14.71527767   -1.00000000    4.90999985    0.88000000
   14.71861076   -1.00000000    4.90999985    0.75000000
   14.72222137   -1.00000000    4.90999985    0.52999997
   14.72527695   -1.00000000    4.90999985    0.51999998
   14.72861099   -1.00000000    4.90999985    0.52999997
   14.73166656   -1.00000000    4.90999985    0.70999998
   14.73500061   -1.00000000    4.90999985    0.76999998
   14.73833370   -1.00000000    4.90999985    0.88000000
   14.74138927   -1.00000000    4.90999985    1.05999994
   14.74472237   -1.00000000    4.90999985    0.98000002
   14.75472260   -1.00000000    4.90999985    1.21000004
   14.75805569   -1.00000000    4.90999985    1.23000002
   14.76138878   -1.00000000    4.90999985    1.41999996
   14.76444435   -1.00000000    4.90999985    1.34000003
   14.76777744   -1.00000000    4.90999985    0.76999998
   14.77083302   -1.00000000    4.90999985    0.41999999
   14.77416611   -1.00000000    4.90999985    0.25999999
   14.77750015   -1.00000000    4.90999985    0.17000000
   14.78055573   -1.00000000    4.90999985    0.13000000
   14.78388977   -1.00000000    4.90999985    0.09000000
   14.78722286   -1.00000000    4.90999985    0.09000000
   14.79777813   -1.00000000    4.90999985    0.17000000
   14.80083370   -1.00000000    4.90999985    0.20999999
   14.80416679   -1.00000000    4.90999985    0.31999999
   14.80722237   -1.00000000    4.90999985    0.23000000
   14.81055546   -1.00000000    4.90999985    0.25000000
   14.81388950   -1.00000000    4.90999985    0.46000001
   14.81694412   -1.00000000    4.90999985    0.88000000
   14.82027817   -1.00000000    4.90999985    1.36000001
   14.82388878   91.83190155    4.90999985    1.55999994
   14.82694435  205.06700134    4.90999985    1.85000002
   14.83027744  134.26499939    4.90999985    1.89999998
   14.83638859  134.26499939    4.90999985    2.42000008
   14.84055519   92.96970367    4.90999985    2.55999994
   14.84388828   88.40689850    4.88999987    2.55999994
   14.84694386   91.30619812    3.07999992    2.57999992
   14.85027790   90.86399841    2.05999994    2.59999990
   14.85361195   96.03649902    1.73000002    2.59999990
   14.85444450   87.30229950    1.71000004    2.59999990
   14.85722256   87.43319702    1.71000004    2.59999990
   14.86055565   85.41329956    1.64999998    2.57999992
   14.86361122   87.12760162    1.64999998    2.57999992
   14.86694431   87.26540375    2.21000004    2.57999992
   14.86999989   84.44999695    2.91000009    2.59999990
   14.87333393   90.00330353    3.30999994    2.59999990
   14.87916660   90.00330353    3.66000009    2.53999996
   14.88333321   86.24299622    3.99000001    2.57999992
   14.88666630   87.25420380    3.89000010    2.57999992
   14.88777733   84.06120300    3.80999994    2.55999994
   14.89027786   89.53679657    3.66000009    2.55999994
   14.89361095   88.74199677    3.57999992    2.53999996
   14.89666653   90.09539795    3.45000005    2.55999994
   14.89999962   96.90509796    3.05999994    2.48000002
   14.90305519   87.92919922    2.78999996    2.61999989
   14.90638828   88.46140289    2.71000004    2.61999989
   14.90972137   83.21089935    3.03999996    2.61999989
   14.91277695   85.30120087    3.20000005    2.61999989
   14.91611099   85.76239777    2.42000008    2.61999989
   14.92222214   85.76239777    1.21000004    2.61999989
   14.92638874   91.38400269    0.92000002    2.61999989
   14.92944431   90.14279938    0.55000001    2.61999989
   14.93277836   91.97699738    0.50000000    2.61999989
   14.93583298   90.40329742    0.51999998    2.61999989
   14.93916702   88.62069702    0.55000001    2.61999989
   14.94250011   92.46299744    0.55000001    2.61999989
   14.94555569   86.38069916    0.56999999    2.61999989
   14.94888878   85.58670044    0.61000001    2.61999989
   14.95222187   92.07379913    0.61000001    2.61999989
   14.95444393   88.89119720    0.58999997    2.61999989
   14.95583344   90.30349731    0.46000001    2.61999989
   14.95916653   81.35900116    0.44000000    2.61999989
   14.96500015   81.35900116    0.41999999    2.61999989
   14.96916580   86.40699768    0.41999999    2.61999989
   14.97222137   88.26709747    0.41999999    2.61999989
   14.97555542   87.88619995    0.41999999    2.61999989
   14.97888851   87.44480133    0.41999999    2.61999989
   14.98194408   85.88500214    0.41999999    2.61999989
   14.98527813   82.26210022    0.41999999    2.61999989
   14.98777771   84.62650299    0.41999999    2.61999989
   14.98888874   85.49250031    0.41999999    2.61999989
   14.99222279   81.16220093    0.41999999    2.64000010
   14.99527836   82.64810181    0.41999999    2.61999989
   14.99861145   85.69830322    0.41999999    2.64000010
   15.00222206   80.12210083    0.41999999    2.61999989
   15.00777817   80.12210083    0.41999999    2.61999989
   15.01194477   85.65730286    0.41999999    2.61999989
   15.01527786   84.30449677    0.41999999    2.61999989
   15.01833344   84.29229736    0.41999999    2.61999989
   15.02111053   84.40049744    0.41999999    2.61999989
   15.02194405   84.07350159    0.41999999    2.61999989
   15.02527714   82.01760101    0.44000000    2.61999989
   15.02833271   83.50109863    0.41999999    2.61999989
   15.03166676   81.52369690    0.44000000    2.61999989
   15.03472233   79.96779633    0.44000000    2.64000010
   15.03805637   85.53410339    0.46000001    2.64000010
   15.04138947   82.09850311    0.47999999    2.64000010
   15.04444504   88.83650208    0.51999998    2.61999989
   15.05083370   88.83650208    0.69000000    2.61999989
   15.05472279   84.06999969    0.88000000    2.61999989
   15.05805588   85.02660370    1.55999994    2.59999990
   15.06138897   87.97509766    2.09999990    2.59999990
   15.06444454   91.94509888    2.34999990    2.57999992
   15.06777763   91.75160217    2.51999998    2.57999992
   15.07111073   91.97609711    2.59999990    2.55999994
   15.07416630   92.30729675    2.75000000    2.57999992
   15.07750034   86.57790375    2.71000004    2.57999992
   15.08055592   86.68869781    2.64000010    2.53999996
   15.08388901   86.79180145    2.64000010    2.59999990
   15.08722210   82.27310181    2.59999990    2.59999990
   15.08777714   84.77339935    2.59999990    2.59999990
   15.09361076   84.77339935    2.40000010    2.61999989
   15.09777737   86.49230194    2.57999992    2.59999990
   15.10083389   91.13739777    4.36999989    2.57999992
   15.10416698   87.46199799    4.90999985    2.59999990
   15.10750008   96.35089874    4.90999985    2.48000002
   15.11055565  119.29199982    4.90999985    2.30999994
   15.11388969  128.95799255    4.90999985    2.32999992
   15.11694431  116.75900269    4.90999985    2.01999998
   15.12027836   94.95140076    4.90999985    2.11999989
   15.12111092   84.88259888    4.90999985    2.26999998
   15.12388897  106.28900146    4.90999985    2.46000004
   15.12722206   94.97589874    4.90999985    2.23000002
   15.13027763  114.91100311    4.90999985    2.44000006
   15.13638878  114.91100311    4.90999985    2.13000011
   15.14055538   85.54070282    4.90999985    2.64000010
   15.14388847   82.53359985    4.90999985    2.66000009
   15.14694405   83.03359985    2.89000010    2.64000010
   15.15027714   81.85540009    1.94000006    2.61999989
   15.15333271   82.64260101    2.59999990    2.59999990
   15.15444374   82.64279938    2.71000004    2.61999989
   15.15694427   80.52989960    3.23000002    2.61999989
   15.16027737   82.86660004    3.00000000    2.64000010
   15.16333294   82.33499908    2.07999992    2.61999989
   15.16666698   83.30979919    1.75000000    2.66000009
   15.17000008   82.91120148    2.21000004    2.61999989
   15.17305565   83.28569794    3.55999994    2.61999989
   15.17916679   83.28569794    4.90999985    2.59999990
   15.18333340  104.90200043    4.90999985    2.32999992
   15.18666649   89.01999664    4.90999985    2.42000008
   15.18777752   92.65110016    4.90999985    2.46000004
   15.19027805   85.73919678    4.90999985    2.51999998
   15.19361115   88.56030273    4.90999985    2.55999994
   15.19666672   87.89669800    4.90999985    2.48000002
   15.19999981   93.01650238    4.90999985    2.50000000
   15.20333290   86.56009674    4.90999985    2.55999994
   15.20638847   93.97910309    4.53999996    2.55999994
   15.20972157   88.58399963    3.82999992    2.61999989
   15.21305561   89.48889923    3.21000004    2.64000010
   15.21611118   80.86710358    2.39000010    2.61999989
   15.22194386   80.86710358    2.26999998    2.59999990
   15.22611046   90.02459717    2.17000008    2.61999989
   15.22944355   83.77719879    1.55999994    2.61999989
   15.23277760   84.92459869    1.30999994    2.61999989
   15.23583317   84.70300293    0.81999999    2.64000010
   15.23916721   88.10600281    0.76999998    2.61999989
   15.24222279   90.39250183    0.80000001    2.64000010
   15.24555588   84.91750336    1.16999996    2.64000010
   15.24888897   82.78880310    2.01999998    2.64000010
   15.25194454   84.94619751    2.96000004    2.61999989
   15.25444412   89.79180145    3.41000009    2.53999996
   15.25555515   80.00450134    3.55999994    2.53999996
   15.25888920   89.54180145    3.82999992    2.55999994
   15.26500034   89.54180145    4.46999979    2.57999992
   15.26916599   84.48539734    3.72000003    2.57999992
   15.27222157   84.46479797    3.11999989    2.61999989
   15.27555561   82.78209686    2.42000008    2.61999989
   15.27861118   79.88849640    1.76999998    2.64000010
   15.28194427   82.63089752    1.25000000    2.64000010
   15.28527832   84.22370148    1.01999998    2.61999989
   15.28805637   87.33370209    0.67000002    2.64000010
   15.28888893   83.60099792    0.63000000    2.64000010
   15.29222298   83.99859619    0.51999998    2.64000010
   15.29527855   84.37560272    0.44000000    2.64000010
   15.29861164   81.32230377    0.44000000    2.66000009
   15.30194473   81.69400024    0.41999999    2.64000010
   15.30777836   81.69400024    0.40000001    2.64000010
   15.31194496   86.41380310    0.38000000    2.64000010
   15.31500053   78.74220276    0.40000001    2.64000010
   15.31833363   83.47879791    0.38000000    2.64000010
   15.32138920   84.80750275    0.38000000    2.64000010
   15.32194424   81.56269836    0.38000000    2.64000010
   15.32527733   80.54820251    0.38000000    2.64000010
   15.32861137   83.31829834    0.38000000    2.64000010
   15.33166695   89.06569672    0.38000000    2.64000010
   15.33500004   82.82219696    0.38000000    2.64000010
   15.33833313   85.42279816    0.40000001    2.64000010
   15.34138870   84.97180176    0.40000001    2.64000010
   15.34472179   84.10510254    0.41999999    2.64000010
   15.35055637   84.10510254    0.47999999    2.64000010
   15.35472298   84.26509857    0.61000001    2.64000010
   15.35805607   80.22899628    0.67000002    2.64000010
   15.36111164   80.58390045    0.69000000    2.64000010
   15.36444473   86.74949646    0.67000002    2.64000010
   15.36777782   84.90529633    0.67000002    2.64000010
   15.37083340   84.93250275    0.63000000    2.64000010
   15.37416649   80.96060181    0.63000000    2.64000010
   15.37722206   81.42859650    0.52999997    2.64000010
   15.38055611   84.78849792    0.52999997    2.64000010
   15.38388920   81.19180298    0.55000001    2.64000010
   15.38694477   81.17169952    0.55000001    2.64000010
   15.38805580   82.77790070    0.55000001    2.64000010
   15.40861034   82.77790070    0.58999997    2.64000010
   15.41277695   82.86370087    0.58999997    2.64000010
   15.41583252   90.70680237    0.58999997    2.64000010
   15.41916656   85.46230316    0.58999997    2.66000009
   15.42138958   86.47119904    0.51999998    2.64000010
   15.42277813   87.85340118    0.51999998    2.64000010
   15.42611122   80.75800323    0.52999997    2.66000009
   15.42944431   81.61869812    0.55000001    2.64000010
   15.43249989   82.38390350    0.55000001    2.64000010
   15.43583298   86.69120026    0.55000001    2.64000010
   15.43888855   79.04049683    0.67000002    2.64000010
   15.44222260   82.33119965    0.70999998    2.64000010
   15.44555569   75.94100189    0.70999998    2.64000010
   15.45138836   75.94100189    1.16999996    2.64000010
   15.45555496   83.65509796    2.21000004    2.61999989
   15.45861053   89.14420319    2.36999989    2.61999989
   15.46194458   84.16210175    2.36999989    2.61999989
   15.46527767   82.43930054    2.15000010    2.61999989
   15.46833324   84.20970154    2.00000000    2.61999989
   15.47166634   84.20809937    1.71000004    2.61999989
   15.47499943   86.11820221    1.34000003    2.64000010
   15.47805500   86.32879639    0.92000002    2.64000010
   15.48138809   85.15609741    0.67000002    2.66000009
   15.48472214   85.98529816    0.51999998    2.66000009
   15.48777771   76.70320129    0.46000001    2.66000009
   15.48833370   81.52799988    0.44000000    2.66000009
   15.49416733   81.52799988    0.38000000    2.64000010
   15.49833393   83.91359711    0.38000000    2.64000010
   15.50166702   83.07189941    0.38000000    2.66000009
   15.50472260   80.40499878    0.38000000    2.66000009
   15.50805569   81.88200378    0.36000001    2.64000010
   15.51111126   83.07800293    0.36000001    2.66000009
   15.51444435   80.38040161    0.36000001    2.64000010
   15.51777744   88.00340271    0.36000001    2.66000009
   15.52083302   86.14649963    0.36000001    2.66000009
   15.52166653   91.29319763    0.36000001    2.64000010
   15.52472210   83.64929962    0.36000001    2.66000009
   15.52777767   79.40339661    0.36000001    2.64000010
   15.53111076   76.84429932    0.38000000    2.66000009
   15.53694534   76.84429932    0.36000001    2.66000009
   15.54111195   79.94860077    0.38000000    2.66000009
   15.54444504   83.11599731    0.36000001    2.66000009
   15.54750061   86.36779785    0.36000001    2.66000009
   15.55083370   81.23729706    0.38000000    2.66000009
   15.55416679   83.39350128    0.38000000    2.66000009
   15.55500031   83.84169769    0.38000000    2.66000009
   15.55777836   81.04219818    0.36000001    2.66000009
   15.56111145   77.96360016    0.38000000    2.66000009
   15.56416702   80.28230286    0.36000001    2.66000009
   15.56750011   79.23889923    0.36000001    2.66000009
   15.57083321   84.80590057    0.36000001    2.66000009
   15.57388878   85.43340302    0.36000001    2.66000009
   15.57999992   85.43340302    0.36000001    2.66000009
   15.58388901   84.31900024    0.36000001    2.66000009
   15.58722210   79.39550018    0.36000001    2.66000009
   15.58833313   83.87599945    0.36000001    2.67000008
   15.59083271   82.34179688    0.36000001    2.67000008
   15.59388828   87.64150238    0.36000001    2.64000010
   15.59722233   76.24520111    0.36000001    2.66000009
   15.60055637   82.80049896    0.36000001    2.66000009
   15.60361195   79.33480072    0.38000000    2.66000009
   15.60694504   76.73500061    0.40000001    2.66000009
   15.61027813   74.68900299    0.46000001    2.66000009
   15.61333370   85.03240204    0.50000000    2.66000009
   15.61666679   78.43060303    0.61000001    2.67000008
   15.62277794   78.43060303    1.07000005    2.67000008
   15.62694454   78.66629791    1.86000001    2.66000009
   15.63000011   83.12830353    2.30999994    2.66000009
   15.63333321   84.39479828    3.46000004    2.64000010
   15.63666630   81.84459686    4.90999985    2.59999990
   15.63972187   84.39779663    4.90999985    2.53999996
   15.64305496   84.32489777    4.90999985    2.42000008
   15.64638901  133.94799805    4.90999985    2.46000004
   15.64944458   -1.00000000    4.90999985    2.01999998
   15.65277767   -1.00000000    4.90999985    1.30999994
   15.65611076   -1.00000000    4.90999985    1.16999996
   15.65944386   -1.00000000    4.90999985    1.16999996
   15.66555500   -1.00000000    4.90999985    1.19000006
   15.66972256   -1.00000000    4.90999985    1.38000000
   15.67305565   -1.00000000    4.90999985    1.53999996
   15.67611122   -1.00000000    4.90999985    1.63000000
   15.67944431   53.15599823    4.90999985    1.61000001
   15.68249989  113.77100372    4.90999985    1.94000006
   15.68583298  168.73800659    4.90999985    2.15000010
   15.68833351  130.42500305    4.90999985    1.98000002
   15.68944454  129.24400330    4.90999985    1.96000004
   15.69250011  116.32900238    4.90999985    2.19000006
   15.69583321  104.61199951    4.90999985    2.34999990
   15.69916630   94.42929840    4.90999985    2.21000004
   15.70222187   91.17700195    4.90999985    2.34999990
   15.70833302   91.17700195    4.90999985    2.23000002
   15.71249962   91.25050354    4.90999985    2.25000000
   15.71583271   95.05429840    4.90999985    2.28999996
   15.71888828   91.20439911    4.90999985    2.19000006
   15.72166634   96.96649933    4.90999985    2.19000006
   15.72277737  109.90699768    4.90999985    2.17000008
   15.72611046   99.14980316    4.90999985    2.09999990
   15.72916603  101.41600037    4.90999985    2.15000010
   15.73249912   98.33489990    4.90999985    2.25000000
   15.73555565  106.72200012    4.90999985    2.32999992
   15.73888874   99.95279694    4.90999985    2.36999989
   15.74222279   81.92400360    4.90999985    2.42000008
   15.74527836   91.23880005    4.90999985    2.42000008
   15.75111103   91.23880005    4.90999985    2.46000004
   15.75527763   95.17150116    4.90999985    2.48000002
   15.75861073   87.65049744    4.90999985    2.51999998
   15.76194477   82.33920288    4.90999985    2.59999990
   15.76500034   85.51360321    3.51999998    2.61999989
   15.76833344   84.25270081    2.82999992    2.61999989
   15.77138901   88.01589966    2.36999989    2.61999989
   15.77472210   90.69670105    1.91999996    2.64000010
   15.77805519   81.79910278    1.55999994    2.66000009
   15.78111076   85.95159912    1.38000000    2.66000009
   15.78444481   89.12629700    1.21000004    2.64000010
   15.78777790   81.81929779    1.13000000    2.66000009
   15.78833389   88.43170166    1.09000003    2.64000010
   15.79416752   88.43170166    0.79000002    2.66000009
   15.79833412   91.52539825    0.67000002    2.66000009
   15.80138874   90.69509888    0.55000001    2.66000009
   15.80472279   87.64389801    0.50000000    2.66000009
   15.80805588   86.13079834    0.44000000    2.66000009
   15.81111145   87.02940369    0.44000000    2.66000009
   15.81444454   83.57219696    0.40000001    2.66000009
   15.81777763   81.99220276    0.40000001    2.66000009
   15.82083321   82.56839752    0.40000001    2.66000009
   15.82166672   89.05819702    0.40000001    2.66000009
   15.82444477   84.56439972    0.40000001    2.66000009
   15.82777786   90.86769867    0.40000001    2.66000009
   15.83083344   91.14289856    0.40000001    2.66000009
   15.83694458   91.14289856    0.40000001    2.67000008
   15.84111118   74.93769836    0.40000001    2.66000009
   15.84416676   86.72679901    0.38000000    2.66000009
   15.84749985   85.13739777    0.38000000    2.66000009
   15.85083389   86.80809784    0.36000001    2.66000009
   15.85388947   83.41490173    0.36000001    2.66000009
   15.85500050   93.41310120    0.36000001    2.66000009
   15.85750008   89.97370148    0.36000001    2.66000009
   15.86083412   89.18959808    0.36000001    2.66000009
   15.86388969   89.17500305    0.36000001    2.66000009
   15.86722279   89.62799835    0.36000001    2.66000009
   15.87027836   87.83570099    0.36000001    2.66000009
   15.87361145   83.20220184    0.36000001    2.67000008
   15.87972260   83.20220184    0.36000001    2.66000009
   15.88388920   85.03340149    0.36000001    2.66000009
   15.88722229   78.28730011    0.36000001    2.66000009
   15.88833332   80.47730255    0.36000001    2.66000009
   15.89083290   86.07060242    0.36000001    2.66000009
   15.89416695   81.90509796    0.36000001    2.66000009
   15.89722252   77.59400177    0.36000001    2.66000009
   15.90055561   78.32849884    0.36000001    2.66000009
   15.90388870   81.65070343    0.36000001    2.66000009
   15.90694427   79.72560120    0.36000001    2.67000008
   15.91027737   81.13289642    0.36000001    2.67000008
   15.91361046   83.98930359    0.36000001    2.66000009
   15.91666698   84.59049988    0.36000001    2.66000009
   15.92250061   84.59049988    0.36000001    2.66000009
   15.92666721   83.15470123    0.36000001    2.67000008
   15.93000031   87.47810364    0.36000001    2.66000009
   15.93333340   93.34929657    0.38000000    2.67000008
   15.93638897   92.54730225    0.36000001    2.67000008
   15.93972206   86.59140015    0.36000001    2.66000009
   15.94277763   89.95860291    0.36000001    2.66000009
   15.94611073   86.14689636    0.38000000    2.66000009
   15.94944477   82.75569916    0.38000000    2.66000009
   15.95249939   80.56340027    0.40000001    2.66000009
   15.95499992   88.51370239    0.40000001    2.66000009
   15.95611095   77.35019684    0.40000001    2.66000009
   15.95944405   84.84590149    0.40000001    2.66000009
   15.96555519   84.84590149    0.40000001    2.66000009
   15.96972179   83.75099945    0.51999998    2.67000008
   15.97277737   76.86609650    0.58999997    2.66000009
   15.97611046   82.28710175    0.79000002    2.66000009
   15.97944355   80.88880157    0.89999998    2.66000009
   15.98249912   81.73670197    1.19000006    2.64000010
   15.98583317   83.23909760    1.25000000    2.64000010
   15.98833370   81.32849884    1.36000001    2.64000010
   15.98944473   84.00599670    1.36000001    2.64000010
   15.99277782   80.22489929    1.44000006    2.64000010
   15.99583340   85.53530121    1.44000006    2.64000010
   15.99916649   81.47920227    1.44000006    2.64000010
   16.00250053   83.32230377    1.30999994    2.64000010
   16.00833321   83.32230377    0.88000000    2.64000010
   16.01250076   87.89289856    0.88000000    2.66000009
   16.01583290   90.36609650    0.89999998    2.66000009
   16.01888847   90.17140198    0.89999998    2.66000009
   16.02166557   87.59889984    0.75000000    2.66000009
   16.02249908   88.35019684    0.64999998    2.66000009
   16.02583313   90.06369781    0.64999998    2.66000009
   16.02888870   78.97059631    0.63000000    2.66000009
   16.03222275   84.58889771    0.64999998    2.66000009
   16.03555489   78.54199982    0.64999998    2.66000009
   16.03861046   81.36419678    0.64999998    2.67000008
   16.04194450   82.09300232    0.69000000    2.67000008
   16.04500008   88.93460083    0.70999998    2.66000009
   16.05111122   88.93460083    0.67000002    2.66000009
   16.05527687   81.10130310    0.61000001    2.66000009
   16.05861092   88.79850006    0.80000001    2.66000009
   16.06166649   88.45749664    0.89999998    2.66000009
   16.06499863   86.18599701    0.89999998    2.66000009
   16.06833458   87.06790161    0.95999998    2.66000009
   16.07139015   84.30020142    2.07999992    2.61999989
   16.07472229   90.83769989    2.05999994    2.64000010
   16.07805634   87.26860046    1.98000002    2.64000010
   16.08111191   88.65380096    1.61000001    2.64000010
   16.08444595   78.55599976    1.25000000    2.66000009
   16.08750153   88.70590210    0.94000000    2.66000009
   16.08833313   87.53500366    0.94000000    2.66000009
   16.09416771   87.53500366    0.50000000    2.66000009
   16.09805679   82.54810333    0.41999999    2.67000008
   16.10138893   87.03990173    0.34000000    2.67000008
   16.10472298   89.72129822    0.34000000    2.66000009
   16.10777855   90.98650360    0.34000000    2.67000008
   16.11111069   85.82109833    0.34000000    2.66000009
   16.11444473   83.62889862    0.34000000    2.66000009
   16.11750031   83.67579651    0.34000000    2.67000008
   16.12083435   89.11630249    0.34000000    2.67000008
   16.12166595   96.89540100    0.34000000    2.66000009
   16.12444496   92.94699860    0.34000000    2.66000009
   16.12777710   86.47760010    0.34000000    2.67000008
   16.13083267   86.44259644    0.31999999    2.66000009
   16.13694382   86.44259644    0.34000000    2.67000008
   16.14111137   85.59429932    0.34000000    2.67000008
   16.14416695   85.14499664    0.31999999    2.67000008
   16.14749908   92.19349670    0.31999999    2.67000008
   16.15083313   78.82340240    0.31999999    2.67000008
   16.15388870   79.75009918    0.34000000    2.67000008
   16.15499878   86.98979950    0.34000000    2.67000008
   16.15749931   75.40889740    0.31999999    2.66000009
   16.16083336   87.97460175    0.34000000    2.66000009
   16.16388893   91.85040283    0.34000000    2.67000008
   16.16722107   84.58679962    0.34000000    2.67000008
   16.17055511   89.38249969    0.34000000    2.67000008
   16.17361069   90.28119659    0.34000000    2.67000008
   16.17972183   90.28119659    0.34000000    2.66000009
   16.18388748   84.09210205    0.34000000    2.66000009
   16.18722153   82.95639801    0.34000000    2.66000009
   16.18833160   82.67759705    0.34000000    2.67000008
   16.19083214   88.59049988    0.34000000    2.66000009
   16.19416618   83.91239929    0.34000000    2.66000009
   16.19722176   84.26999664    0.34000000    2.66000009
   16.20055580   80.38339996    0.34000000    2.66000009
   16.20388985   97.06610107    0.34000000    2.66000009
   16.20694542   90.39569855    0.34000000    2.66000009
   16.21027946   89.09700012    0.36000001    2.67000008
   16.21333504   93.23629761    0.34000000    2.67000008
   16.21666718   77.36650085    0.34000000    2.66000009
   16.22249985   77.36650085    0.34000000    2.67000008
   16.22666740   87.66870117    0.34000000    2.67000008
   16.23000145   90.30919647    0.36000001    2.67000008
   16.23305511   82.71420288    0.34000000    2.67000008
   16.23638916   90.48179626    0.34000000    2.67000008
   16.23972321   83.78980255    0.34000000    2.67000008
   16.24277878   85.51480103    0.36000001    2.67000008
   16.24611092   88.93910217    0.36000001    2.67000008
   16.24944496   87.62039948    0.34000000    2.67000008
   16.25250053   89.71499634    0.34000000    2.67000008
   16.25499916   92.54129791    0.36000001    2.67000008
   16.25611115   89.00530243    0.36000001    2.67000008
   16.25944519   89.74980164    0.34000000    2.67000008
   16.26527786   89.74980164    0.34000000    2.67000008
   16.26944351   84.65110016    0.34000000    2.67000008
   16.27277756   87.90820313    0.34000000    2.67000008
   16.27611160   85.98940277    0.36000001    2.67000008
   16.27916718   89.17980194    0.34000000    2.67000008
   16.28249931   78.93910217    0.36000001    2.67000008
   16.28583336   77.14959717    0.36000001    2.67000008
   16.28833199   83.55290222    0.34000000    2.67000008
   16.28944397   83.83059692    0.34000000    2.67000008
   16.29277802   87.30139923    0.34000000    2.67000008
   16.29583359   80.60240173    0.36000001    2.66000009
   16.29916573   85.11450195    0.34000000    2.66000009
   16.30249977   83.53359985    0.36000001    2.66000009
   16.30833244   83.53359985    0.34000000    2.66000009
   16.31250000   85.04660034    0.36000001    2.67000008
   16.31555557   80.97319794    0.36000001    2.66000009
   16.31888962   84.35189819    0.36000001    2.67000008
   16.32166672   89.02079773    0.36000001    2.67000008
   16.32250023   80.54720306    0.36000001    2.67000008
   16.32583427   84.50810242    0.38000000    2.67000008
   16.32888985   86.97519684    0.38000000    2.67000008
   16.33222389   85.76619720    0.38000000    2.67000008
   16.33555603   79.35089874    0.38000000    2.67000008
   16.33861160   87.62480164    0.38000000    2.67000008
   16.34194565   85.18099976    0.38000000    2.67000008
   16.34500122   82.82479858    0.38000000    2.66000009
   16.35111237   82.82479858    0.36000001    2.67000008
   16.35527802   86.50779724    0.36000001    2.67000008
   16.35833359   82.59089661    0.36000001    2.66000009
   16.36166763   79.85160065    0.36000001    2.67000008
   16.36499977   81.44850159    0.36000001    2.67000008
   16.36805534   75.11289978    0.34000000    2.67000008
   16.37138939   82.44180298    0.34000000    2.67000008
   16.37472153   84.47509766    0.36000001    2.67000008
   16.37777710   80.41040039    0.36000001    2.67000008
   16.38111115   79.56580353    0.36000001    2.67000008
   16.38416672   84.14790344    0.34000000    2.66000009
   16.38750076   83.91349792    0.34000000    2.67000008
   16.38861084   85.06060028    0.34000000    2.67000008
   16.39388847   85.06060028    0.34000000    2.67000008
   16.39805603   81.48210144    0.36000001    2.67000008
   16.40138817   86.73500061    0.34000000    2.67000008
   16.40444374   81.17610168    0.34000000    2.67000008
   16.42222214   82.56359863    0.34000000    2.67000008
   16.42444420   81.14270020    0.34000000    2.66000009
   16.42777634   84.07839966    0.34000000    2.67000008
   16.43111038   81.12899780    0.31999999    2.67000008
   16.43694305   81.12899780    0.34000000    2.67000008
   16.44111061   90.62380219    0.34000000    2.67000008
   16.44444275   87.98750305    0.36000001    2.67000008
   16.44749832   81.85410309    0.36000001    2.67000008
   16.45083427   83.12190247    0.36000001    2.67000008
   16.45388985   85.36489868    0.50000000    2.67000008
   16.45527840   84.12640381    0.51999998    2.67000008
   16.45750046   91.71759796    0.51999998    2.67000008
   16.46083450   81.57779694    0.67000002    2.67000008
   16.46389008   88.96659851    0.75000000    2.67000008
   16.46722221   82.76129913    0.98000002    2.66000009
   16.47055626   87.65489960    1.03999996    2.66000009
   16.47361183   88.54039764    1.13000000    2.66000009
   16.47972298   88.54039764    0.92000002    2.67000008
   16.48388863   89.57839966    0.88000000    2.66000009
   16.48722267   81.66819763    0.88000000    2.66000009
   16.48861122   80.58580017    0.44000000    2.67000008
   16.49083328   77.66010284    0.41999999    2.66000009
   16.49416733   77.67680359    0.36000001    2.67000008
   16.49722290   73.38880157    0.34000000    2.67000008
   16.50055504   84.14230347    0.34000000    2.66000009
   16.50388908   80.46379852    0.34000000    2.67000008
   16.50694466   83.78890228    0.34000000    2.67000008
   16.51027870   79.43350220    0.34000000    2.67000008
   16.51361084   78.82450104    0.34000000    2.67000008
   16.51666641   83.50599670    0.34000000    2.67000008
   16.52277756   83.50599670    0.34000000    2.67000008
   16.52666664   75.98629761    0.34000000    2.67000008
   16.53000069   82.96399689    0.34000000    2.67000008
   16.53333282   79.22290039    0.34000000    2.67000008
   16.53638840   83.09010315    0.36000001    2.67000008
   16.53972244   80.37210083    0.36000001    2.67000008
   16.54305458   83.95120239    0.36000001    2.67000008
   16.54611015   82.76290131    0.36000001    2.67000008
   16.54944420   81.72599792    0.34000000    2.66000009
   16.55277634   78.65080261    0.36000001    2.67000008
   16.55527687   83.36789703    0.34000000    2.67000008
   16.55638885   79.70220184    0.34000000    2.67000008
   16.55972099   80.71119690    0.34000000    2.67000008
   16.56555557   80.71119690    0.34000000    2.67000008
   16.56972313   81.73159790    0.34000000    2.67000008
   16.57277870   85.73979950    0.34000000    2.67000008
   16.57611275   80.70320129    0.36000001    2.67000008
   16.57916832   81.56739807    0.34000000    2.67000008
   16.58250046   82.20300293    0.36000001    2.67000008
   16.58583450   81.91049957    0.36000001    2.67000008
   16.58861160   88.81030273    0.34000000    2.67000008
   16.58944511   86.95839691    0.36000001    2.67000008
   16.59277916   81.37439728    0.36000001    2.67000008
   16.59583473   88.55829620    0.36000001    2.67000008
   16.59916687   83.39980316    0.36000001    2.67000008
   16.60222244   83.72750092    0.34000000    2.67000008
   16.60833359   83.72750092    0.34000000    2.67000008
   16.61250114   76.83719635    0.34000000    2.67000008
   16.61555672   80.73899841    0.34000000    2.67000008
   16.61888885   82.08020020    0.34000000    2.67000008
   16.62194443   81.50499725    0.34000000    2.67000008
   16.62249947   80.63559723    0.34000000    2.67000008
   16.62583351   77.76830292    0.34000000    2.67000008
   16.62888908   81.06300354    0.34000000    2.67000008
   16.63222313   88.06140137    0.34000000    2.67000008
   16.63527679   88.71939850    0.34000000    2.67000008
   16.63861084   89.51860046    0.34000000    2.67000008
   16.64194489   82.79599762    0.34000000    2.67000008
   16.64500046   83.50659943    0.34000000    2.67000008
   16.65111160   83.50659943    0.34000000    2.67000008
   16.65527725   77.41300201    0.36000001    2.67000008
   16.65583229   88.71520233    0.36000001    2.67000008
   16.65916634   82.09700012    0.36000001    2.69000006
   16.66222191   85.43920135    0.34000000    2.67000008
   16.66555595   88.32830048    0.34000000    2.69000006
   16.66888809   88.92440033    0.34000000    2.67000008
   16.67194366   82.02040100    0.34000000    2.67000008
   16.67527771   90.32230377    0.34000000    2.67000008
   16.67860985   77.39019775    0.34000000    2.67000008
   16.68166542   88.19429779    0.34000000    2.67000008
   16.68499947   84.08190155    0.34000000    2.67000008
   16.68833160   83.48390198    0.34000000    2.67000008
   16.68861008   86.23490143    0.34000000    2.67000008
   16.69416618   86.23490143    0.34000000    2.67000008
   16.69805527   83.59880066    0.34000000    2.69000006
   16.70138931   82.50420380    0.34000000    2.69000006
   16.70472336   82.37200165    0.36000001    2.67000008
   16.70777893   83.13179779    0.34000000    2.67000008
   16.71111107   87.66929626    0.34000000    2.69000006
   16.71444511   79.88939667    0.34000000    2.67000008
   16.71750069   83.75679779    0.34000000    2.67000008
   16.72083473   84.02179718    0.34000000    2.67000008
   16.72194481   82.54229736    0.34000000    2.67000008
   16.72444534   81.19090271    0.36000001    2.67000008
   16.72777748   83.74569702    0.36000001    2.67000008
   16.73083305   82.85839844    0.34000000    2.67000008
   16.73694420   82.85839844    0.34000000    2.67000008
   16.74111176   86.69979858    0.34000000    2.69000006
   16.74416733   87.32299805    0.34000000    2.67000008
   16.74749947   85.27239990    0.34000000    2.67000008
   16.75083351   83.61669922    0.38000000    2.67000008
   16.75388908   83.21659851    0.36000001    2.67000008
   16.75555611   79.35669708    0.36000001    2.69000006
   16.75749969   84.83370209    0.36000001    2.67000008
   16.76083374   87.46510315    0.36000001    2.67000008
   16.76416588   83.62979889    0.36000001    2.67000008
   16.76722145   87.85199738    0.36000001    2.67000008
   16.77055550   86.48709869    0.34000000    2.67000008
   16.77361107   89.23300171    0.36000001    2.67000008
   16.77972221   89.23300171    0.36000001    2.67000008
   16.78388786   86.52459717    0.36000001    2.67000008
   16.78722191   89.34179688    0.36000001    2.67000008
   16.78888893   80.38020325    0.36000001    2.67000008
   16.79055595   88.08439636    0.36000001    2.67000008
   16.79388809   88.61049652    0.36000001    2.67000008
   16.79694366   84.55950165    0.36000001    2.67000008
   16.80027771   83.74579620    0.38000000    2.67000008
   16.80360985   88.82330322    0.36000001    2.67000008
   16.80666542   87.27839661    0.36000001    2.67000008
   16.80999947   86.53839874    0.38000000    2.67000008
   16.81333351   83.34729767    0.36000001    2.67000008
   16.81638718   90.51899719    0.34000000    2.67000008
   16.82250023   90.51899719    0.36000001    2.67000008
   16.82666779   92.97609711    0.36000001    2.67000008
   16.83000183   90.25559998    0.36000001    2.67000008
   16.83305550   86.73660278    0.36000001    2.67000008
   16.83638954   83.48650360    0.40000001    2.69000006
   16.83972359   88.36940002    0.40000001    2.67000008
   16.84277916   79.81439972    0.41999999    2.67000008
   16.84611130   85.05809784    0.40000001    2.69000006
   16.84944534   82.56860352    0.40000001    2.67000008
   16.85250092   84.46620178    0.40000001    2.69000006
   16.85555649   79.18599701    0.40000001    2.67000008
   16.85611153   82.47209930    0.40000001    2.67000008
   16.85944557   81.11640167    0.40000001    2.67000008
   16.86555672   81.11640167    0.40000001    2.67000008
   16.86944389   83.38970184    0.40000001    2.69000006
   16.87277794   80.36579895    0.41999999    2.67000008
   16.87611198   84.25119781    0.41999999    2.67000008
   16.87916756   84.62539673    0.40000001    2.67000008
   16.88249969   87.95120239    0.41999999    2.67000008
   16.88583374   84.66470337    0.44000000    2.67000008
   16.88888931   86.60590363    0.47999999    2.67000008
   16.88944435   89.84770203    0.47999999    2.69000006
   16.89277840   95.98690033    0.50000000    2.67000008
   16.89583397   91.02120209    0.47999999    2.67000008
   16.89916611   88.47509766    0.47999999    2.67000008
   16.90250015   92.01110077    0.47999999    2.67000008
   16.90833282   92.01110077    0.50000000    2.67000008
   16.91250038   83.86329651    0.50000000    2.69000006
   16.91555595   87.83039856    0.50000000    2.67000008
   16.91888809   83.10579681    0.50000000    2.69000006
   16.92222214   86.30850220    0.50000000    2.67000008
   16.92249870   78.43990326    0.50000000    2.67000008
   16.92583275   91.26609802    0.50000000    2.69000006
   16.92888832   95.18389893    0.44000000    2.69000006
   16.93222237   90.67700195    0.44000000    2.67000008
   16.93555450   83.81439972    0.41999999    2.67000008
   16.93861008   88.69280243    0.41999999    2.67000008
   16.94194412   86.67890167    0.38000000    2.67000008
   16.94499969   90.04109955    0.38000000    2.67000008
   16.95111275   90.04109955    0.36000001    2.67000008
   16.95527840   87.14890289    0.34000000    2.67000008
   16.95583344   86.47650146    0.36000001    2.67000008
   16.95888901   84.37370300    0.36000001    2.69000006
   16.96222305   88.37380219    0.38000000    2.67000008
   16.96555710   82.70659637    0.40000001    2.69000006
   16.96861076   80.49240112    0.38000000    2.67000008
   16.97194481   85.62139893    0.38000000    2.67000008
   16.97527885   82.14610291    0.40000001    2.69000006
   16.97833443   76.33689880    0.38000000    2.67000008
   16.98166656   84.30259705    0.40000001    2.67000008
   16.98472214   87.52179718    0.40000001    2.67000008
   16.98805618   90.56929779    0.34000000    2.67000008
   16.98916626   90.51699829    0.34000000    2.67000008
   16.99388885   90.51699829    0.34000000    2.67000008
   16.99805641   87.34429932    0.34000000    2.67000008
   17.00138855   85.41899872    0.31999999    2.67000008
   17.00444412   85.52480316    0.31999999    2.69000006
   17.00777817   93.95529938    0.31999999    2.67000008
   17.01111031   88.97299957    0.31999999    2.67000008
   17.01416588   81.56510162    0.31999999    2.67000008
   17.01749992   86.99299622    0.31999999    2.69000006
   17.02083397   78.03019714    0.30000001    2.67000008
   17.02249908   88.67819977    0.30000001    2.67000008
   17.02444458   85.99379730    0.30000001    2.67000008
   17.02750015   85.64600372    0.30000001    2.67000008
   17.03083229   85.40209961    0.31999999    2.67000008
   17.03694344   85.40209961    0.30000001    2.67000008
   17.04083252   81.43630219    0.31999999    2.67000008
   17.04416656   80.57279968    0.31999999    2.69000006
   17.04749870   83.31860352    0.34000000    2.67000008
   17.05055428   83.04869843    0.36000001    2.67000008
   17.05388832   76.19550323    0.36000001    2.69000006
   17.05583191   80.86859894    0.38000000    2.67000008
   17.05777740   79.81829834    0.36000001    2.67000008
   17.06083298   78.27120209    0.36000001    2.69000006
   17.06416512   81.20800018    0.34000000    2.67000008
   17.06722260   84.94779968    0.34000000    2.67000008
   17.07055664   80.75910187    0.34000000    2.69000006
   17.07389069   86.58419800    0.31999999    2.67000008
   17.07972336   86.58419800    0.31999999    2.67000008
   17.08388901   83.50890350    0.31999999    2.67000008
   17.08694458   86.41570282    0.31999999    2.67000008
   17.08916664   84.75350189    0.34000000    2.67000008
   17.09055710   88.85399628    0.34000000    2.67000008
   17.09388924   83.12390137    0.34000000    2.67000008
   17.09722328   84.88500214    0.31999999    2.67000008
   17.10027885   81.98750305    0.31999999    2.67000008
   17.10361099   90.32230377    0.31999999    2.67000008
   17.10694504   87.21209717    0.31999999    2.67000008
   17.11000061   86.43949890    0.31999999    2.67000008
   17.11333466   89.62149811    0.31999999    2.69000006
   17.11638832   87.04740143    0.31999999    2.67000008
   17.12249947   87.04740143    0.30000001    2.67000008
   17.12666702   81.80860138    0.30000001    2.67000008
   17.12972260   85.92829895    0.30000001    2.67000008
   17.13305473   84.36910248    0.30000001    2.67000008
   17.13638878   83.12570190    0.30000001    2.67000008
   17.13944435   81.25710297    0.30000001    2.67000008
   17.14277840   85.70649719    0.30000001    2.67000008
   17.14611053   85.39800262    0.30000001    2.69000006
   17.14916611   88.68419647    0.30000001    2.67000008
   17.15250015   90.14839935    0.30000001    2.67000008
   17.15555573   87.06410217    0.30000001    2.67000008
   17.15611076   94.94259644    0.30000001    2.67000008
   17.15944481   89.89050293    0.30000001    2.67000008
   17.16527748   89.89050293    0.30000001    2.67000008
   17.16944313   85.11199951    0.30000001    2.67000008
   17.17277718   85.97859955    0.30000001    2.67000008
   17.17583275   81.90390015    0.30000001    2.67000008
   17.17916679   85.06960297    0.30000001    2.67000008
   17.18249893   87.06759644    0.30000001    2.67000008
   17.18555450   92.75650024    0.30000001    2.67000008
   17.18888855   88.30670166    0.30000001    2.69000006
   17.18944359   83.67340088    0.30000001    2.67000008
   17.19249916   89.45169830    0.30000001    2.67000008
   17.19583321   82.93329620    0.30000001    2.67000008
   17.19888878  101.16500092    0.30000001    2.69000006
   17.20222282   91.19889832    0.30000001    2.67000008
   17.20805550   91.19889832    0.34000000    2.67000008
   17.21222305   93.57140350    0.51999998    2.67000008
   17.21555710   85.16960144    0.58999997    2.67000008
   17.21888924   85.90290070    0.61000001    2.67000008
   17.22194481   85.53469849    0.46000001    2.67000008
   17.22277832   87.38449860    0.40000001    2.67000008
   17.22555542   90.02600098    0.40000001    2.67000008
   17.22888947   83.00250244    0.31999999    2.69000006
   17.23194504   84.16670227    0.31999999    2.67000008
   17.23527718   88.42199707    0.34000000    2.69000006
   17.23861122   82.51149750    0.34000000    2.69000006
   17.24166679   86.45520020    0.36000001    2.67000008
   17.24500084   90.53230286    0.36000001    2.67000008
   17.25111198   90.53230286    0.36000001    2.67000008
   17.25527763   80.05339813    0.36000001    2.67000008
   17.25611115   84.03279877    0.36000001    2.67000008
   17.25888824   93.14330292    0.36000001    2.67000008
   17.26222229   90.98179626    0.34000000    2.67000008
   17.26527786   84.63289642    0.31999999    2.67000008
   17.26861000   80.54190063    0.31999999    2.67000008
   17.27194405   87.39980316    0.31999999    2.67000008
   17.27499962   82.46710205    0.31999999    2.67000008
   17.27833366   91.64880371    0.31999999    2.67000008
   17.28166580   84.36239624    0.31999999    2.67000008
   17.28472137   82.42949677    0.34000000    2.69000006
   17.28805542   79.60320282    0.31999999    2.67000008
   17.28944397   78.54499817    0.31999999    2.67000008
   17.29388809   78.54499817    0.31999999    2.67000008
   17.29805565   94.79440308    0.31999999    2.67000008
   17.30138779   87.65129852    0.31999999    2.67000008
   17.30472183   89.76059723    0.30000001    2.67000008
   17.30777740   94.88880157    0.30000001    2.67000008
   17.31110954   90.92839813    0.30000001    2.67000008
   17.31444359   96.88999939    0.30000001    2.67000008
   17.31750107   92.54570007    0.30000001    2.67000008
   17.32083511   84.51750183    0.30000001    2.67000008
   17.32277870   86.45819855    0.28000000    2.67000008
   17.32444572   85.20529938    0.28000000    2.67000008
   17.32777786   81.45249939    0.28000000    2.67000008
   17.33083344   91.99970245    0.30000001    2.67000008
   17.33666801   91.99970245    0.30000001    2.67000008
   17.34083366   87.32939911    0.30000001    2.67000008
   17.34416771   88.28240204    0.30000001    2.67000008
   17.34722328   86.88600159    0.30000001    2.67000008
   17.35055542   87.80870056    0.30000001    2.67000008
   17.35388947   91.08509827    0.30000001    2.67000008
   17.35611153   89.44640350    0.30000001    2.67000008
   17.35750008   87.83740234    0.30000001    2.67000008
   17.36083412   83.85350037    0.30000001    2.67000008
   17.36388969   83.25229645    0.31999999    2.67000008
   17.36722183   82.78500366    0.31999999    2.67000008
   17.37055588   83.58830261    0.31999999    2.67000008
   17.37361145   85.63819885    0.31999999    2.67000008
   17.37944412   85.63819885    0.31999999    2.67000008
   17.38361168   84.50140381    0.31999999    2.67000008
   17.38694382   87.25029755    0.31999999    2.67000008
   17.38972282   82.69899750    0.31999999    2.67000008
   17.39055634   84.18900299    0.31999999    2.67000008
   17.39388847   83.84470367    0.31999999    2.67000008
   17.39694405   84.74379730    0.31999999    2.67000008
   17.40027809   88.01029968    0.31999999    2.67000008
   17.40361023   85.78430176    0.31999999    2.69000006
   17.40666580   90.71060181    0.30000001    2.67000008
   17.40999985   90.33789825    0.30000001    2.67000008
   17.41333389   90.75270081    0.30000001    2.67000008
   17.41638756   89.83010101    0.30000001    2.67000008
   17.42249870   89.83010101    0.31999999    2.67000008
   17.44083214   90.62390137    0.31999999    2.67000008
   17.44416618   81.75579834    0.31999999    2.67000008
   17.44722176   84.20939636    0.34000000    2.67000008
   17.45055580   83.36630249    0.34000000    2.67000008
   17.45361137   80.16850281    0.34000000    2.67000008
   17.45694542   94.48819733    0.34000000    2.67000008
   17.46027946   81.13379669    0.31999999    2.66000009
   17.46527863   81.13379669    0.31999999    2.67000008
   17.46944427   85.11190033    0.34000000    2.67000008
   17.47249985   82.20619965    0.36000001    2.67000008
   17.47389030   87.94480133    0.36000001    2.67000008
   17.47638893   81.61470032    0.36000001    2.67000008
   17.47944450   81.86370087    0.36000001    2.67000008
   17.48277855   88.56819916    0.34000000    2.67000008
   17.48583412   80.32679749    0.34000000    2.67000008
   17.48916626   85.83650208    0.34000000    2.67000008
   17.49250031   88.29280090    0.34000000    2.67000008
   17.49555588   85.02179718    0.31999999    2.67000008
   17.49888992   85.31919861    0.31999999    2.67000008
   17.50222206   90.51840210    0.34000000    2.67000008
   17.50805473   90.51840210    0.34000000    2.67000008
   17.51222229   87.57119751    0.34000000    2.67000008
   17.51555634   87.86209869    0.34000000    2.69000006
   17.51861000   85.32250214    0.34000000    2.67000008
   17.52194405   79.87590027    0.34000000    2.67000008
   17.52527809   85.38890076    0.31999999    2.67000008
   17.52833366   90.01170349    0.31999999    2.67000008
   17.53166580   85.42839813    0.31999999    2.67000008
   17.53499985   90.96839905    0.31999999    2.67000008
   17.53805542   88.79199982    0.31999999    2.67000008
   17.54055595   86.04820251    0.31999999    2.67000008
   17.54194450   89.38480377    0.30000001    2.67000008
   17.54500008   91.10500336    0.30000001    2.67000008
   17.55083275   91.10500336    0.31999999    2.67000008
   17.55499840   89.82610321    0.30000001    2.66000009
   17.55833244   93.35389709    0.31999999    2.67000008
   17.56166649   88.06009674    0.30000001    2.67000008
   17.56472206   89.34269714    0.31999999    2.67000008
   17.56805611   88.97899628    0.31999999    2.67000008
   17.57111168   86.34709930    0.36000001    2.67000008
   17.57389069   86.79689789    0.38000000    2.67000008
   17.57500076   85.61389923    0.36000001    2.67000008
   17.57805634   91.21469879    0.38000000    2.67000008
   17.58139038   85.19020081    0.38000000    2.67000008
   17.58444595   86.00160217    0.38000000    2.67000008
   17.58777809   93.68489838    0.40000001    2.67000008
   17.59388924   93.68489838    0.38000000    2.67000008
   17.59777832   82.02069855    0.36000001    2.67000008
   17.60111237   84.92569733    0.36000001    2.67000008
   17.60444450   82.95480347    0.36000001    2.67000008
   17.60722351   84.75620270    0.36000001    2.67000008
   17.60805511   84.17089844    0.38000000    2.67000008
   17.61111069   83.41429901    0.38000000    2.67000008
   17.61444473   79.55039978    0.38000000    2.67000008
   17.61777878   81.01699829    0.38000000    2.67000008
   17.62083435   84.21459961    0.38000000    2.69000006
   17.62416649   89.64769745    0.38000000    2.67000008
   17.62722206   81.47519684    0.36000001    2.67000008
   17.63055611   89.39530182    0.38000000    2.67000008
   17.63666725   89.39530182    0.36000001    2.67000008
   17.64083290   86.00440216    0.36000001    2.67000008
   17.64388847   82.55020142    0.38000000    2.67000008
   17.64722252   82.30570221    0.36000001    2.67000008
   17.65055466   81.61000061    0.36000001    2.67000008
   17.65361023   85.62069702    0.38000000    2.67000008
   17.65694427   79.43430328    0.36000001    2.67000008
   17.65999985   78.42810059    0.36000001    2.67000008
   17.66333389   90.43920135    0.38000000    2.67000008
   17.66666603   87.99240112    0.36000001    2.67000008
   17.66972160   87.81040192    0.36000001    2.66000009
   17.67305565   83.09609985    0.36000001    2.67000008
   17.67388916   83.46589661    0.36000001    2.67000008
   17.67944336   83.46589661    0.34000000    2.67000008
   17.68361092   86.33260345    0.34000000    2.67000008
   17.68694305   81.37840271    0.34000000    2.67000008
   17.68999863   87.72139740    0.34000000    2.67000008
   17.69333267   84.37640381    0.36000001    2.67000008
   17.69666672   87.61509705    0.34000000    2.67000008
   17.69972038   90.57260132    0.34000000    2.67000008
   17.70305634   83.35939789    0.34000000    2.67000008
   17.70639038   92.93820190    0.34000000    2.67000008
   17.70722389   85.23110199    0.34000000    2.67000008
   17.71000099   92.65920258    0.36000001    2.67000008
   17.71305656   83.45030212    0.36000001    2.67000008
   17.71638870   90.98819733    0.36000001    2.67000008
   17.72222328   90.98819733    0.36000001    2.67000008
   17.72638893   86.46340179    0.34000000    2.67000008
   17.72972298   85.62419891    0.34000000    2.67000008
   17.73277855   83.82109833    0.34000000    2.67000008
   17.73611069   86.73850250    0.34000000    2.66000009
   17.73944473   83.37020111    0.31999999    2.67000008
   17.74055672   87.21859741    0.31999999    2.67000008
   17.74305534   97.31909943    0.34000000    2.67000008
   17.74638939   89.78469849    0.34000000    2.67000008
   17.74944496   84.33270264    0.34000000    2.67000008
   17.75277710   85.63929749    0.34000000    2.67000008
   17.75583267   87.38839722    0.31999999    2.67000008
   17.75916672   84.63729858    0.31999999    2.66000009
   17.76527786   84.63729858    0.36000001    2.66000009
   17.76916695   81.83589935    0.36000001    2.67000008
   17.77249908   81.91799927    0.36000001    2.67000008
   17.77388954   82.90280151    0.36000001    2.66000009
   17.77611160   84.91030121    0.40000001    2.67000008
   17.77916718   86.43479919    0.41999999    2.66000009
   17.78249931   85.87169647    0.44000000    2.66000009
   17.78583336   85.22100067    0.41999999    2.67000008
   17.78888893   84.63899994    0.44000000    2.67000008
   17.79222107   86.64769745    0.44000000    2.67000008
   17.79555511   84.26930237    0.46000001    2.67000008
   17.79861069   82.22460175    0.44000000    2.67000008
   17.80194283   86.41649628    0.46000001    2.66000009
   17.80805397   86.41649628    0.46000001    2.66000009
   17.81222153   86.34059906    0.46000001    2.67000008
   17.81527710   94.76490021    0.46000001    2.66000009
   17.81861115   89.29589844    0.47999999    2.67000008
   17.82194519   92.66380310    0.47999999    2.66000009
   17.82500076   86.12590027    0.47999999    2.67000008
   17.82833481   93.35710144    0.47999999    2.67000008
   17.83166695   80.87740326    0.47999999    2.67000008
   17.83472252   82.58370209    0.44000000    2.66000009
   17.83805656   85.36060333    0.44000000    2.67000008
   17.84055710   85.15820313    0.44000000    2.66000009
   17.84166718   95.02500153    0.44000000    2.66000009
   17.84472275   87.81320190    0.41999999    2.67000008
   17.85083389   87.81320190    0.44000000    2.67000008
   17.85499954   91.01370239    0.46000001    2.67000008
   17.85833359   89.69370270    0.44000000    2.66000009
   17.86138916   93.62809753    0.44000000    2.67000008
   17.86472321   96.77300262    0.44000000    2.66000009
   17.86777878   90.77110291    0.41999999    2.66000009
   17.87111092   99.08300018    0.41999999    2.67000008
   17.87388992   94.13289642    0.41999999    2.66000009
   17.87472153   94.58540344    0.44000000    2.66000009
   17.87777710   93.80449677    0.44000000    2.66000009
   17.88111115   95.58489990    0.44000000    2.67000008
   17.88444519   91.02030182    0.44000000    2.66000009
   17.88750076   85.75720215    0.41999999    2.67000008
   17.89361191   85.75720215    0.44000000    2.67000008
   17.89777756   92.15200043    0.41999999    2.67000008
   17.90111160   88.92060089    0.40000001    2.67000008
   17.90444374   91.80380249    0.40000001    2.67000008
   17.90722275   90.30120087    0.40000001    2.67000008
   17.90805435   94.91079712    0.40000001    2.66000009
   17.91138840   89.77700043    0.40000001    2.67000008
   17.91444397   92.21710205    0.40000001    2.66000009
   17.91777802   94.69629669    0.40000001    2.66000009
   17.92083359   89.50189972    0.40000001    2.67000008
   17.92416573   86.95520020    0.41999999    2.66000009
   17.92749977   91.60759735    0.47999999    2.67000008
   17.93055534   96.63659668    0.47999999    2.66000009
   17.93666649   96.63659668    0.79000002    2.66000009
   17.94083214   85.19850159    1.09000003    2.66000009
   17.94388771   94.69029999    1.28999996    2.66000009
   17.94722176   86.46430206    1.36000001    2.66000009
   17.95055580   90.85359955    3.34999990    2.66000009
   17.95361137   94.77610016    4.90999985    2.66000009
   17.95694542   91.03700256    4.90999985    2.66000009
   17.96000099   97.32939911    4.90999985    2.53999996
   17.96333504  138.12899780    4.90999985    2.51999998
   17.96666718  126.70200348    4.90999985    2.25000000
   17.96972275   -1.00000000    4.90999985    1.98000002
   17.97305679   -1.00000000    4.90999985    1.58000004
   17.97944450   -1.00000000    4.90999985    1.85000002
   17.98361206   89.58740234    0.34000000    0.36000001
   17.98666763   88.70020294    0.09000000    0.13000000
   17.98999977   92.72940063    0.09000000    0.13000000
   17.99333382   83.80079651    0.09000000    0.13000000
   17.99638939   89.12490082    0.09000000    0.13000000
   17.99972153   83.06700134    0.09000000    0.13000000
   18.00277710   85.77799988    0.09000000    0.13000000
   18.00611115   86.86879730    0.09000000    0.13000000
   18.00722313   85.06400299    0.09000000    0.13000000
   18.00972176   86.42700195    0.09000000    0.13000000
   18.01277733   90.78639984    0.09000000    0.13000000
   18.01611137   89.38849640    0.09000000    0.13000000
   18.02222252   89.38849640    0.09000000    0.13000000
   18.02638817   91.63459778    0.09000000    0.13000000
   18.02972221   92.64399719    0.09000000    0.13000000
   18.03277779   90.52330017    0.09000000    0.13000000
   18.03610992   86.80449677    0.09000000    0.13000000
   18.03916550   83.68579865    0.09000000    0.13000000
   18.04055595   83.53890228    0.09000000    0.13000000
   18.04305458   81.17939758    0.09000000    0.13000000
   18.04611015   88.11769867    0.09000000    0.13000000
   18.04944420   80.53220367    0.09000000    0.13000000
   18.05277634   88.21610260    0.09000000    0.13000000
   18.05583191   84.48320007    0.09000000    0.13000000
   18.05916595   83.84649658    0.09000000    0.13000000
   18.06499863   83.84649658    0.09000000    0.13000000
   18.06916809   80.88670349    0.09000000    0.13000000
   18.07250023   78.44090271    0.09000000    0.13000000
   18.07389069   85.49060059    0.09000000    0.13000000
   18.07611275   90.36180115    0.09000000    0.13000000
   18.07916832   82.59629822    0.09000000    0.13000000
   18.08250046   83.99579620    0.09000000    0.13000000
   18.08583450   76.85790253    0.09000000    0.13000000
   18.08889008   80.88619995    0.09000000    0.13000000
   18.09222221   82.98339844    0.09000000    0.13000000
   18.09555626   80.92070007    0.09000000    0.13000000
   18.09861183   86.69159698    0.09000000    0.13000000
   18.10194397   87.25299835    0.09000000    0.13000000
   18.10805511   87.25299835    0.09000000    0.13000000
   18.11194420   82.26560211    0.09000000    0.13000000
   18.11527824   80.68460083    0.09000000    0.13000000
   18.11861038   79.51200104    0.09000000    0.13000000
   18.12166595   84.43470001    0.09000000    0.13000000
   18.12500000   86.88359833    0.09000000    0.13000000
   18.12833405   88.82569885    0.09000000    0.13000000
   18.13138962   83.20449829    0.09000000    0.13000000
   18.13472176   85.02230072    0.09000000    0.13000000
   18.13777733   79.32309723    0.09000000    0.13000000
   18.14055634   91.00009918    0.09000000    0.13000000
   18.14166641   85.39209747    0.09000000    0.13000000
   18.14500046   82.32740021    0.09000000    0.13000000
   18.15083313   82.32740021    0.09000000    0.13000000
   18.15499878   81.58200073    0.09000000    0.13000000
   18.15805435   89.36340332    0.09000000    0.13000000
   18.16138840   86.85009766    0.09000000    0.13000000
   18.16472244   86.08200073    0.09000000    0.13000000
   18.16777802   86.10510254    0.09000000    0.13000000
   18.17111015   86.78040314    0.09000000    0.13000000
   18.17388916   84.24369812    0.09000000    0.13000000
   18.17472076   84.40309906    0.09000000    0.13000000
   18.17805481   84.61170197    0.09000000    0.13000000
   18.18111038   88.65219879    0.09000000    0.13000000
   18.18444443   89.50270081    0.09000000    0.13000000
   18.18750000   82.75319672    0.09000000    0.13000000
   18.19361115   82.75319672    0.09000000    0.13000000
   18.19777679   85.05650330    0.09000000    0.13000000
   18.20111275   84.19960022    0.09000000    0.13000000
   18.20416832   71.21839905    0.09000000    0.13000000
   18.20722389   93.37860107    0.09000000    0.13000000
   18.20777893   93.69049835    0.09000000    0.13000000
   18.21111107   90.78759766    0.09000000    0.13000000
   18.21416664   91.15059662    0.09000000    0.13000000
   18.21750069   84.49980164    0.09000000    0.13000000
   18.22055626   88.82659912    0.09000000    0.13000000
   18.22389030   93.56109619    0.09000000    0.13000000
   18.22722244   87.82479858    0.09000000    0.13000000
   18.23027802   80.43080139    0.09000000    0.13000000
   18.23638916   80.43080139    0.09000000    0.13000000
   18.24055672   82.01940155    0.09000000    0.13000000
   18.24111176   81.93170166    0.09000000    0.13000000
   18.24444389   83.21630096    0.09000000    0.13000000
   18.24749947   81.71939850    0.09000000    0.13000000
   18.25083351   88.17050171    0.09000000    0.13000000
   18.25388908   78.28749847    0.09000000    0.13000000
   18.25722313   84.11830139    0.09000000    0.13000000
   18.26055527   85.32129669    0.09000000    0.13000000
   18.26361084   86.88390350    0.09000000    0.13000000
   18.26694489   89.43920135    0.09000000    0.13000000
   18.27027702   90.47299957    0.09000000    0.13000000
   18.27333260   86.87519836    0.09000000    0.13000000
   18.27388954   86.21320343    0.09000000    0.13000000
   18.27944374   86.21320343    0.09000000    0.13000000
   18.28333282   92.36470032    0.09000000    0.13000000
   18.28666687   83.71130371    0.09000000    0.13000000
   18.28999901   90.24569702    0.09000000    0.13000000
   18.29305458   98.18520355    0.09000000    0.13000000
   18.29638863   84.78379822    0.09000000    0.13000000
   18.29972076   86.36389923    0.09000000    0.13000000
   18.30277634   89.65930176    0.09000000    0.13000000
   18.30611038   81.36270142    0.09000000    0.13000000
   18.30722237   87.27619934    0.09000000    0.13000000
   18.30972099   86.16269684    0.09000000    0.13000000
   18.31305504   92.98570251    0.09000000    0.13000000
   18.31611061   86.13829803    0.09000000    0.13000000
   18.32222366   86.13829803    0.09000000    0.13000000
   18.32638931   82.69830322    0.09000000    0.13000000
   18.32944489   89.19170380    0.09000000    0.13000000
   18.33277893   85.40350342    0.09000000    0.13000000
   18.33611107   82.76239777    0.09000000    0.13000000
   18.33916664   81.86389923    0.09000000    0.13000000
   18.34055710   84.48539734    0.09000000    0.13000000
   18.34277916   80.97660065    0.09000000    0.13000000
   18.34611130   77.57499695    0.09000000    0.13000000
   18.34916687   79.31089783    0.09000000    0.13000000
   18.35250092   85.96050262    0.09000000    0.13000000
   18.35583305   90.00769806    0.09000000    0.13000000
   18.35888863   84.26850128    0.09000000    0.13000000
   18.36499977   84.26850128    0.09000000    0.13000000
   18.36916733   98.74669647    0.09000000    0.13000000
   18.37249947  106.28199768    0.09000000    0.13000000
   18.37388992  112.51300049    0.09000000    0.13000000
   18.37611198   99.08439636    0.09000000    0.13000000
   18.37944412  119.56600189    0.09000000    0.13000000
   18.38249969   90.30889893    0.09000000    0.13000000
   18.38583374  100.68000031    0.09000000    0.13000000
   18.38916588  105.07399750    0.09000000    0.13000000
   18.39222145   96.30059814    0.09000000    0.13000000
   18.39555550   78.52860260    0.09000000    0.13000000
   18.39861107   96.25180054    0.09000000    0.13000000
   18.40194321   90.33779907    0.09000000    0.13000000
   18.40777779   90.33779907    0.09000000    0.13000000
   18.41194344   82.30380249    0.09000000    0.13000000
   18.41527748   86.12809753    0.09000000    0.13000000
   18.41833305   86.26280212    0.09000000    0.13000000
   18.42166519   89.25009918    0.09000000    0.13000000
   18.42499924   83.51770020    0.09000000    0.13000000
   18.42805481   85.75209808    0.09000000    0.13000000
   18.43138885   87.52850342    0.09000000    0.13000000
   18.43472099   77.14779663    0.09000000    0.13000000
   18.43777657   83.45839691    0.09000000    0.13000000
   18.44055557   81.02539825    0.09000000    0.13000000
   18.45750046   79.34510040    0.09000000    0.13000000
   18.46166801   79.34510040    0.09000000    0.13000000
   18.46583366   81.95089722    0.09000000    0.13000000
   18.46916771   86.97640228    0.09000000    0.13000000
   18.47222328   84.23449707    0.09000000    0.13000000
   18.47416687   84.83850098    0.09000000    0.13000000
   18.47611237   78.02860260    0.09000000    0.13000000
   18.47944450   82.32869720    0.09000000    0.13000000
   18.48250008   76.92710114    0.09000000    0.13000000
   18.48583412   76.82630157    0.09000000    0.13000000
   18.48888969   82.41840363    0.09000000    0.13000000
   18.49222183   81.39839935    0.09000000    0.13000000
   18.49555588   81.80609894    0.09000000    0.13000000
   18.49861145   76.52330017    0.09000000    0.13000000
   18.50472260   76.52330017    0.09000000    0.13000000
   18.50861168   78.54640198    0.09000000    0.13000000
   18.51194382   76.51429749    0.09000000    0.13000000
   18.51527786   77.81369781    0.09000000    0.13000000
   18.51833344   78.78929901    0.09000000    0.13000000
   18.52166557   77.04129791    0.09000000    0.13000000
   18.52499962   81.09480286    0.09000000    0.13000000
   18.52805519   75.16609955    0.09000000    0.13000000
   18.53138924   73.28320313    0.09000000    0.13000000
   18.53444481   80.18309784    0.09000000    0.13000000
   18.53777695   81.67829895    0.09000000    0.13000000
   18.54083252   85.81069946    0.09000000    0.13000000
   18.54138756   83.41449738    0.09000000    0.13000000
   18.54749870   83.41449738    0.09000000    0.13000000
   18.55166626   83.10089874    0.09000000    0.13000000
   18.55472183   75.70069885    0.09000000    0.13000000
   18.55805397   80.71219635    0.09000000    0.13000000
   18.56138802   86.91680145    0.09000000    0.13000000
   18.56444359   84.75779724    0.09000000    0.13000000
   18.56777954   81.21690369    0.09000000    0.13000000
   18.57111168   84.65730286    0.09000000    0.13000000
   18.57416725   82.25039673    0.09000000    0.13000000
   18.57472229   79.87139893    0.09000000    0.13000000
   18.57777786   80.73829651    0.09000000    0.13000000
   18.58111191   81.54460144    0.09000000    0.13000000
   18.58472252   77.17070007    0.09000000    0.13000000
   18.59027863   77.17070007    0.09000000    0.13000000
   18.59444427   78.18640137    0.09000000    0.13000000
   18.59777832   83.51529694    0.09000000    0.13000000
   18.60083389   76.48789978    0.09000000    0.13000000
   18.60416794   76.77110291    0.09000000    0.13000000
   18.60722351   80.26460266    0.09000000    0.13000000
   18.60777855   74.55370331    0.09000000    0.13000000
   18.61111069   80.56759644    0.09000000    0.13000000
   18.61444473   79.90779877    0.09000000    0.13000000
   18.61750031   74.98760223    0.09000000    0.13000000
   18.62083435   78.07890320    0.09000000    0.13000000
   18.62416649   81.48889923    0.09000000    0.13000000
   18.62722206   77.24690247    0.09000000    0.13000000
   18.63305473   77.24690247    0.09000000    0.13000000
   18.63722229   73.68640137    0.09000000    0.13000000
   18.64055634   79.05410004    0.09000000    0.13000000
   18.64111137   81.21669769    0.09000000    0.13000000
   18.64416695   80.55950165    0.09000000    0.13000000
   18.64749908   82.01709747    0.09000000    0.13000000
   18.65055466   86.18769836    0.09000000    0.13000000
   18.65388870   75.98889923    0.09000000    0.13000000
   18.65722275   81.66960144    0.09000000    0.13000000
   18.66027832   79.08910370    0.09000000    0.13000000
   18.66361046   79.72429657    0.09000000    0.13000000
   18.66694450   75.26349640    0.09000000    0.13000000
   18.67000008   76.33219910    0.09000000    0.13000000
   18.67611122   76.33219910    0.09000000    0.13000000
   18.68000031   79.04779816    0.09000000    0.13000000
   18.68333244   74.73880005    0.09000000    0.13000000
   18.68666649   79.33270264    0.09000000    0.13000000
   18.68972206   78.66829681    0.09000000    0.13000000
   18.69305420   78.51920319    0.09000000    0.13000000
   18.69638824   86.57389832    0.09000000    0.13000000
   18.69944382   72.94940186    0.09000000    0.13000000
   18.70277786   79.51049805    0.09000000    0.13000000
   18.70583344   81.66619873    0.09000000    0.13000000
   18.70777893   79.72149658    0.09000000    0.13000000
   18.70972252   79.97820282    0.09000000    0.13000000
   18.71305656   78.84310150    0.09000000    0.13000000
   18.71888924   78.84310150    0.09000000    0.13000000
   18.72305679   80.51850128    0.09000000    0.13000000
   18.72611237   80.85389709    0.09000000    0.13000000
   18.72944450   82.23930359    0.09000000    0.13000000
   18.73277855   79.96369934    0.09000000    0.13000000
   18.73583412   81.49469757    0.09000000    0.13000000
   18.73916626   79.21610260    0.09000000    0.13000000
   18.74111176   77.21589661    0.09000000    0.13000000
   18.74277878   77.84390259    0.09000000    0.13000000
   18.74611092   80.45089722    0.09000000    0.13000000
   18.74916649   81.01490021    0.09000000    0.13000000
   18.75250053   81.28389740    0.09000000    0.13000000
   18.75583267   76.08540344    0.09000000    0.13000000
   18.76166725   76.08540344    0.09000000    0.13000000
   18.76583290   80.49880219    0.09000000    0.13000000
   18.76916695   77.17410278    0.09000000    0.13000000
   18.77222252   79.73339844    0.09000000    0.13000000
   18.77444458   75.81580353    0.09000000    0.13000000
   18.77583313   84.23979950    0.09000000    0.13000000
   18.77916718   83.12689972    0.09000000    0.13000000
   18.78222275   76.94609833    0.09000000    0.13000000
   18.78555489   77.72229767    0.09000000    0.13000000
   18.78888893   78.24500275    0.09000000    0.13000000
   18.79194450   82.19400024    0.09000000    0.13000000
   18.79527664   80.03130341    0.09000000    0.13000000
   18.79833221   88.71749878    0.09000000    0.13000000
   18.80444336   88.71749878    0.09000000    0.13000000
   18.80861092   76.83390045    0.09000000    0.13000000
   18.81194305   87.90840149    0.09000000    0.13000000
   18.81499863   76.34439850    0.09000000    0.13000000
   18.81833458   79.96360016    0.09000000    0.13000000
   18.82166672   75.30359650    0.09000000    0.13000000
   18.82472229   94.03179932    0.09000000    0.13000000
   18.82805634   81.26889801    0.09000000    0.13000000
   18.83139038   79.03179932    0.09000000    0.13000000
   18.83444595   82.68560028    0.09000000    0.13000000
   18.83777809   82.37249756    0.09000000    0.13000000
   18.84083366   86.00869751    0.09000000    0.13000000
   18.84138870   85.36840057    0.09000000    0.13000000
   18.84749985   85.36840057    0.09000000    0.13000000
