    HOUR (UT)   FLARE FACTOR    SKY TESTER    SUN TESTER
   11.73083305   -1.00000000   -1.00000000   -1.00000000
   11.75361156  201.23699951    4.90999985    1.66999996
   11.75888920   -1.00000000    4.90999985    1.69000006
   11.76222229   -1.00000000    4.90999985    1.69000006
   11.76527786  220.83200073    4.90999985    1.69000006
   11.76861095  211.28300476    4.90999985    1.71000004
   11.77166653  197.87100220    4.90999985    1.71000004
   11.77499962  176.80700684    4.90999985    1.73000002
   11.77833271  184.50700378    4.90999985    1.71000004
   11.78138828  175.30499268    4.90999985    1.73000002
   11.78472233  209.34800720    4.90999985    1.73000002
   11.78694534  186.15299988    4.90999985    1.73000002
   11.78833389  223.54200745    4.90999985    1.73000002
   11.79166698  186.69500732    4.90999985    1.73000002
   11.79472256  172.51600647    4.90999985    1.75000000
   11.79805565  188.57299805    4.90999985    1.75000000
   11.80138874  189.93499756    4.90999985    1.75000000
   11.80444431  169.89799500    4.90999985    1.75000000
   11.80777836  171.46000671    4.90999985    1.76999998
   11.81111145  171.58900452    4.90999985    1.76999998
   11.81416702  176.52299500    4.90999985    1.76999998
   11.81750011  159.56900024    4.90999985    1.76999998
   11.82027817  169.24400330    4.90999985    1.76999998
   11.82111073  163.86099243    4.90999985    1.78999996
   11.82444477  181.24400330    4.90999985    1.78999996
   11.82777786  164.76400757    4.90999985    1.78999996
   11.83083344  169.82699585    4.90999985    1.78999996
   11.83416653  189.53700256    4.90999985    1.78999996
   11.83722210  157.39100647    4.90999985    1.78999996
   11.84055519  160.19299316    4.90999985    1.80999994
   11.84388828  197.30799866    4.90999985    1.80999994
   11.84694386  168.26899719    4.90999985    1.83000004
   11.85027790  165.61199951    4.90999985    1.80999994
   11.85361195  159.82200623    4.90999985    1.83000004
   11.85388947  155.33500671    4.90999985    1.83000004
   11.85722256  173.18099976    4.90999985    1.83000004
   11.86055565  154.50500488    4.90999985    1.83000004
   11.86361122  168.41600037    4.90999985    1.83000004
   11.86694431  164.94999695    4.90999985    1.83000004
   11.86999989  151.95899963    4.90999985    1.85000002
   11.87333393  161.21400452    4.90999985    1.85000002
   11.87666702  164.14700317    4.90999985    1.85000002
   11.87972260  165.30900574    4.90999985    1.85000002
   11.88305569  160.05499268    4.90999985    1.85000002
   11.88638878  151.80000305    4.90999985    1.86000001
   11.88694477  173.97399902    4.90999985    1.86000001
   11.88972187  144.61399841    4.90999985    1.86000001
   11.89305496  150.11399841    4.90999985    1.86000001
   11.89638901  140.96099854    4.90999985    1.86000001
   11.89944458  154.40100098    4.90999985    1.86000001
   11.90277767  166.65499878    4.90999985    1.86000001
   11.90583324  153.83999634    4.90999985    1.86000001
   11.90916634  154.33000183    4.90999985    1.88000000
   11.91249943  133.91000366    4.90999985    1.88000000
   11.91555500  140.94500732    4.90999985    1.88000000
   11.91888905  133.46400452    4.90999985    1.88000000
   11.92027855  135.30700684    4.90999985    1.88000000
   11.92250061  122.64800262    4.90999985    1.89999998
   11.92583370  138.52600098    4.90999985    1.89999998
   11.92916679  152.07000732    4.90999985    1.89999998
   11.93222237  141.74299622    4.90999985    1.89999998
   11.93555546  152.77200317    4.90999985    1.89999998
   11.93888855  142.10600281    4.90999985    1.91999996
   11.94194412  130.93200684    4.90999985    1.91999996
   11.94527817  118.40000153    4.90999985    1.91999996
   11.94861126  137.55599976    4.90999985    1.91999996
   11.95166683  129.19999695    4.90999985    1.94000006
   11.95361137  132.80200195    4.90999985    1.94000006
   11.95527744  131.52499390    4.90999985    1.94000006
   11.95861053  136.39900208    4.90999985    1.94000006
   11.96194458  133.83200073    4.90999985    1.94000006
   11.96500015  132.24699402    4.90999985    1.94000006
   11.96833324  134.53799438    4.90999985    1.94000006
   11.97166634  137.91600037    4.90999985    1.94000006
   11.97472191  128.33200073    4.90999985    1.94000006
   11.97805500  123.95200348    4.90999985    1.96000004
   11.98111057  121.33100128    4.90999985    1.96000004
   11.98444462  121.05000305    4.90999985    1.96000004
   11.98694515  135.40400696    4.90999985    1.96000004
   11.98805618  138.03900146    4.90999985    1.96000004
   11.99138927  144.23699951    4.90999985    1.98000002
   11.99472237  153.24299622    4.90999985    1.96000004
   11.99777794  134.28900146    4.90999985    1.96000004
   12.00111103  139.34100342    4.90999985    1.98000002
   12.00444412  133.80999756    4.90999985    1.98000002
   12.00749969  131.91099548    4.90999985    1.98000002
   12.01083374  124.43499756    4.90999985    1.98000002
   12.01388931  125.46499634    4.90999985    1.98000002
   12.01722240  102.17600250    4.90999985    2.00000000
   12.02027798  109.58200073    4.90999985    2.00000000
   12.02083302  128.55000305    4.90999985    2.00000000
   12.02416611  117.90399933    4.90999985    2.00000000
   12.02750015  124.27999878    4.90999985    2.00000000
   12.03055573  116.01899719    4.90999985    2.00000000
   12.03388977  126.61599731    4.90999985    2.01999998
   12.03722286  121.75000000    4.90999985    2.00000000
   12.04027843  119.33699799    4.90999985    2.01999998
   12.04361153  113.43699646    4.90999985    2.01999998
   12.04666710  113.73300171    4.90999985    2.01999998
   12.05000019  116.35900116    4.90999985    2.01999998
   12.05333328  111.30400085    4.90999985    2.01999998
   12.05388927  113.72699738    4.90999985    2.01999998
   12.05694485  118.14499664    4.90999985    2.01999998
   12.06027794  123.10600281    4.90999985    2.01999998
   12.06361103  116.25599670    4.90999985    2.03999996
   12.06666660  114.37300110    4.90999985    2.03999996
   12.06999969  124.66400146    4.90999985    2.03999996
   12.07305527  123.23699951    4.90999985    2.03999996
   12.07638836  115.76899719    4.90999985    2.03999996
   12.07972240  117.68800354    4.90999985    2.03999996
   12.08277798  121.47299957    4.90999985    2.05999994
   12.08611107  113.50000000    4.90999985    2.05999994
   12.08722210  117.41799927    4.90999985    2.05999994
   12.08972168  108.08599854    4.90999985    2.05999994
   12.09305477  117.66999817    4.90999985    2.05999994
   12.09638882  123.17400360    4.90999985    2.05999994
   12.09944439  126.02799988    4.90999985    2.05999994
   12.10277843  106.92099762    4.90999985    2.07999992
   12.10583401  124.90599823    4.90999985    2.05999994
   12.10916710  120.33799744    4.90999985    2.07999992
   12.11250019  138.08900452    4.90999985    2.07999992
   12.11555576  131.30200195    4.90999985    2.07999992
   12.11888885  120.13200378    4.90999985    2.07999992
   12.12055588  116.65699768    4.90999985    2.07999992
   12.12250042  114.78800201    4.90999985    2.07999992
   12.12583351  119.41600037    4.90999985    2.09999990
   12.12916660  110.89099884    4.90999985    2.07999992
   12.13222218  100.28299713    4.90999985    2.09999990
   12.13555527  109.90000153    4.90999985    2.09999990
   12.13861084  101.93000031    4.90999985    2.09999990
   12.14194393   91.42980194    4.90999985    2.09999990
   12.14527798   90.87740326    4.90999985    2.09999990
   12.14833355   82.93859863    4.90999985    2.09999990
   12.15166664  102.93399811    4.90999985    2.09999990
   12.15388870  114.98100281    4.90999985    2.09999990
   12.15527725  112.67400360    4.90999985    2.09999990
   12.15861034  105.65499878    4.90999985    2.09999990
   12.16194439  114.39600372    4.90999985    2.11999989
   12.16499996  119.09799957    4.90999985    2.09999990
   12.16833401  115.47499847    4.90999985    2.11999989
   12.17138958  123.93399811    4.90999985    2.11999989
   12.17472267  125.99600220    4.90999985    2.11999989
   12.17805576  124.03700256    4.90999985    2.11999989
   12.18111134  104.11900330    4.90999985    2.11999989
   12.18444443   94.21019745    4.90999985    2.13000011
   12.18722248  105.53199768    4.90999985    2.11999989
   12.18805599  114.78500366    4.90999985    2.15000010
   12.19138908   97.53299713    4.90999985    2.13000011
   12.19472218  110.23899841    4.90999985    2.13000011
   12.19777775   85.95929718    4.90999985    2.11999989
   12.20111084  112.71499634    4.90999985    2.15000010
   12.20416641   88.48509979    4.90999985    2.15000010
   12.20749950  108.29399872    4.90999985    2.15000010
   12.21083355  104.78800201    4.90999985    2.13000011
   12.21388912  117.70300293    4.90999985    2.15000010
   12.21722221  111.48600006    4.90999985    2.15000010
   12.22055531  109.15000153    4.90999985    2.15000010
   12.22083282  121.98400116    4.90999985    2.15000010
   12.22416592  117.80200195    4.90999985    2.15000010
   12.22749996  108.01899719    4.90999985    2.15000010
   12.23055553  111.20999908    4.90999985    2.15000010
   12.23388958  107.28900146    4.90999985    2.15000010
   12.23694515  114.84200287    4.90999985    2.15000010
   12.24027824  106.55300140    4.90999985    2.17000008
   12.24361134  112.27300262    4.90999985    2.17000008
   12.24666691  109.17900085    4.90999985    2.17000008
   12.25000000  114.01399994    4.90999985    2.17000008
   12.25333309  103.40100098    4.90999985    2.17000008
   12.25388908  102.08499908    4.90999985    2.17000008
   12.25666714  108.33999634    4.90999985    2.17000008
   12.26000023   99.76450348    4.90999985    2.17000008
   12.26333332  101.22399902    4.90999985    2.17000008
   12.26638889  118.19200134    4.90999985    2.17000008
   12.26972198  105.84500122    4.90999985    2.17000008
   12.27305508  114.02300262    4.90999985    2.17000008
   12.27611065  115.27200317    4.90999985    2.19000006
   12.27944374  109.41100311    4.90999985    2.19000006
   12.28277779  109.96099854    4.90999985    2.19000006
   12.28583336  115.11000061    4.90999985    2.19000006
   12.28722286  108.87999725    4.90999985    2.17000008
   12.28944492  106.85600281    4.90999985    2.19000006
   12.29277802  116.84799957    4.90999985    2.19000006
   12.29611111  112.83599854    4.90999985    2.19000006
   12.29916668  122.48899841    4.90999985    2.19000006
   12.30249977  118.18000031    4.90999985    2.19000006
   12.30555534  116.93099976    4.90999985    2.19000006
   12.30888939  121.64299774    4.90999985    2.21000004
   12.31222248  117.11599731    4.90999985    2.21000004
   12.31527805  118.78500366    4.90999985    2.21000004
   12.31861115  111.25800323    4.90999985    2.21000004
   12.32055569  103.53099823    4.90999985    2.21000004
   12.32222176  112.34799957    4.90999985    2.21000004
   12.32555580  115.16600037    4.90999985    2.21000004
   12.32888889  123.93099976    4.90999985    2.21000004
   12.33194447  118.79900360    4.90999985    2.21000004
   12.33527756  119.09600067    4.90999985    2.23000002
   12.33861065  120.15100098    4.90999985    2.23000002
   12.34166622  115.48200226    4.90999985    2.23000002
   12.34499931  118.95700073    4.90999985    2.23000002
   12.34805489  113.35900116    4.90999985    2.23000002
   12.35138893  115.42600250    4.90999985    2.23000002
   12.35388947  119.19899750    4.90999985    2.23000002
   12.35500050  115.40499878    4.90999985    2.23000002
   12.35833359  113.45700073    4.90999985    2.23000002
   12.36166668  112.17800140    4.90999985    2.23000002
   12.36472225  129.03399658    4.90999985    2.23000002
   12.36805534  113.22799683    4.90999985    2.25000000
   12.37138939  115.16600037    4.90999985    2.25000000
   12.37444496  122.58499908    4.90999985    2.23000002
   12.37777805  114.59500122    4.90999985    2.25000000
   12.38083363  116.70700073    4.90999985    2.23000002
   12.38416672  111.25800323    4.90999985    2.25000000
   12.38722229  129.35400391    4.90999985    2.25000000
   12.38777733  115.52999878    4.90999985    2.25000000
   12.39111137  112.18099976    4.90999985    2.25000000
   12.39444447  113.77899933    4.90999985    2.25000000
   12.39750004  115.27999878    4.90999985    2.25000000
   12.40083313  110.23999786    4.90999985    2.25000000
   12.40416622  113.83100128    4.90999985    2.25000000
   12.40722179  116.14199829    4.90999985    2.25000000
   12.41055489  123.24500275    4.90999985    2.26999998
   12.41361046  113.81800079    4.90999985    2.25000000
   12.41694450  116.05100250    4.90999985    2.26999998
   12.42027855  113.14900208    4.90999985    2.26999998
   12.42083359  114.29000092    4.90999985    2.26999998
   12.42388916  105.60600281    4.90999985    2.26999998
   12.42722225  114.81099701    4.90999985    2.26999998
   12.43055630  121.64900208    4.90999985    2.26999998
   12.43361092  115.26100159    4.90999985    2.26999998
   12.43694496  123.77400208    4.90999985    2.26999998
   12.44027805  115.44799805    4.90999985    2.26999998
   12.44333363  127.87899780    4.90999985    2.26999998
   12.44666672  126.94499969    4.90999985    2.26999998
   12.44999981  114.58899689    4.90999985    2.28999996
   12.45305538  118.26399994    4.90999985    2.26999998
   12.45416641  114.16200256    4.90999985    2.26999998
   12.45666695  116.11399841    4.90999985    2.28999996
   12.46000004  113.79000092    4.90999985    2.28999996
   12.46333313  116.00900269    4.90999985    2.28999996
   12.46638870  116.54000092    4.90999985    2.28999996
   12.46972179  110.93800354    4.90999985    2.28999996
   12.47277737  113.29000092    4.90999985    2.28999996
   12.47611046  117.20999908    4.90999985    2.28999996
   12.47944355  113.36100006    4.90999985    2.28999996
   12.48249912  111.03199768    4.90999985    2.28999996
   12.48583317  111.45700073    4.90999985    2.28999996
   12.48750019  110.20300293    4.90999985    2.30999994
   12.48944473  109.05500031    4.90999985    2.28999996
   12.49277782  111.26399994    4.90999985    2.28999996
   12.49611092  105.26699829    4.90999985    2.30999994
   12.49916649  116.54299927    4.90999985    2.30999994
   12.50249958  119.31700134    4.90999985    2.30999994
   12.50555515  106.50800323    4.90999985    2.30999994
   12.50888920  107.17400360    4.90999985    2.30999994
   12.51222229  111.96600342    4.90999985    2.30999994
   12.51527786  111.42099762    4.90999985    2.30999994
   12.51861095  108.88200378    4.90999985    2.30999994
   12.52083302  113.76699829    4.90999985    2.32999992
   12.52222157  109.95400238    4.90999985    2.32999992
   12.52555561  105.68800354    4.90999985    2.30999994
   12.52888870  114.43699646    4.90999985    2.30999994
   12.53194427  102.01200104    4.90999985    2.32999992
   12.53527832  105.44999695    4.90999985    2.30999994
   12.53833389  104.92299652    4.90999985    2.32999992
   12.54166698  111.55699921    4.90999985    2.32999992
   12.54500008  104.11499786    4.90999985    2.32999992
   12.54805565  113.96600342    4.90999985    2.30999994
   12.55138874  107.48600006    4.90999985    2.32999992
   12.55416679  113.15599823    4.90999985    2.32999992
   12.55500031  106.65399933    4.90999985    2.32999992
   12.55833340  108.79299927    4.90999985    2.32999992
   12.56166649  106.80000305    4.90999985    2.32999992
   12.56472206  107.21800232    4.90999985    2.32999992
   12.56805515  113.64399719    4.90999985    2.32999992
   12.57111073   99.91970062    4.90999985    2.32999992
   12.57444477  114.79299927    4.90999985    2.32999992
   12.57777786  112.45899963    4.90999985    2.32999992
   12.58083344  109.13700104    4.90999985    2.32999992
   12.58416653  108.61100006    4.90999985    2.34999990
   12.58749962  104.86599731    4.90999985    2.32999992
   12.58777714  106.65499878    4.90999985    2.32999992
   12.59111118  108.22200012    4.90999985    2.34999990
   12.59444427  108.69699860    4.90999985    2.34999990
   12.59749985  112.95300293    4.90999985    2.34999990
   12.60083389  106.78800201    4.90999985    2.34999990
   12.60388947  105.88600159    4.90999985    2.34999990
   12.60722256   97.68270111    4.90999985    2.34999990
   12.61055565  113.54199982    4.90999985    2.34999990
   12.61361122  109.94499969    4.90999985    2.34999990
   12.61694431   98.20220184    4.90999985    2.36999989
   12.62027836  102.43699646    4.90999985    2.36999989
   12.62083340  101.82900238    4.90999985    2.36999989
   12.62361145  105.39499664    4.90999985    2.34999990
   12.62694454  101.09999847    4.90999985    2.34999990
   12.63027763  103.56400299    4.90999985    2.36999989
   12.63333321  102.44899750    4.90999985    2.34999990
   12.63666630  106.80400085    4.90999985    2.36999989
   12.63972187   97.07730103    4.90999985    2.36999989
   12.64305496   98.88410187    4.90999985    2.34999990
   12.64638901  106.78500366    4.90999985    2.36999989
   12.64944458  103.98500061    4.90999985    2.36999989
   12.65277767  102.42099762    4.90999985    2.39000010
   12.65416622  105.66100311    4.90999985    2.36999989
   12.65638828   96.76629639    4.90999985    2.36999989
   12.65972137   98.21109772    4.90999985    2.39000010
   12.66305542  107.64099884    4.90999985    2.39000010
   12.66611099   97.66729736    4.90999985    2.36999989
   12.66944504  103.22299957    4.90999985    2.36999989
   12.67250061  100.63300323    4.90999985    2.36999989
   12.67583370   98.86280060    4.90999985    2.36999989
   12.67916679  102.38099670    4.90999985    2.39000010
   12.68222237  101.98699951    4.90999985    2.39000010
   12.68555546  105.61599731    4.90999985    2.39000010
   12.68750000   98.89350128    4.90999985    2.39000010
   12.68916702  100.41500092    4.90999985    2.39000010
   12.69250011   99.60430145    4.90999985    2.39000010
   12.69555569   95.90779877    4.90999985    2.39000010
   12.69888878   92.53350067    4.90999985    2.39000010
   12.70222187  100.20099640    4.90999985    2.39000010
   12.70527744  102.62899780    4.90999985    2.39000010
   12.70861053  104.43299866    4.90999985    2.39000010
   12.71194458  101.04799652    4.90999985    2.39000010
   12.71500015  101.27300262    4.90999985    2.40000010
   12.71833324  106.56500244    4.90999985    2.39000010
   12.72083282  102.56600189    4.90999985    2.39000010
   12.72194386  104.98799896    4.90999985    2.39000010
   12.72527695   98.51940155    4.90999985    2.39000010
   12.72833252   97.08660126    4.90999985    2.40000010
   12.73166656  101.10900116    4.90999985    2.40000010
   12.73500061   97.07800293    4.90999985    2.40000010
   12.73805618   98.36889648    4.90999985    2.39000010
   12.74138927   99.86440277    4.90999985    2.39000010
   12.74472237   95.94860077    4.90999985    2.40000010
   12.74777794  102.75599670    4.90999985    2.40000010
   12.75111103  104.54799652    4.90999985    2.39000010
   12.77027798  104.66400146    4.90999985    2.40000010
   12.77083302   98.81700134    4.90999985    2.40000010
   12.77416611  102.85800171    4.90999985    2.40000010
   12.77750015  105.18900299    4.90999985    2.40000010
   12.78055573  100.08699799    4.90999985    2.40000010
   12.78388977   99.28800201    4.90999985    2.40000010
   12.78722286   96.78990173    4.90999985    2.40000010
   12.79027843   94.20680237    4.90999985    2.40000010
   12.79361153  101.23200226    4.90999985    2.40000010
   12.79666710  104.08799744    4.90999985    2.40000010
   12.80000019  103.79399872    4.90999985    2.42000008
   12.80333328  107.75499725    4.90999985    2.42000008
   12.80388927  115.25599670    4.90999985    2.42000008
   12.80694485  110.10600281    4.90999985    2.40000010
   12.81027794  114.91100311    4.90999985    2.42000008
   12.81333351  124.30200195    4.90999985    2.40000010
   12.81666660  130.23399353    4.90999985    2.40000010
   12.81999969  114.78099823    4.90999985    2.42000008
   12.82305527  117.20300293    4.90999985    2.40000010
   12.82638836  134.93299866    4.90999985    2.42000008
   12.82972240  101.47299957    4.90999985    2.42000008
   12.83277798  104.24099731    4.90999985    2.42000008
   12.83611107  108.65000153    4.90999985    2.42000008
   12.83722210  108.88200378    4.90999985    2.42000008
   12.83972168  110.18599701    4.90999985    2.42000008
   12.84305477  105.83399963    4.90999985    2.42000008
   12.84611034  103.40499878    4.90999985    2.40000010
   12.84944439  104.69000244    4.90999985    2.44000006
   12.85277843  108.81900024    4.90999985    2.42000008
   12.85583401   97.25769806    4.90999985    2.42000008
   12.85916710  112.35900116    4.90999985    2.44000006
   12.86250019  105.90299988    4.90999985    2.42000008
   12.86555576  108.21900177    4.90999985    2.42000008
   12.86888885  111.40899658    4.90999985    2.44000006
   12.87055588  104.75599670    4.90999985    2.44000006
   12.87250042  106.11499786    4.90999985    2.44000006
   12.87583351  109.31800079    4.90999985    2.42000008
   12.87888908  104.45099640    4.90999985    2.44000006
   12.88222218  115.95999908    4.90999985    2.44000006
   12.88555527  110.10199738    4.90999985    2.44000006
   12.88861084  104.59300232    4.90999985    2.44000006
   12.89194393  102.61599731    4.90999985    2.42000008
   12.89527798  109.19699860    4.90999985    2.44000006
   12.89833355  101.70800018    4.90999985    2.44000006
   12.90166664  105.23300171    4.90999985    2.44000006
   12.90388870  112.21399689    4.90999985    2.44000006
   12.90527725  100.54900360    4.90999985    2.44000006
   12.90861034  102.47599792    4.90999985    2.46000004
   12.91166592  102.34100342    4.90999985    2.46000004
   12.91499996  103.20099640    4.90999985    2.44000006
   12.91833401   97.66359711    4.90999985    2.44000006
   12.92138958  100.55200195    4.90999985    2.46000004
   12.92472267   89.69989777    4.90999985    2.46000004
   12.92805576   96.00559998    4.90999985    2.46000004
   12.93111134  104.37599945    4.90999985    2.44000006
   12.93444443  100.80500031    4.90999985    2.44000006
   12.93722248   99.17299652    4.90999985    2.46000004
   12.93805599   97.41200256    4.90999985    2.46000004
   12.94138908   98.80809784    4.90999985    2.46000004
   12.94472218  101.44400024    4.90999985    2.46000004
   12.94777775   98.93810272    4.90999985    2.46000004
   12.95111084   98.97389984    4.90999985    2.46000004
   12.95416641  101.35399628    4.90999985    2.46000004
   12.95749950  105.33399963    4.90999985    2.46000004
   12.96083355   93.60579681    4.90999985    2.46000004
   12.96388912   97.18750000    4.90999985    2.46000004
   12.96722221   94.73539734    4.90999985    2.46000004
   12.97055531   94.25700378    4.90999985    2.46000004
   12.97083282   93.96219635    4.90999985    2.46000004
   12.97416592  101.84999847    4.90999985    2.46000004
   12.97749996  100.18099976    4.90999985    2.48000002
   12.98055553   95.32199860    4.90999985    2.46000004
   12.98388958   94.25050354    4.90999985    2.46000004
   12.98694515  108.14199829    4.90999985    2.48000002
   12.99027824   99.66380310    4.90999985    2.46000004
   12.99361134   98.02559662    4.90999985    2.48000002
   12.99666691   96.08609772    4.90999985    2.48000002
   13.00000000  103.06800079    4.90999985    2.48000002
   13.00333309  106.24099731    4.90999985    2.48000002
   13.00388908  102.63999939    4.90999985    2.48000002
   13.00666714  102.07700348    4.90999985    2.48000002
   13.01000023  100.59999847    4.90999985    2.48000002
   13.01333332  104.22000122    4.90999985    2.46000004
   13.01638889   98.46600342    4.90999985    2.46000004
   13.01972198   96.20500183    4.90999985    2.46000004
   13.02277756   94.50589752    4.90999985    2.48000002
   13.02611065   96.45649719    4.90999985    2.48000002
   13.02944374   99.41280365    4.90999985    2.48000002
   13.03249931   97.86399841    4.90999985    2.48000002
   13.03583336   96.55349731    4.90999985    2.48000002
   13.03722286  101.07700348    4.90999985    2.48000002
   13.03944492   92.91619873    4.90999985    2.48000002
   13.04277802   95.90859985    4.90999985    2.48000002
   13.04611111   95.74379730    4.90999985    2.48000002
   13.04916668   97.65859985    4.90999985    2.48000002
   13.05249977  108.53900146    4.90999985    2.48000002
   13.05555534   96.62059784    4.90999985    2.48000002
   13.05888939   96.05079651    4.90999985    2.48000002
   13.06222248   99.46990204    4.90999985    2.48000002
   13.06527805   93.95860291    4.90999985    2.48000002
   13.06861115  101.86799622    4.90999985    2.48000002
   13.07055569   91.18959808    4.90999985    2.48000002
   13.07222176   99.10579681    4.90999985    2.48000002
   13.07555580   96.29820251    4.90999985    2.48000002
   13.07888889   95.47170258    4.90999985    2.50000000
   13.08194447   98.48829651    4.90999985    2.50000000
   13.08527756   90.34339905    4.90999985    2.48000002
   13.08833313   90.44670105    4.90999985    2.48000002
   13.09166622   95.79989624    4.90999985    2.48000002
   13.09499931   96.95780182    4.90999985    2.50000000
   13.09805489   88.84020233    4.90999985    2.50000000
   13.10138893   93.73639679    4.90999985    2.48000002
   13.10388947   86.73380280    4.90999985    2.50000000
   13.10527802   90.33509827    4.90999985    2.50000000
   13.10833359   80.74050140    4.90999985    2.50000000
   13.11166668  102.37100220    4.90999985    2.51999998
   13.11472225   95.53279877    4.90999985    2.48000002
   13.11805534   97.61199951    4.90999985    2.50000000
   13.12138939   89.54399872    4.90999985    2.50000000
   13.12444496   94.96289825    4.90999985    2.48000002
   13.12777805   93.14140320    4.90999985    2.50000000
   13.13111115   96.32189941    4.90999985    2.50000000
   13.13416672   87.95529938    4.90999985    2.50000000
   13.13722229   96.88770294    4.90999985    2.50000000
   13.13777733   95.88020325    4.90999985    2.50000000
   13.14111137  105.75000000    4.90999985    2.50000000
   13.14444447   96.52420044    4.90999985    2.50000000
   13.14750004  104.46700287    4.90999985    2.50000000
   13.15083313  102.82700348    4.90999985    2.53999996
   13.15416622   99.61460114    4.90999985    2.50000000
   13.15722179   96.73059845    4.90999985    2.50000000
   13.16055489   94.22489929    4.90999985    2.50000000
   13.16361046   98.56369781    4.90999985    2.51999998
   13.16694450  100.56500244    4.90999985    2.51999998
   13.17027855   98.73860168    4.90999985    2.51999998
   13.17083359   98.32299805    4.90999985    2.50000000
   13.17388916  106.51899719    4.90999985    2.51999998
   13.17722225  102.83999634    4.90999985    2.53999996
   13.18055630  102.72899628    4.90999985    2.51999998
   13.18361092   96.99859619    4.90999985    2.50000000
   13.18694496   99.62509918    4.90999985    2.51999998
   13.19027805  105.33799744    4.90999985    2.50000000
   13.19333363   93.87460327    4.90999985    2.51999998
   13.19666672  100.72399902    4.90999985    2.51999998
   13.19972229   94.72399902    4.90999985    2.51999998
   13.20305538   98.24400330    4.90999985    2.51999998
   13.20416641   98.77110291    4.90999985    2.51999998
   13.20666695  101.62100220    4.90999985    2.51999998
   13.21000004   96.64600372    4.90999985    2.51999998
   13.21333313   98.15190125    4.90999985    2.51999998
   13.21638870   92.52189636    4.90999985    2.51999998
   13.21972179   99.17400360    4.90999985    2.53999996
   13.22277737  101.84200287    4.90999985    2.51999998
   13.22611046  103.03199768    4.90999985    2.53999996
   13.22944355  105.13099670    4.90999985    2.53999996
   13.23249912  109.95800018    4.90999985    2.51999998
   13.23583317  110.81300354    4.90999985    2.53999996
   13.23750019  102.08899689    4.90999985    2.53999996
   13.23944473  109.29499817    4.90999985    2.51999998
   13.24277782   96.74909973    4.90999985    2.53999996
   13.24611092  105.22299957    4.90999985    2.53999996
   13.24916649  103.20800018    4.90999985    2.53999996
   13.25249958  107.29000092    4.90999985    2.51999998
   13.25555515   98.83029938    4.90999985    2.53999996
   13.25888920  103.08899689    4.90999985    2.51999998
   13.26222229   96.80000305    4.90999985    2.53999996
   13.26527786  104.67600250    4.90999985    2.53999996
   13.26861095  107.38500214    4.90999985    2.51999998
   13.27083302  105.78199768    4.90999985    2.53999996
   13.27222157  104.43599701    4.90999985    2.53999996
   13.27555561  106.94100189    4.90999985    2.51999998
   13.27888870  101.99099731    4.90999985    2.53999996
   13.28194427  100.16000366    4.90999985    2.53999996
   13.28527832  105.61699677    4.90999985    2.53999996
   13.28833389  102.33799744    4.90999985    2.53999996
   13.29166698  104.58899689    4.90999985    2.53999996
   13.29500008  105.06300354    4.90999985    2.53999996
   13.29805565  103.20899963    4.90999985    2.53999996
   13.30138874   99.50209808    4.90999985    2.53999996
   13.30416679   92.95330048    4.90999985    2.53999996
   13.30500031  102.30100250    4.90999985    2.53999996
   13.30833340  106.99600220    4.90999985    2.53999996
   13.31166649  105.37000275    4.90999985    2.53999996
   13.31472206   99.92720032    4.90999985    2.55999994
   13.31805515   97.08750153    4.90999985    2.53999996
   13.32138920   93.49720001    4.90999985    2.53999996
   13.32444477  103.22599792    4.90999985    2.53999996
   13.32777786   96.63089752    4.90999985    2.55999994
   13.33083344  102.97000122    4.90999985    2.55999994
   13.33416653   94.69799805    4.90999985    2.55999994
   13.33749962  100.77899933    4.90999985    2.53999996
   13.33777714  104.69300079    4.90999985    2.53999996
   13.34111118  100.80599976    4.90999985    2.53999996
   13.34444427  104.79799652    4.90999985    2.55999994
   13.34749985   98.71250153    4.90999985    2.53999996
   13.35083389   96.71060181    4.90999985    2.53999996
   13.35416698  100.95999908    4.90999985    2.53999996
   13.35722256   99.08380127    4.90999985    2.55999994
   13.36055565   97.29530334    4.90999985    2.53999996
   13.36388969  100.96199799    4.90999985    2.53999996
   13.36694431   94.71179962    4.90999985    2.55999994
   13.37027836   98.71459961    4.90999985    2.55999994
   13.37083340   95.74949646    4.90999985    2.55999994
   13.37361145   95.11470032    4.90999985    2.55999994
   13.37694454   95.69380188    4.90999985    2.55999994
   13.38027763   99.39070129    4.90999985    2.55999994
   13.38333321  101.45300293    4.90999985    2.55999994
   13.38666630  101.19699860    4.90999985    2.55999994
   13.39000034  105.82800293    4.90999985    2.55999994
   13.39305496  107.24500275    4.90999985    2.55999994
   13.39638901  103.26000214    4.90999985    2.55999994
   13.39944458  105.40699768    4.90999985    2.55999994
   13.40277767   99.89939880    4.90999985    2.55999994
   13.40416622  104.82499695    4.90999985    2.55999994
   13.40666676  104.40599823    4.90999985    2.55999994
   13.40972137  101.93499756    4.90999985    2.55999994
   13.41305542   96.85949707    4.90999985    2.55999994
   13.41611099  101.27400208    4.90999985    2.55999994
   13.41944504   93.54309845    4.90999985    2.55999994
   13.42277813  100.33100128    4.90999985    2.55999994
   13.42583370   98.23100281    4.90999985    2.55999994
   13.42916679   99.94280243    4.90999985    2.55999994
   13.43249989  100.86799622    4.90999985    2.55999994
   13.43555546   93.76419830    4.90999985    2.55999994
   13.43750000   99.21620178    4.90999985    2.55999994
   13.43944454  100.65399933    4.90999985    2.55999994
   13.44250011   99.79290009    4.90999985    2.55999994
   13.44583321   99.76950073    4.90999985    2.55999994
   13.44888878   97.38899994    4.90999985    2.55999994
   13.45222187   94.46929932    4.90999985    2.57999992
   13.45555496   95.82569885    4.90999985    2.55999994
   13.45861053   93.59999847    4.90999985    2.57999992
   13.46194458   94.91220093    4.90999985    2.55999994
   13.46527767   98.66290283    4.90999985    2.55999994
   13.46833324   99.08499908    4.90999985    2.57999992
   13.47083282  107.75399780    4.90999985    2.55999994
   13.47222137   98.24759674    4.90999985    2.57999992
   13.47527695   94.34220123    4.90999985    2.57999992
   13.47861099   95.22499847    4.90999985    2.55999994
   13.48166656   97.91510010    4.90999985    2.57999992
   13.48500061  100.11599731    4.90999985    2.57999992
   13.48833370   93.04709625    4.90999985    2.55999994
   13.49138927  104.32800293    4.90999985    2.55999994
   13.49472237   91.66970062    4.90999985    2.57999992
   13.49805546   99.18669891    4.90999985    2.57999992
   13.50111103   96.37930298    4.90999985    2.57999992
   13.50416660   90.11530304    4.90999985    2.55999994
   13.50500011   97.89689636    4.90999985    2.55999994
   13.50805569  100.50199890    4.90999985    2.57999992
   13.51138878   98.35030365    4.90999985    2.57999992
   13.51444435   92.74479675    4.90999985    2.57999992
   13.51777744   97.63719940    4.90999985    2.55999994
   13.52111053   95.04309845    4.90999985    2.59999990
   13.52444458   96.53199768    4.90999985    2.57999992
   13.52750015   92.14420319    4.90999985    2.57999992
   13.53083324   88.84269714    4.90999985    2.55999994
   13.53388977   86.51940155    4.90999985    2.57999992
   13.53722286   94.99150085    4.90999985    2.57999992
   13.53777790   89.72879791    4.90999985    2.57999992
   13.54111195   98.01029968    4.90999985    2.57999992
   13.54416752   97.03759766    4.90999985    2.57999992
   13.54750061   93.76750183    4.90999985    2.57999992
   13.55083370   95.91230011    4.90999985    2.57999992
   13.55388927   90.22200012    4.90999985    2.57999992
   13.55722237   84.25640106    4.90999985    2.57999992
   13.56027794   83.15419769    4.90999985    2.57999992
   13.56361103   88.72689819    4.90999985    2.57999992
   13.56694412   89.44650269    4.90999985    2.59999990
   13.56999969   87.00499725    4.90999985    2.57999992
   13.57111073   96.91300201    4.90999985    2.59999990
   13.57388878   90.76560211    4.90999985    2.57999992
   13.57694435   89.64649963    4.90999985    2.59999990
   13.58027744   91.88899994    4.90999985    2.57999992
   13.58361053   87.98079681    4.90999985    2.59999990
   13.58666611   87.02700043    4.90999985    2.57999992
   13.59000015   90.30100250    4.90999985    2.55999994
   13.59305477   93.42839813    4.90999985    2.59999990
   13.59638882   90.84500122    4.90999985    2.57999992
   13.59972191   88.08180237    4.90999985    2.57999992
   13.60277843   90.30139923    4.90999985    2.59999990
   13.60444450   90.83499908    4.90999985    2.59999990
   13.60666752   87.66829681    4.90999985    2.59999990
   13.60972214   92.01020050    4.90999985    2.59999990
   13.61305618   85.39019775    4.90999985    2.57999992
   13.61638927   93.93099976    4.90999985    2.59999990
   13.61944485   91.69370270    4.90999985    2.59999990
   13.62277794   87.90709686    4.90999985    2.59999990
   13.62611103   93.18000031    4.90999985    2.59999990
   13.62916660   84.98639679    4.90999985    2.59999990
   13.63249969   94.51170349    4.90999985    2.59999990
   13.63555527   91.22370148    4.90999985    2.59999990
   13.63777733   96.68240356    4.90999985    2.59999990
   13.63944435   98.58730316    4.90999985    2.59999990
   13.64249992   90.74060059    4.90999985    2.59999990
   13.64583302   93.99510193    4.90999985    2.59999990
   13.64916611   95.02140045    4.90999985    2.59999990
   13.65222168   99.55760193    4.90999985    2.59999990
   13.65555477   93.53410339    4.90999985    2.59999990
   13.65861034   94.03829956    4.90999985    2.59999990
   13.66194439   96.08959961    4.90999985    2.61999989
   13.66527748   94.70580292    4.90999985    2.59999990
   13.66833401   93.45590210    4.90999985    2.59999990
   13.67111111   84.90730286    4.90999985    2.59999990
   13.67222214   88.09809875    4.90999985    2.59999990
   13.67527771   89.35800171    4.90999985    2.59999990
   13.67861176   88.78990173    4.90999985    2.59999990
   13.68194485   84.63729858    4.90999985    2.59999990
   13.68500042   86.30130005    4.90999985    2.59999990
   13.68833351   85.30139923    4.90999985    2.61999989
   13.69166660   88.06439972    4.90999985    2.61999989
   13.69472218   86.49790192    4.90999985    2.61999989
   13.69805527   86.63179779    4.90999985    2.59999990
   13.70111084   85.36830139    4.90999985    2.61999989
   13.70444393   92.13780212    4.90999985    2.61999989
   13.70499992   88.92859650    4.90999985    2.61999989
   13.70805550   84.56569672    4.90999985    2.61999989
   13.71138859   91.37819672    4.90999985    2.61999989
   13.82777786   -1.00000000   -1.00000000   -1.00000000
   13.92305565   -1.00000000   -1.00000000   -1.00000000
   14.02111053   -1.00000000   -1.00000000   -1.00000000
   14.05472279   73.74600220    4.90999985    2.66000009
   14.05805588   92.23429871    4.90999985    2.66000009
   14.06111145   96.57579803    4.90999985    2.66000009
   14.06444454  102.29399872    4.90999985    2.66000009
   14.06777763   92.00460052    4.90999985    2.66000009
   14.07083321   99.43879700    4.90999985    2.66000009
   14.07499981   99.43879700    4.90999985    2.64000010
   14.07916641   90.87390137    4.90999985    2.66000009
   14.08249950   99.52850342    4.90999985    2.66000009
   14.08555508  100.47299957    4.90999985    2.66000009
   14.08805561   96.91819763    4.90999985    2.66000009
   14.08916664  100.58599854    4.90999985    2.66000009
   14.09249973   99.15940094    4.90999985    2.66000009
   14.09583282   99.43679810    4.90999985    2.67000008
   14.09888840   97.38950348    4.90999985    2.64000010
   14.10222244   99.75129700    4.90999985    2.66000009
   14.10527802  100.50499725    4.90999985    2.66000009
   14.10861111   93.53980255    4.90999985    2.66000009
   14.11194515  100.63400269    4.90999985    2.64000010
   14.11777782  100.63400269    4.90999985    2.64000010
   14.12194443  105.71800232    4.90999985    2.66000009
   14.12527752   98.68609619    4.90999985    2.67000008
   14.12861156   89.20439911    4.90999985    2.66000009
   14.13166714   91.89399719    4.90999985    2.67000008
   14.13500023   90.45659637    4.90999985    2.67000008
   14.13805580   91.27480316    4.90999985    2.66000009
   14.14138889   98.65170288    4.90999985    2.67000008
   14.14472198   93.38189697    4.90999985    2.66000009
   14.14777756  101.14600372    4.90999985    2.66000009
   14.15111065   92.65599823    4.90999985    2.67000008
   14.15444374  106.33499908    4.90999985    2.66000009
   14.15472221   94.92780304    4.90999985    2.66000009
   14.16083336   94.92780304    4.90999985    2.67000008
   14.16499996   99.45429993    4.90999985    2.66000009
   14.16805553  106.89399719    4.90999985    2.66000009
   14.17138958   99.09089661    4.90999985    2.67000008
   14.17444515   97.72170258    4.90999985    2.66000009
   14.17777824  100.37300110    4.90999985    2.66000009
   14.18111134  106.52200317    4.90999985    2.67000008
   14.18416691   95.45390320    4.90999985    2.67000008
   14.18750000  100.11499786    4.90999985    2.67000008
   14.18833351   95.73210144    4.90999985    2.67000008
   14.19111156   96.38480377    4.90999985    2.67000008
   14.19444466   87.15540314    4.90999985    2.67000008
   14.19750023   96.90589905    4.90999985    2.67000008
   14.20361137   96.90589905    4.90999985    2.67000008
   14.20777798   97.13289642    4.90999985    2.67000008
   14.21083355   97.82360077    4.90999985    2.67000008
   14.21416664  102.26399994    4.90999985    2.69000006
   14.21749973   95.26889801    4.90999985    2.67000008
   14.22055531   98.01779938    4.90999985    2.67000008
   14.22166634  100.65899658    4.90999985    2.67000008
   14.22416592   96.50679779    4.90999985    2.67000008
   14.22749996  105.29399872    4.90999985    2.67000008
   14.23055553   94.51560211    4.90999985    2.67000008
   14.23388958  109.30200195    4.90999985    2.67000008
   14.23722267   98.73400116    4.90999985    2.66000009
   14.24027824   96.40489960    4.90999985    2.66000009
   14.24638939   96.40489960    4.90999985    2.66000009
   14.25055599  105.99099731    4.90999985    2.67000008
   14.25388908  108.19200134    4.90999985    2.67000008
   14.25500011  100.92800140    4.90999985    2.67000008
   14.25749969  104.51200104    4.90999985    2.69000006
   14.26083374  106.90299988    4.90999985    2.69000006
   14.26388931  103.70099640    4.90999985    2.67000008
   14.26722240  100.17500305    4.90999985    2.69000006
   14.27055550  101.22899628    4.90999985    2.69000006
   14.27361107  103.84899902    4.90999985    2.67000008
   14.27694416   95.14810181    4.90999985    2.67000008
   14.28027725  106.80500031    4.90999985    2.67000008
   14.28333378   96.99099731    4.90999985    2.67000008
   14.28916740   96.99099731    4.90999985    2.67000008
   14.29333401   98.19059753    4.90999985    2.67000008
   14.29666710   96.52059937    4.90999985    2.69000006
   14.30000019  101.45800018    4.90999985    2.67000008
   14.30305576  101.13800049    4.90999985    2.69000006
   14.30638885  110.61900330    4.90999985    2.67000008
   14.30944443   99.60099792    4.90999985    2.67000008
   14.31277752  102.51200104    4.90999985    2.67000008
   14.31611156   97.55239868    4.90999985    2.69000006
   14.31916618  102.97799683    4.90999985    2.69000006
   14.32166672   98.49960327    4.90999985    2.67000008
   14.32277775  105.28500366    4.90999985    2.67000008
   14.32611084  102.28800201    4.90999985    2.69000006
   14.33222198  102.28800201    4.90999985    2.69000006
   14.33638859  102.01300049    4.90999985    2.69000006
   14.33944416  100.74900055    4.90999985    2.69000006
   14.34277725  103.20099640    4.90999985    2.69000006
   14.34583282  104.10800171    4.90999985    2.69000006
   14.34916592   96.79810333    4.90999985    2.69000006
   14.35249996   96.60289764    4.90999985    2.67000008
   14.35500050   93.24990082    4.90999985    2.67000008
   14.35611153   97.21299744    4.90999985    2.69000006
   14.35944462   96.60839844    4.90999985    2.67000008
   14.36250019   94.86759949    4.90999985    2.69000006
   14.36583328   90.89420319    4.90999985    2.67000008
   14.36916637  102.51499939    4.90999985    2.69000006
   14.37500000  102.51499939    4.90999985    2.69000006
   14.37916660   95.56439972    4.90999985    2.69000006
   14.38222218   99.86409760    4.90999985    2.67000008
   14.38555527   98.61049652    4.90999985    2.67000008
   14.38833332  101.67400360    4.90999985    2.67000008
   14.38916683  104.50399780    4.90999985    2.67000008
   14.39249992  101.76200104    4.90999985    2.69000006
   14.39555550   98.84310150    4.90999985    2.69000006
   14.39888859  103.00099945    4.90999985    2.69000006
   14.40222168  104.39600372    4.90999985    2.69000006
   14.40527725  103.13099670    4.90999985    2.69000006
   14.40861034  108.51399994    4.90999985    2.69000006
   14.41194439   98.53800201    4.90999985    2.69000006
   14.41777802   98.53800201    4.90999985    2.69000006
   14.42194462  106.30999756    4.90999985    2.67000008
   14.42527771  105.96700287    4.90999985    2.69000006
   14.42833328  102.79000092    4.90999985    2.69000006
   14.43166733   97.29499817    4.90999985    2.69000006
   14.43500042  100.52200317    4.90999985    2.69000006
   14.43805599  102.84899902    4.90999985    2.69000006
   14.44138908   92.20860291    4.90999985    2.69000006
   14.44444466   99.02010345    4.90999985    2.69000006
   14.44777775   99.06390381    4.90999985    2.69000006
   14.45111084   97.70709991    4.90999985    2.71000004
   14.45416641   99.85620117    4.90999985    2.69000006
   14.45499992   98.48829651    4.90999985    2.69000006
   14.46055508   98.48829651    4.90999985    2.67000008
   14.46472168  105.84300232    4.90999985    2.69000006
   14.46805477  107.26999664    4.90999985    2.69000006
   14.47138882  100.25099945    4.90999985    2.71000004
   14.47444439  102.56800079    4.90999985    2.69000006
   14.47777748  105.62400055    4.90999985    2.71000004
   14.48111057   96.16349792    4.90999985    2.71000004
   14.48416710   96.09629822    4.90999985    2.69000006
   14.48750019   94.43769836    4.90999985    2.71000004
   14.48833370   97.40529633    4.90999985    2.69000006
   14.49111176   99.50090027    4.90999985    2.67000008
   14.49444485   98.45179749    4.90999985    2.71000004
   14.49777794  101.61000061    4.90999985    2.69000006
   14.50361156  101.61000061    4.90999985    2.69000006
   14.50777817   94.60320282    4.90999985    2.69000006
   14.51083374   93.18569946    4.90999985    2.69000006
   14.51416683   97.20300293    4.90999985    2.69000006
   14.51722240  104.57599640    4.90999985    2.69000006
   14.52055550   99.07009888    4.90999985    2.69000006
   14.52166653  102.73200226    4.90999985    2.71000004
   14.52416611  102.97799683    4.90999985    2.71000004
   14.52750015  101.94200134    4.90999985    2.69000006
   14.53083324   88.53359985    4.90999985    2.69000006
   14.53388977  101.73100281    4.90999985    2.71000004
   14.53722286   93.92169952    4.90999985    2.71000004
   14.54027843   88.58110046    4.90999985    2.71000004
   14.54638958   88.58110046    4.90999985    2.69000006
   14.55055618  108.01200104    4.90999985    2.71000004
   14.55361176   94.79599762    4.90999985    2.71000004
   14.55500031   99.09149933    4.90999985    2.69000006
   14.55722237  106.07900238    4.90999985    2.69000006
   14.56055546   99.09829712    4.90999985    2.71000004
   14.56388950   85.16639709    4.90999985    2.69000006
   14.56694412   95.41799927    4.90999985    2.71000004
   14.57027817   94.06089783    4.90999985    2.69000006
   14.57361126   98.96330261    4.90999985    2.71000004
   14.57666683   97.00700378    4.90999985    2.71000004
   14.57999992  100.12300110    4.90999985    2.69000006
   14.58333302   97.60089874    4.90999985    2.71000004
   14.58916664   97.60089874    4.90999985    2.71000004
   14.59333324  100.71700287    4.90999985    2.69000006
   14.59666634   96.89659882    4.90999985    2.71000004
   14.59972191   97.83709717    4.90999985    2.71000004
   14.60305595   88.14369965    4.90999985    2.73000002
   14.60638905   98.59649658    4.90999985    2.71000004
   14.60944462   89.25499725    4.90999985    2.71000004
   14.61277771   94.59500122    4.90999985    2.69000006
   14.61583328  102.96299744    4.90999985    2.69000006
   14.61916637  100.89600372    4.90999985    2.71000004
   14.62166691   95.73480225    4.90999985    2.71000004
   14.62277794   93.30259705    4.90999985    2.69000006
   14.62611103  103.05400085    4.90999985    2.71000004
   14.63194466  103.05400085    4.90999985    2.69000006
   14.63611126  101.80400085    4.90999985    2.73000002
   14.63944435  100.24500275    4.90999985    2.71000004
   14.64277744   96.66139984    4.90999985    2.73000002
   14.64583302   95.65270233    4.90999985    2.73000002
   14.64916611  100.25000000    4.90999985    2.71000004
   14.65249920   98.86660004    4.90999985    2.69000006
   14.65499973   96.19100189    4.90999985    2.71000004
   14.65583324  100.59100342    4.90999985    2.71000004
   14.65916634   94.03469849    4.90999985    2.71000004
   14.66249943  102.11199951    4.90999985    2.71000004
   14.66555500   93.77519989    4.90999985    2.69000006
   14.66888905   90.39070129    4.90999985    2.71000004
   14.67500019   90.39070129    4.90999985    2.71000004
   14.67916679   95.69709778    4.90999985    2.71000004
   14.68222237   99.51940155    4.90999985    2.71000004
   14.68555546   83.62190247    4.90999985    2.71000004
   14.68833351   89.60009766    4.90999985    2.71000004
   14.68916702   92.42250061    4.90999985    2.71000004
   14.69250011   95.12319946    4.90999985    2.73000002
   14.69583321   95.68800354    4.90999985    2.69000006
   14.69888878   93.74169922    4.90999985    2.71000004
   14.70222187   90.81970215    4.90999985    2.71000004
   14.70527744   88.53220367    4.90999985    2.71000004
   14.70861053   96.66739655    4.90999985    2.71000004
   14.71194458   96.40100098    4.90999985    2.71000004
   14.71777725   96.40100098    4.90999985    2.71000004
   14.72194386   84.58670044    4.90999985    2.73000002
   14.72499943   81.31169891    4.90999985    2.71000004
   14.72833252   94.09780121    4.90999985    2.71000004
   14.73166656   90.97789764    4.90999985    2.71000004
   14.73472214   98.89859772    4.90999985    2.73000002
   14.73805618   93.48359680    4.90999985    2.71000004
   14.74111176   86.95379639    4.90999985    2.71000004
   14.74444485   93.74019623    4.90999985    2.71000004
   14.74777794   85.26889801    4.90999985    2.73000002
   14.75083351   95.27600098    4.90999985    2.71000004
   14.75416660   95.58209991    4.90999985    2.71000004
   14.75500011   99.00299835    4.90999985    2.71000004
   14.76055527   99.00299835    4.90999985    2.73000002
   14.76472187   91.39929962    4.90999985    2.71000004
   14.76805496   85.40409851    4.90999985    2.71000004
   14.77111053   90.56990051    4.90999985    2.71000004
   14.77444458   92.38549805    4.90999985    2.71000004
   14.77750015   91.97299957    4.90999985    2.69000006
   14.78083324   92.73639679    4.90999985    2.71000004
   14.78416729   92.82409668    4.90999985    2.71000004
   14.78777790   97.38860321    4.90999985    2.73000002
   14.78944492   93.57800293    4.90999985    2.71000004
   14.79222298   93.03700256    4.90999985    2.71000004
   14.79555607   94.81250000    4.90999985    2.71000004
   14.79888916   95.80259705    4.90999985    2.71000004
   14.80333328   95.80259705    4.90999985    2.73000002
   14.80749989   88.71430206    4.90999985    2.71000004
   14.81083393   91.52610016    4.90999985    2.71000004
   14.81416702   94.92849731    4.90999985    2.71000004
   14.81722260  101.21399689    4.90999985    2.71000004
   14.82055569   98.65370178    4.90999985    2.71000004
   14.82166672   95.47350311    4.90999985    2.71000004
   14.82416630   99.08509827    4.90999985    2.73000002
   14.82722187  100.30699921    4.90999985    2.71000004
   14.83055592   96.62850189    4.90999985    2.71000004
   14.83388901   98.68979645    4.90999985    2.73000002
   14.83694458   93.46499634    4.90999985    2.73000002
   14.84027767   94.40879822    4.90999985    2.71000004
   14.84638882   94.40879822    4.90999985    2.75000000
   14.85027790   98.78720093    4.90999985    2.73000002
   14.85361195   96.46679688    4.90999985    2.71000004
   14.85500050   91.28959656    4.90999985    2.71000004
   14.85722256   99.97260284    4.90999985    2.73000002
   14.86027813   98.72550201    4.90999985    2.73000002
   14.86361122   97.22570038    4.90999985    2.73000002
   14.86694431  105.08100128    4.90999985    2.71000004
   14.86999989   94.31340027    4.90999985    2.71000004
   14.87333393  102.43699646    4.90999985    2.71000004
   14.87666702  103.83799744    4.90999985    2.73000002
   14.87972260   97.12879944    4.90999985    2.71000004
   14.88305569  100.40799713    4.90999985    2.73000002
   14.88916683  100.40799713    4.90999985    2.71000004
   14.89333344  108.95500183    4.90999985    2.71000004
   14.89638901  107.48300171    4.90999985    2.71000004
   14.89972210   98.60569763    4.90999985    2.71000004
   14.90305519  111.70800018    4.90999985    2.71000004
   14.90611076  111.80699921    4.90999985    2.71000004
   14.90944386   98.26059723    4.90999985    2.73000002
   14.91249943   98.74629974    4.90999985    2.71000004
   14.91583252  107.97599792    4.90999985    2.71000004
   14.91916656  108.16600037    4.90999985    2.71000004
   14.92166710  106.22499847    4.90999985    2.71000004
   14.92277813  100.36699677    4.90999985    2.73000002
   14.92583370  100.55799866    4.90999985    2.71000004
   14.93194485  100.55799866    4.90999985    2.73000002
   14.93611145  102.19999695    4.90999985    2.73000002
   14.93944454  104.79299927    4.90999985    2.71000004
   14.94250011  103.20300293    4.90999985    2.71000004
   14.94583321   95.78869629    4.90999985    2.73000002
   14.94888878  100.47699738    4.90999985    2.73000002
   14.95222187  103.20700073    4.90999985    2.73000002
   14.95499992   93.08809662    4.90999985    2.75000000
   14.95583344  102.05999756    4.90999985    2.75000000
   14.95888901  101.05100250    4.90999985    2.73000002
   14.96222210   98.62370300    4.90999985    2.73000002
   14.96555519  103.18499756    4.90999985    2.71000004
   14.96861076  109.69499969    4.90999985    2.73000002
   14.97472191  109.69499969    4.90999985    2.76999998
   14.97888851  110.49900055    4.90999985    2.73000002
   14.98222160  104.14099884    4.90999985    2.71000004
   14.98555565  104.82599640    4.90999985    2.73000002
   14.98833370  102.05999756    4.90999985    2.73000002
   14.98916721  106.30400085    4.90999985    2.73000002
   14.99222279  103.69200134    4.90999985    2.71000004
   14.99555588  106.06800079    4.90999985    2.73000002
   14.99888897  103.26300049    4.90999985    2.73000002
   15.00194454  104.57900238    4.90999985    2.73000002
   15.00527763  106.46199799    4.90999985    2.71000004
   15.00861073  105.23899841    4.90999985    2.71000004
   15.01166630  108.59799957    4.90999985    2.73000002
   15.01777744  108.59799957    4.90999985    2.71000004
   15.02166653   97.08850098    4.90999985    2.73000002
   15.02499962   98.99199677    4.90999985    2.73000002
   15.02833271  101.44100189    4.90999985    2.71000004
   15.03138828  101.71299744    4.90999985    2.71000004
   15.03472233   99.08640289    4.90999985    2.73000002
   15.03805637  101.92199707    4.90999985    2.73000002
   15.04111195  109.36199951    4.90999985    2.73000002
   15.04444504  109.33000183    4.90999985    2.73000002
   15.04750061  100.99400330    4.90999985    2.73000002
   15.05083370  100.98600006    4.90999985    2.71000004
   15.05416679  107.86599731    4.90999985    2.73000002
   15.05500031   97.28520203    4.90999985    2.73000002
   15.07583332   97.28520203    4.90999985    2.73000002
   15.07999992  103.19400024    4.90999985    2.73000002
   15.08305550  107.03299713    4.90999985    2.73000002
   15.08638859  103.07499695    4.90999985    2.73000002
   15.08833313  106.94999695    4.90999985    2.73000002
   15.09000015  104.35199738    4.90999985    2.73000002
   15.09333324   97.39320374    4.90999985    2.73000002
   15.09638882   96.05010223    4.90999985    2.73000002
   15.09972191   96.86710358    4.90999985    2.73000002
   15.10277843  108.74500275    4.90999985    2.73000002
   15.10611153  103.96800232    4.90999985    2.75000000
   15.10944462  105.47399902    4.90999985    2.73000002
   15.11250019   96.88099670    4.90999985    2.73000002
   15.11861134   96.88099670    4.90999985    2.73000002
   15.12277794  100.17099762    4.90999985    2.73000002
   15.12583351  107.10399628    4.90999985    2.73000002
   15.12916660  106.28399658    4.90999985    2.73000002
   15.13222218  110.73400116    4.90999985    2.73000002
   15.13555527  106.52200317    4.90999985    2.73000002
   15.13888836  104.93399811    4.90999985    2.73000002
   15.14194393  108.15499878    4.90999985    2.73000002
   15.14527798  106.55599976    4.90999985    2.73000002
   15.14861107  109.23300171    4.90999985    2.73000002
   15.15166664  105.09200287    4.90999985    2.73000002
   15.15499973  101.35700226    4.90999985    2.73000002
   15.15555477  102.83699799    4.90999985    2.73000002
   15.16138840  102.83699799    4.90999985    2.73000002
   15.16555500   99.92489624    4.90999985    2.75000000
   15.16861153  106.15200043    4.90999985    2.73000002
   15.17194462  115.24299622    4.90999985    2.73000002
   15.17527771   99.36509705    4.90999985    2.73000002
   15.17833328  103.26100159    4.90999985    2.71000004
   15.18166733  110.02799988    4.90999985    2.73000002
   15.18500042  102.71700287    4.90999985    2.73000002
   15.18805599  105.20999908    4.90999985    2.75000000
   15.18888855  114.13600159    4.90999985    2.73000002
   15.19166660   99.75879669    4.90999985    2.75000000
   15.19499969  105.44200134    4.90999985    2.75000000
   15.19833374  111.66500092    4.90999985    2.75000000
   15.20416641  111.66500092    4.90999985    2.73000002
   15.20833302  114.29299927    4.90999985    2.73000002
   15.21166611  101.98699951    4.90999985    2.73000002
   15.21472168  113.19300079    4.90999985    2.73000002
   15.21805477  106.53399658    4.90999985    2.73000002
   15.22138882  105.19100189    4.90999985    2.73000002
   15.22222137  101.89800262    4.90999985    2.75000000
   15.22472191  101.75399780    4.90999985    2.76999998
   15.22805500  108.71700287    4.90999985    2.75000000
   15.23138809  105.26200104    4.90999985    2.75000000
   15.23444462  103.20300293    4.90999985    2.75000000
   15.23777771   97.21649933    4.90999985    2.73000002
   15.24111176  105.80400085    4.90999985    2.75000000
   15.24694443  105.80400085    4.90999985    2.75000000
   15.25111103  103.53500366    4.90999985    2.75000000
   15.25444412  107.90000153    4.90999985    2.73000002
   15.25555515  104.88400269    4.90999985    2.75000000
   15.25805569  102.36499786    4.90999985    2.75000000
   15.26138878  107.45999908    4.90999985    2.73000002
   15.26472187  109.74500275    4.90999985    2.73000002
   15.26777744  101.92700195    4.90999985    2.75000000
   15.27111053  102.78099823    4.90999985    2.73000002
   15.27444458   97.80639648    4.90999985    2.73000002
   15.27750015   93.35189819    4.90999985    2.73000002
   15.28083324  100.06300354    4.90999985    2.75000000
   15.28388977   96.29270172    4.90999985    2.73000002
   15.29000092   96.29270172    4.90999985    2.75000000
   15.29416752  104.02300262    4.90999985    2.73000002
   15.29722309   97.29389954    4.90999985    2.75000000
   15.30055618  102.94000244    4.90999985    2.75000000
   15.30361176  107.13300323    4.90999985    2.75000000
   15.30694485  108.53800201    4.90999985    2.73000002
   15.31027794  101.22799683    4.90999985    2.73000002
   15.31333351  101.12599945    4.90999985    2.73000002
   15.31666660  100.39399719    4.90999985    2.73000002
   15.31999969  101.17600250    4.90999985    2.75000000
   15.32222176   98.68219757    4.90999985    2.75000000
   15.32333374  100.21600342    4.90999985    2.73000002
   15.32666683   96.38439941    4.90999985    2.73000002
   15.33277798   96.38439941    4.90999985    2.75000000
   15.33694458   98.82420349    4.90999985    2.75000000
   15.34000015   93.88649750    4.90999985    2.75000000
   15.34333324   97.33249664    4.90999985    2.75000000
   15.34666634   94.54149628    4.90999985    2.75000000
   15.34972191   95.27100372    4.90999985    2.73000002
   15.35305595   98.77719879    4.90999985    2.76999998
   15.35555553   96.93430328    4.90999985    2.75000000
   15.35666752   94.50499725    4.90999985    2.73000002
   15.36000061   89.41429901    4.90999985    2.75000000
   15.36333370   90.93840027    4.90999985    2.73000002
   15.36638927   94.83149719    4.90999985    2.73000002
   15.36972237   90.58660126    4.90999985    2.75000000
   15.37555599   90.58660126    4.90999985    2.75000000
   15.37972260   96.93440247    4.90999985    2.75000000
   15.38305569   97.52120209    4.90999985    2.75000000
   15.38611126  101.93599701    4.90999985    2.75000000
   15.38888836  103.88899994    4.90999985    2.76999998
   15.38972187  105.55799866    4.90999985    2.76999998
   15.39305496  103.10700226    4.90999985    2.75000000
   15.39638901  117.15000153    4.90999985    2.73000002
   15.39944458  103.69400024    4.90999985    2.76999998
   15.40277767   99.83869934    4.90999985    2.75000000
   15.40611076  110.00900269    4.90999985    2.73000002
   15.40916634  103.42099762    4.90999985    2.75000000
   15.41249943  102.01200104    4.90999985    2.75000000
   15.41833401  102.01200104    4.90999985    2.73000002
   15.42250061  103.93699646    4.90999985    2.73000002
   15.42583370  100.65299988    4.90999985    2.75000000
   15.42916679   95.25640106    4.90999985    2.75000000
   15.43222237  101.85800171    4.90999985    2.73000002
   15.43555546  101.99500275    4.90999985    2.75000000
   15.43861103   90.58540344    4.90999985    2.75000000
   15.44194412   95.81369781    4.90999985    2.75000000
   15.44527817  101.07900238    4.90999985    2.75000000
   15.44833374  100.28299713    4.90999985    2.76999998
   15.45166683   96.00990295    4.90999985    2.76999998
   15.45499992   98.02300262    4.90999985    2.76999998
   15.45555496   99.03700256    4.90999985    2.76999998
   15.46138859   99.03700256    4.90999985    2.75000000
   15.46555519   96.59089661    4.90999985    2.76999998
   15.46861076   95.80909729    4.90999985    2.75000000
   15.47194386   95.00689697    4.90999985    2.75000000
   15.47499943  104.25499725    4.90999985    2.75000000
   15.47833252  101.01000214    4.90999985    2.75000000
   15.48166656  105.51599884    4.90999985    2.75000000
   15.48472214  103.74900055    4.90999985    2.76999998
   15.48805618  114.77999878    4.90999985    2.75000000
   15.48888874  107.06199646    4.90999985    2.75000000
   15.49166679  105.80899811    4.90999985    2.75000000
   15.49472237  116.25700378    4.90999985    2.76999998
   15.49805546  112.80200195    4.90999985    2.75000000
   15.50416660  112.80200195    4.90999985    2.75000000
   15.50833321  106.75099945    4.90999985    2.75000000
   15.51138878  101.12999725    4.90999985    2.76999998
   15.51472187  112.20600128    4.90999985    2.76999998
   15.51805496  104.71499634    4.90999985    2.75000000
   15.52111053  104.52600098    4.90999985    2.76999998
   15.52222157  112.65699768    4.90999985    2.75000000
   15.52499962  111.14499664    4.90999985    2.75000000
   15.52805519  101.94400024    4.90999985    2.76999998
   15.53138828   94.25900269    4.90999985    2.75000000
   15.53444481  102.71900177    4.90999985    2.75000000
   15.53777790  102.06999969    4.90999985    2.71000004
   15.54111195  106.28099823    4.90999985    2.75000000
   15.54694462  106.28099823    4.90999985    2.76999998
   15.55111122  103.26399994    4.90999985    2.75000000
   15.55444431  103.50199890    4.90999985    2.75000000
   15.55555534  114.29100037    4.90999985    2.76999998
   15.55777836  114.52400208    4.90999985    2.75000000
   15.56111145   97.13760376    4.90999985    2.76999998
   15.56444454  102.72299957    4.90999985    2.76999998
   15.56750011  101.18699646    4.90999985    2.76999998
   15.57083321  109.07599640    4.90999985    2.76999998
   15.57416630  100.64700317    4.90999985    2.75000000
   15.57722187  105.95200348    4.90999985    2.75000000
   15.58055592  106.79299927    4.90999985    2.76999998
   15.58388901  102.04699707    4.90999985    2.76999998
   15.58972168  102.04699707    4.90999985    2.76999998
   15.59388828  111.73100281    4.90999985    2.76999998
   15.59722233  105.76899719    4.90999985    2.75000000
   15.60027790   98.71520233    4.90999985    2.76999998
   15.60361195   94.98660278    4.90999985    2.75000000
   15.60694504  102.33000183    4.90999985    2.75000000
   15.61000061  107.58000183    4.90999985    2.75000000
   15.61333370  108.51899719    4.90999985    2.75000000
   15.61666679  108.16200256    4.90999985    2.76999998
   15.61972237  103.07900238    4.90999985    2.76999998
   15.62222195   95.46060181    4.90999985    2.76999998
   15.62333393  108.53800201    4.90999985    2.75000000
   15.62666702   99.61750031    4.90999985    2.76999998
   15.63277817   99.61750031    4.90999985    2.76999998
   15.63666630  104.79699707    4.90999985    2.76999998
   15.64000034   95.18099976    4.90999985    2.75000000
   15.64333344   97.14150238    4.90999985    2.75000000
   15.64638901  107.74400330    4.90999985    2.75000000
   15.64972210   97.15760040    4.90999985    2.76999998
   15.65305519  107.66699982    4.90999985    2.75000000
   15.65555477   99.74780273    4.90999985    2.76999998
   15.65666676  102.31099701    4.90999985    2.76999998
   15.65972137  110.28099823    4.90999985    2.75000000
   15.66305542  102.67800140    4.90999985    2.73000002
   15.66611099  109.91999817    4.90999985    2.76999998
   15.66944504   97.88349915    4.90999985    2.75000000
   15.67555618   97.88349915    4.90999985    2.75000000
   15.67972279  104.65200043    4.90999985    2.75000000
   15.68277836  107.09600067    4.90999985    2.76999998
   15.68611145   92.40579987    4.90999985    2.75000000
   15.68888855   93.12950134    4.90999985    2.76999998
   15.69000053   96.72579956    4.90999985    2.76999998
   15.69305515   95.59649658    4.90999985    2.75000000
   15.69638920  105.78600311    4.90999985    2.76999998
   15.69972229  103.69200134    4.90999985    2.76999998
   15.70277786  106.27300262    4.90999985    2.76999998
   15.70611095  102.28299713    4.90999985    2.75000000
   15.70916653  100.02700043    4.90999985    2.75000000
   15.71249962   96.15969849    4.90999985    2.75000000
   15.71833324   96.15969849    4.90999985    2.75000000
   15.72249985  112.64299774    4.90999985    2.76999998
   15.72583294   93.37120056    4.90999985    2.75000000
   15.72888851   96.08609772    4.90999985    2.75000000
   15.73222160   97.92929840    4.90999985    2.76999998
   15.73527813   93.87000275    4.90999985    2.75000000
   15.73861122   95.28070068    4.90999985    2.76999998
   15.74194431   98.10700226    4.90999985    2.75000000
   15.74499989   93.88449860    4.90999985    2.75000000
   15.74833393   97.38400269    4.90999985    2.76999998
   15.75166702   90.50620270    4.90999985    2.76999998
   15.75472260  100.28800201    4.90999985    2.76999998
   15.75555515   95.57859802    4.90999985    2.76999998
   15.76111126   95.57859802    4.90999985    2.76999998
   15.76527786   96.65239716    4.90999985    2.76999998
   15.76861095   98.27719879    4.90999985    2.76999998
   15.77166653   98.12930298    4.90999985    2.76999998
   15.77499962   96.30100250    4.90999985    2.75000000
   15.77833271   87.97789764    4.90999985    2.76999998
   15.78138828  102.53700256    4.90999985    2.76999998
   15.78472233   95.99739838    4.90999985    2.75000000
   15.78805637   98.44219971    4.90999985    2.76999998
   15.78888893  107.04199982    4.90999985    2.76999998
   15.79166698   99.97940063    4.90999985    2.75000000
   15.79472256   88.49949646    4.90999985    2.76999998
   15.79805565  101.22100067    4.90999985    2.75000000
   15.80416679  101.22100067    4.90999985    2.76999998
   15.80805588   89.47090149    4.90999985    2.76999998
   15.81138897   89.41619873    4.90999985    2.76999998
   15.81472206   99.39730072    4.90999985    2.76999998
   15.81777763   94.41320038    4.90999985    2.76999998
   15.82111073   91.35919952    4.90999985    2.76999998
   15.82222176  100.01300049    4.90999985    2.75000000
   15.82472229   92.96920013    4.90999985    2.75000000
   15.82777786   95.89140320    4.90999985    2.76999998
   15.83111095   99.32550049    4.90999985    2.76999998
   15.83416653   90.10230255    4.90999985    2.76999998
   15.83749962   96.37149811    4.90999985    2.76999998
   15.84083271   94.04620361    4.90999985    2.75000000
   15.84694386   94.04620361    4.90999985    2.75000000
   15.85111141   86.83660126    4.90999985    2.76999998
   15.85416698   91.57450104    4.90999985    2.76999998
   15.85555553   90.07160187    4.90999985    2.75000000
   15.85805607   90.94950104    4.90999985    2.76999998
   15.86111164   88.88629913    4.90999985    2.76999998
   15.86444473   90.63459778    4.90999985    2.76999998
   15.86750031   93.36609650    4.90999985    2.76999998
   15.87083340   94.24349976    4.90999985    2.76999998
   15.87416649   93.73519897    4.90999985    2.75000000
   15.87722206   88.00820160    4.90999985    2.76999998
   15.88055611   88.79270172    4.90999985    2.75000000
   15.88388920   90.28839874    4.90999985    2.76999998
   15.88972187   90.28839874    4.90999985    2.76999998
   15.89388847   89.83599854    4.90999985    2.76999998
   15.89694405   90.14189911    4.90999985    2.76999998
   15.90027714   89.49759674    4.90999985    2.76999998
   15.90361118   85.18340302    4.90999985    2.75000000
   15.90666676   87.65309906    4.90999985    2.76999998
   15.90999985   91.74569702    4.90999985    2.75000000
   15.91333294   83.00679779    4.90999985    2.75000000
   15.91638851   88.07520294    4.90999985    2.76999998
   15.91972256   93.36319733    4.90999985    2.76999998
   15.92222214   85.79309845    4.90999985    2.76999998
   15.92333412   88.89720154    4.90999985    2.76999998
   15.92638874   90.63809967    4.90999985    2.75000000
   15.93249989   90.63809967    4.90999985    2.76999998
   15.93666649   88.67500305    4.90999985    2.76999998
   15.94000053   89.21240234    4.90999985    2.76999998
   15.94305515   92.26219940    4.90999985    2.75000000
   15.94638920   84.44039917    4.90999985    2.75000000
   15.94972229   85.95210266    4.90999985    2.75000000
   15.95277786   85.42639923    4.90999985    2.76999998
   15.95555496   82.87409973    4.90999985    2.76999998
   15.95666695   91.51329803    4.90999985    2.75000000
   15.95972157   90.06040192    4.90999985    2.75000000
   15.96305561   90.16079712    4.90999985    2.76999998
   15.96638870   91.46029663    4.90999985    2.76999998
   15.96944427   99.86759949    4.90999985    2.76999998
   15.97555542   99.86759949    4.90999985    2.76999998
   15.97944355   89.41970062    4.90999985    2.76999998
   15.98277760   93.49410248    4.90999985    2.75000000
   15.98611164   90.54190063    4.90999985    2.76999998
   15.98888874   86.85050201    4.90999985    2.76999998
   15.98972225   90.95600128    4.90999985    2.76999998
   15.99277782   92.50890350    4.90999985    2.76999998
   15.99611092   85.44139862    4.90999985    2.76999998
   15.99944496   85.15899658    4.90999985    2.76999998
   16.00250053   87.62400055    4.90999985    2.76999998
   16.00583267   88.33679962    4.90999985    2.76999998
   16.00916672   82.23300171    4.90999985    2.75000000
   16.01222229   80.70089722    4.90999985    2.76999998
   16.01833344   80.70089722    4.90999985    2.76999998
   16.02249908   82.78230286    4.90999985    2.76999998
   16.02555466   82.91030121    4.90999985    2.76999998
   16.02888870   84.17130280    4.90999985    2.76999998
   16.03194427   81.07119751    4.90999985    2.76999998
   16.03527641   83.47070313    4.90999985    2.76999998
   16.03861046   85.53309631    4.90999985    2.76999998
   16.04166603   86.90519714    4.90999985    2.76999998
   16.04500008   81.12850189    4.90999985    2.76999998
   16.04833221   83.41030121    4.90999985    2.76999998
   16.05138779   83.55799866    4.90999985    2.76999998
   16.05472183   83.43340302    4.90999985    2.75000000
   16.05555534   83.81210327    4.90999985    2.75000000
   16.06110954   83.81210327    4.90999985    2.76999998
   16.06527710   84.77349854    4.90999985    2.76999998
   16.06833458   80.20189667    4.90999985    2.76999998
   16.07166672   90.52639771    4.90999985    2.76999998
   16.08916664   87.91539764    4.90999985    2.76999998
   16.09166718   86.31839752    4.90999985    2.76999998
   16.09500122   87.77069855    4.90999985    2.76999998
   16.09805679   91.76509857    4.90999985    2.76999998
   16.10416794   91.76509857    4.90999985    2.76999998
   16.10833359   88.65779877    4.90999985    2.76999998
   16.11138916   90.38919830    4.90999985    2.76999998
   16.11472321   96.93779755    4.90999985    2.78999996
   16.11805534   92.89730072    4.90999985    2.76999998
   16.12111092   89.41829681    4.90999985    2.76999998
   16.12249947   85.46730042    4.90999985    2.76999998
   16.12500000   85.80269623    4.90999985    2.76999998
   16.12805557   91.45249939    4.90999985    2.76999998
   16.13138962   86.19429779    4.90999985    2.76999998
   16.13472176   89.21510315    4.90999985    2.76999998
   16.13777733   87.43640137    4.90999985    2.76999998
   16.14111137   87.37329865    4.90999985    2.76999998
   16.14694405   87.37329865    4.90999985    2.75000000
   16.15111160   89.63909912    4.90999985    2.76999998
   16.15444374   81.15100098    4.90999985    2.76999998
   16.15583229   83.65650177    4.90999985    2.76999998
   16.15805435   91.18679810    4.90999985    2.76999998
   16.16110992   87.48179626    4.90999985    2.76999998
   16.16444397   85.83480072    4.90999985    2.76999998
   16.16777802   89.69509888    4.90999985    2.75000000
   16.17083359   86.55899811    4.90999985    2.76999998
   16.17416573   88.47859955    4.90999985    2.76999998
   16.17749977   86.20189667    4.90999985    2.76999998
   16.18055534   81.33039856    4.90999985    2.76999998
   16.18388748   82.62779999    4.90999985    2.76999998
   16.18972206   82.62779999    4.90999985    2.76999998
   16.19388771   89.49150085    4.90999985    2.76999998
   16.19722176   84.13909912    4.90999985    2.76999998
   16.20027924   88.36430359    4.90999985    2.76999998
   16.20361137   87.88950348    4.90999985    2.76999998
   16.20694542   91.15640259    4.90999985    2.76999998
   16.21000099   81.83959961    4.90999985    2.76999998
   16.21333504   84.36309814    4.90999985    2.76999998
   16.21666718   87.76319885    4.90999985    2.76999998
   16.21972275   88.32099915    4.90999985    2.76999998
   16.22249985   80.29000092    4.90999985    2.76999998
   16.22361183   81.63569641    4.90999985    2.76999998
   16.22666740   83.59639740    4.90999985    2.76999998
   16.23277855   83.59639740    4.90999985    2.76999998
   16.23666763   88.29209900    4.90999985    2.76999998
   16.23999977   87.58560181    4.90999985    2.76999998
   16.24333382   87.75279999    4.90999985    2.76999998
   16.24638939   86.20059967    4.90999985    2.76999998
   16.24972153   89.87190247    4.90999985    2.76999998
   16.25305557   93.24629974    4.90999985    2.76999998
   16.25583267   92.97679901    4.90999985    2.76999998
   16.25666618   87.33110046    4.90999985    2.76999998
   16.26000023   97.42209625    4.90999985    2.76999998
   16.26305580   88.07240295    4.90999985    2.76999998
   16.26638794   86.15129852    4.90999985    2.76999998
   16.26972198   92.04170227    4.90999985    2.76999998
   16.27555466   92.04170227    4.90999985    2.76999998
   16.27972221   91.54650116    4.90999985    2.76999998
   16.28277779   98.77059937    4.90999985    2.76999998
   16.28610992   86.91909790    4.90999985    2.76999998
   16.28916550   85.82790375    4.90999985    2.75000000
   16.28972244   86.15529633    4.90999985    2.76999998
   16.29277802   88.40019989    4.90999985    2.76999998
   16.29611015   95.92160034    4.90999985    2.76999998
   16.29944420   87.08380127    4.90999985    2.76999998
   16.30249977   88.85040283    4.90999985    2.76999998
   16.30583191   96.73249817    4.90999985    2.76999998
   16.30916595   91.17449951    4.90999985    2.76999998
   16.31222153   90.68750000    4.90999985    2.76999998
   16.31833458   90.68750000    4.90999985    2.76999998
   16.32250023   89.59030151    4.90999985    2.75000000
   16.32305717   83.43689728    4.90999985    2.76999998
   16.32611275   88.68019867    4.90999985    2.76999998
   16.32944489   90.19760132    4.90999985    2.76999998
   16.33277893   91.08550262    4.90999985    2.76999998
   16.33583450   92.73780060    4.90999985    2.76999998
   16.33916664   91.30970001    4.90999985    2.76999998
   16.34250069   89.11630249    4.90999985    2.76999998
   16.34555626   91.63150024    4.90999985    2.76999998
   16.34889030   86.76869965    4.90999985    2.76999998
   16.35222244   84.89869690    4.90999985    2.75000000
   16.35527802   84.83370209    4.90999985    2.76999998
   16.35583305   84.49579620    4.90999985    2.76999998
   16.36111069   84.49579620    4.90999985    2.76999998
   16.36527824   92.42890167    4.90999985    2.76999998
   16.36861038   91.48960114    4.90999985    2.76999998
   16.37194443   86.20390320    4.90999985    2.76999998
   16.37500000   88.99310303    4.90999985    2.76999998
   16.37833405   90.06250000    4.90999985    2.76999998
   16.38138962   88.47740173    4.90999985    2.76999998
   16.38472176   91.69750214    4.90999985    2.76999998
   16.38805580   94.44960022    4.90999985    2.76999998
   16.38916588   86.77120209    4.90999985    2.75000000
   16.39166641   87.47679901    4.90999985    2.76999998
   16.39472198   87.34380341    4.90999985    2.76999998
   16.39805603   90.34500122    4.90999985    2.76999998
   16.40416718   90.34500122    4.90999985    2.76999998
   16.40805435   90.58129883    4.90999985    2.76999998
   16.41138840   89.93009949    4.90999985    2.76999998
   16.41472244   86.32610321    4.90999985    2.76999998
   16.41777802   88.61720276    4.90999985    2.76999998
   16.42111015   91.69059753    4.90999985    2.76999998
   16.42249870   86.40699768    4.90999985    2.76999998
   16.42472076   90.47799683    4.90999985    2.76999998
   16.42805481   94.99050140    4.90999985    2.76999998
   16.43111038   82.91000366    4.90999985    2.76999998
   16.43444443   88.26770020    4.90999985    2.76999998
   16.43750000   85.50669861    4.90999985    2.76999998
   16.44083214   92.22679901    4.90999985    2.76999998
   16.44694328   92.22679901    4.90999985    2.76999998
   16.45111275  100.91200256    4.90999985    2.76999998
   16.45416832   86.09449768    4.90999985    2.76999998
   16.45583344   89.63760376    4.90999985    2.76999998
   16.45805550   87.08309937    4.90999985    2.76999998
   16.46111107   94.98750305    4.90999985    2.76999998
   16.46444511   96.11319733    4.90999985    2.76999998
   16.46777916   93.23470306    4.90999985    2.76999998
   16.47083473   86.83209991    4.90999985    2.76999998
   16.47416687   87.51609802    4.90999985    2.76999998
   16.47750092   86.81790161    4.90999985    2.76999998
   16.48055649   86.96769714    4.90999985    2.76999998
   16.48388863   89.42680359    4.90999985    2.76999998
   16.48972321   89.42680359    4.90999985    2.76999998
   16.49388885   89.75890350    4.90999985    2.76999998
   16.49722290   89.25119781    4.90999985    2.76999998
   16.50027847   87.30519867    4.90999985    2.76999998
   16.50361061   88.21749878    4.90999985    2.76999998
   16.50666618   89.89189911    4.90999985    2.76999998
   16.51000023   92.48000336    4.90999985    2.76999998
   16.51333427   83.82389832    4.90999985    2.76999998
   16.51638794   95.37249756    4.90999985    2.76999998
   16.51972198   90.28759766    4.90999985    2.76999998
   16.52249908   87.05829620    4.90999985    2.76999998
   16.52333260   86.74199677    4.90999985    2.76999998
   16.52666664   84.28199768    4.90999985    2.76999998
   16.53249931   84.28199768    4.90999985    2.76999998
   16.53666687   86.02140045    4.90999985    2.76999998
   16.53999901   87.49430084    4.90999985    2.76999998
   16.54305458   83.94599915    4.90999985    2.76999998
   16.54638863   85.43530273    4.90999985    2.76999998
   16.54972076   89.58879852    4.90999985    2.76999998
   16.55277634   87.29589844    4.90999985    2.76999998
   16.55583191   84.55940247    4.90999985    2.76999998
   16.55638885   90.54740143    4.90999985    2.76999998
   16.55972099   85.59860229    4.90999985    2.76999998
   16.56277657   83.37529755    4.90999985    2.76999998
   16.56611061   88.25589752    4.90999985    2.76999998
   16.56916809   87.42759705    4.90999985    2.76999998
   16.57555580   87.42759705    4.90999985    2.76999998
   16.57944489   89.62750244    4.90999985    2.76999998
   16.58277893   83.33550262    4.90999985    2.76999998
   16.58611107   85.47429657    4.90999985    2.76999998
   16.58916664   89.86910248    4.90999985    2.76999998
   16.58972359   85.97959900    4.90999985    2.78999996
   16.59305573   88.59079742    4.90999985    2.76999998
   16.59611130   97.99040222    4.90999985    2.76999998
   16.59944534   85.80570221    4.90999985    2.76999998
   16.60250092   95.98049927    4.90999985    2.76999998
   16.60583305   92.33190155    4.90999985    2.76999998
   16.60916710   92.84899902    4.90999985    2.76999998
   16.61222267   98.48020172    4.90999985    2.76999998
   16.61833382   98.48020172    4.90999985    2.76999998
   16.62249947   86.08660126    4.90999985    2.76999998
   16.62305641   87.99040222    4.90999985    2.76999998
   16.62611198   89.51670074    4.90999985    2.76999998
   16.62944412   85.74250031    4.90999985    2.76999998
   16.63249969   85.62750244    4.90999985    2.76999998
   16.63583374   80.90850067    4.90999985    2.76999998
   16.63916588   83.37529755    4.90999985    2.76999998
   16.64222145   86.46779633    4.90999985    2.76999998
   16.64555550   90.50720215    4.90999985    2.76999998
   16.64888954   91.46569824    4.90999985    2.76999998
   16.65194321   82.15129852    4.90999985    2.76999998
   16.65527725   91.76349640    4.90999985    2.76999998
   16.65638924   86.23439789    4.90999985    2.76999998
   16.66110992   86.23439789    4.90999985    2.76999998
   16.66527748   87.86990356    4.90999985    2.76999998
   16.66833305   90.94360352    4.90999985    2.76999998
   16.67166519   93.40689850    4.90999985    2.76999998
   16.67499924   90.35720062    4.90999985    2.76999998
   16.67833328   86.82779694    4.90999985    2.76999998
   16.68138885   93.86840057    4.90999985    2.76999998
   16.68472099   83.98169708    4.90999985    2.76999998
   16.68777657   92.13030243    4.90999985    2.76999998
   16.68972206   92.44969940    4.90999985    2.76999998
   16.69138718   89.55619812    4.90999985    2.76999998
   16.69472122   86.83789825    4.90999985    2.76999998
   16.69777679   83.59960175    4.90999985    2.76999998
   16.70388985   83.59960175    4.90999985    2.76999998
   16.70805550   87.05030060    4.90999985    2.76999998
   16.71138954   92.06159973    4.90999985    2.76999998
   16.71444511   87.79070282    4.90999985    2.76999998
   16.71777916   89.87779999    4.90999985    2.76999998
   16.72111130   89.60040283    4.90999985    2.76999998
   16.72305679   87.21070099    4.90999985    2.76999998
   16.72444534   95.99669647    4.90999985    2.76999998
   16.72777748   90.45829773    4.90999985    2.76999998
   16.73083305   87.04940033    4.90999985    2.76999998
   16.73416710   89.69779968    4.90999985    2.76999998
   16.73750114   78.95539856    4.90999985    2.76999998
   16.74055672   82.18969727    4.90999985    2.76999998
   16.74694443   82.18969727    4.90999985    2.76999998
   16.75083351   90.00830078    4.90999985    2.78999996
   16.75416756   89.01799774    4.90999985    2.76999998
   16.75638962   72.77890015    4.90999985    2.76999998
   16.75777817   76.90380096    4.90999985    2.76999998
   16.76111031   90.26390076    4.90999985    2.76999998
   16.76444435   78.31220245    4.90999985    2.76999998
   16.76749992   85.86170197    4.90999985    2.76999998
   16.77083397   90.96119690    4.90999985    2.76999998
   16.77388954   90.47979736    4.90999985    2.76999998
   16.77722168   90.22599792    4.90999985    2.76999998
   16.78055573   82.32369995    4.90999985    2.76999998
   16.78361130   86.69200134    4.90999985    2.76999998
   16.78972244   86.69200134    4.90999985    2.76999998
   16.79388809   87.37210083    4.90999985    2.76999998
   16.79694366   87.77570343    4.90999985    2.76999998
   16.80027771   91.25379944    4.90999985    2.76999998
   16.80333328   90.06600189    4.90999985    2.76999998
   16.80666542   91.48899841    4.90999985    2.76999998
   16.80999947   91.70880127    4.90999985    2.76999998
   16.81305504   95.04119873    4.90999985    2.76999998
   16.81638718   95.08309937    4.90999985    2.76999998
   16.81972313   88.74160004    4.90999985    2.76999998
   16.82277870   93.24289703    4.90999985    2.76999998
   16.82472229   90.52639771    4.90999985    2.76999998
   16.82666779   91.09899902    4.90999985    2.76999998
   16.83250046   91.09899902    4.90999985    2.76999998
   16.83666801   89.41369629    4.90999985    2.78999996
   16.83972359   88.09519958    4.90999985    2.76999998
   16.84305573   83.77850342    4.90999985    2.76999998
   16.84638977   94.07810211    4.90999985    2.76999998
   16.84944534   85.19850159    4.90999985    2.76999998
   16.85277748   91.16909790    4.90999985    2.76999998
   16.85611153   95.64980316    4.90999985    2.76999998
   16.85805511   96.90309906    4.90999985    2.76999998
   16.85972214   87.49210358    4.90999985    2.76999998
   16.86277771   86.19609833    4.90999985    2.76999998
   16.86611176   85.78559875    4.90999985    2.76999998
   16.86916733   86.28589630    4.90999985    2.76999998
   16.87527847   86.28589630    4.90999985    2.76999998
   16.87944412   78.33930206    4.90999985    2.76999998
   16.88277817   84.65180206    4.90999985    2.76999998
   16.88583374   86.13619995    4.90999985    2.76999998
   16.88916588   91.67569733    4.90999985    2.76999998
   16.89166641   96.69560242    4.90999985    2.76999998
   16.89277840   86.02359772    4.90999985    2.76999998
   16.89611053   85.76409912    4.90999985    2.76999998
   16.89944458   87.67430115    4.90999985    2.76999998
   16.90250015   86.25939941    4.90999985    2.76999998
   16.90583229   88.26239777    4.90999985    2.76999998
   16.90888786   89.81990051    4.90999985    2.76999998
   16.91222191   87.70339966    4.90999985    2.76999998
   16.91805458   87.70339966    4.90999985    2.76999998
   16.92222214   84.26219940    4.90999985    2.76999998
   16.92499924   93.31020355    4.90999985    2.76999998
   16.92583275   91.59970093    4.90999985    2.76999998
   16.92916679   83.27999878    4.90999985    2.76999998
   16.93249893   84.78070068    4.90999985    2.76999998
   16.93555450   83.13610077    4.90999985    2.76999998
   16.93888855   70.50710297    4.90999985    2.78999996
   16.94194412   82.98950195    4.90999985    2.76999998
   16.94527626   86.39029694    4.90999985    2.76999998
   16.94861031   88.36550140    4.90999985    2.76999998
   16.95166779   87.56430054    4.90999985    2.76999998
   16.95499992   90.34549713    4.90999985    2.76999998
   16.96111107   90.34549713    4.90999985    2.76999998
   16.96527863   89.91600037    4.90999985    2.76999998
   16.96833420   89.15989685    4.90999985    2.76999998
   16.97166634   88.26090240    4.90999985    2.76999998
   16.97472191   84.10530090    4.90999985    2.76999998
   16.97805595   77.10260010    4.90999985    2.76999998
   16.98139000   89.81379700    4.90999985    2.76999998
   16.98444557   95.53520203    4.90999985    2.76999998
   16.98777771   91.31289673    4.90999985    2.76999998
   16.99111176   86.19969940    4.90999985    2.76999998
   16.99194527   80.43430328    4.90999985    2.76999998
   16.99472237   94.05079651    4.90999985    2.76999998
   16.99777794   91.38960266    4.90999985    2.76999998
   17.00388908   91.38960266    4.90999985    2.76999998
   17.00805473   80.80760193    4.90999985    2.76999998
   17.01138878   88.96240234    4.90999985    2.76999998
   17.01444435   91.93609619    4.90999985    2.76999998
   17.01777840   86.95500183    4.90999985    2.76999998
   17.02083397   89.43979645    4.90999985    2.76999998
   17.02416611   92.97650146    4.90999985    2.76999998
   17.02527809   94.88150024    4.90999985    2.76999998
   17.02805519   88.75289917    4.90999985    2.75000000
   17.03111076   84.70939636    4.90999985    2.76999998
   17.03444481   87.37480164    4.90999985    2.76999998
   17.03777695   89.91580200    4.90999985    2.76999998
   17.04083252   92.65000153    4.90999985    2.76999998
   17.04666710   92.65000153    4.90999985    2.76999998
   17.05083275   86.69319916    4.90999985    2.76999998
   17.05416679   92.19480133    4.90999985    2.76999998
   17.05722237   84.52860260    4.90999985    2.76999998
   17.05888748   87.70490265    4.90999985    2.76999998
   17.06083298   90.00319672    4.90999985    2.76999998
   17.06416512   84.01129913    4.90999985    2.76999998
   17.06750107   89.40019989    4.90999985    2.76999998
   17.07055664   79.70400238    4.90999985    2.76999998
   17.07389069   89.76570129    4.90999985    2.76999998
   17.07722282   90.79820251    4.90999985    2.76999998
   17.08027840   84.61289978    4.90999985    2.76999998
   17.08361244   89.43319702    4.90999985    2.76999998
   17.08944511   89.43319702    4.90999985    2.76999998
   17.10805511   83.79149628    4.90999985    2.76999998
   17.11111069   72.68810272    4.90999985    2.76999998
   17.11444473   84.89710236    4.90999985    2.76999998
   17.11777878   87.08630371    4.90999985    2.76999998
   17.12083435   87.17279816    4.90999985    2.76999998
   17.12416649   79.93409729    4.90999985    2.76999998
   17.12722206   90.69290161    4.90999985    2.76999998
   17.13277817   90.69290161    4.90999985    2.76999998
   17.13694382   79.49189758    4.90999985    2.76999998
   17.13999939   85.32749939    4.90999985    2.76999998
   17.14111137   85.84829712    4.90999985    2.76999998
   17.14361191   89.06620026    4.90999985    2.76999998
   17.14694405   86.01059723    4.90999985    2.76999998
   17.15027809   87.88120270    4.90999985    2.76999998
   17.15333366   90.45760345    4.90999985    2.76999998
   17.15666580   92.40740204    4.90999985    2.76999998
   17.15972137   86.03829956    4.90999985    2.76999998
   17.16305542   80.89990234    4.90999985    2.76999998
   17.16638756   82.73190308    4.90999985    2.76999998
   17.16944313   87.03220367    4.90999985    2.76999998
   17.17555428   87.03220367    4.90999985    2.76999998
   17.17972183   88.65830231    4.90999985    2.76999998
   17.18277740   90.14720154    4.90999985    2.76999998
   17.18610954   87.10720062    4.90999985    2.76999998
   17.18944359   82.53579712    4.90999985    2.76999998
   17.19249916   86.16069794    4.90999985    2.76999998
   17.19583321   87.55269623    4.90999985    2.76999998
   17.19888878   89.86450195    4.90999985    2.76999998
   17.20222282   87.38549805    4.90999985    2.76999998
   17.20555687   88.73889923    4.90999985    2.76999998
   17.20777893   90.61650085    4.90999985    2.76999998
   17.20888901   91.53849792    4.90999985    2.76999998
   17.21222305   88.30169678    4.90999985    2.76999998
   17.21833420   88.30169678    4.90999985    2.76999998
   17.22249985   85.39499664    4.90999985    2.76999998
   17.22583389   91.88559723    4.90999985    2.76999998
   17.22888947   89.78379822    4.90999985    2.76999998
   17.23222351   90.47720337    4.90999985    2.76999998
   17.23527718   81.50360107    4.90999985    2.76999998
   17.23861122   89.13999939    4.90999985    2.76999998
   17.24111176   93.14459991    4.90999985    2.76999998
   17.24222183   96.57810211    4.90999985    2.76999998
   17.24555588   85.96939850    4.90999985    2.76999998
   17.24888992   90.99919891    4.90999985    2.76999998
   17.25194359   82.28589630    4.90999985    2.76999998
   17.25527763   86.06120300    4.90999985    2.75000000
   17.26111031   86.06120300    4.90999985    2.76999998
   17.26527786   83.04309845    4.90999985    2.76999998
   17.26861000   78.22450256    4.90999985    2.76999998
   17.27166557   90.80650330    4.90999985    2.76999998
   17.27444458   79.52230072    4.90999985    2.76999998
   17.27527809   82.44360352    4.90999985    2.76999998
   17.27861023   88.58390045    4.90999985    2.76999998
   17.28194427   90.20980072    4.90999985    2.76999998
   17.28499985   84.46399689    4.90999985    2.76999998
   17.28833199   90.93080139    4.90999985    2.76999998
   17.29166603   90.20449829    4.90999985    2.76999998
   17.29472160   90.36470032    4.90999985    2.76999998
   17.29805565   89.31590271    4.90999985    2.76999998
   17.30416679   89.31590271    4.90999985    2.76999998
   17.30805397   81.94960022    4.90999985    2.76999998
   17.31138802   90.18109894    4.90999985    2.76999998
   17.31472206   87.89669800    4.90999985    2.76999998
   17.31777954   88.81999969    4.90999985    2.76999998
   17.32111168   92.61139679    4.90999985    2.76999998
   17.32444572   86.09190369    4.90999985    2.76999998
   17.32750130   76.51670074    4.90999985    2.76999998
   17.33083344   90.84329987    4.90999985    2.76999998
   17.33388901   90.56670380    4.90999985    2.76999998
   17.33722305   94.68609619    4.90999985    2.76999998
   17.34055710   88.59609985    4.90999985    2.76999998
   17.34111214   87.91100311    4.90999985    2.76999998
   17.34694481   87.91100311    4.90999985    2.76999998
   17.35111237   91.24880219    4.90999985    2.76999998
   17.35416794   94.07250214    4.90999985    2.76999998
   17.35750008   85.75630188    4.90999985    2.76999998
   17.36083412   87.83879852    4.90999985    2.75000000
   17.36388969   88.58480072    4.90999985    2.76999998
   17.36722183   86.55870056    4.90999985    2.76999998
   17.37055588   76.67579651    4.90999985    2.76999998
   17.37361145   85.18440247    4.90999985    2.76999998
   17.37444496   86.67759705    4.90999985    2.76999998
   17.37722206   87.92649841    4.90999985    2.76999998
   17.38055611   85.00740051    4.90999985    2.76999998
   17.38388824   86.97460175    4.90999985    2.76999998
   17.38972282   86.97460175    4.90999985    2.76999998
   17.39388847   86.41280365    4.90999985    2.76999998
   17.39722252   85.47039795    4.90999985    2.76999998
   17.40027809   83.11029816    4.90999985    2.76999998
   17.40361023   86.57550049    4.90999985    2.75000000
   17.40666580   80.99800110    4.90999985    2.76999998
   17.40777779   87.40290070    4.90999985    2.76999998
   17.41027832   89.98549652    4.90999985    2.76999998
   17.41361046   88.90779877    4.90999985    2.76999998
   17.41694450   88.74210358    4.90999985    2.76999998
   17.42000008   87.65499878    4.90999985    2.76999998
   17.42333221   88.54409790    4.90999985    2.76999998
   17.42666626   87.66390228    4.90999985    2.76999998
   17.43249893   87.66390228    4.90999985    2.76999998
   17.43666649   83.63590240    2.17000008    2.86999989
   17.43999863   84.07589722    0.07000000    0.41999999
   17.44111061   83.65209961    0.07000000    0.41999999
   17.44333267   90.60220337    0.05000000    0.20999999
   17.44666672   83.81420135    0.05000000    0.03000000
   17.45000076   84.28170013    0.05000000    0.03000000
   17.45305634   87.99739838    0.05000000    0.03000000
   17.45639038   82.46540070    0.05000000    0.03000000
   17.45972252   86.18949890    0.05000000    0.03000000
   17.46277809   83.85710144    0.05000000    0.03000000
   17.46611214   82.56510162    0.05000000    0.03000000
   17.46916771   86.00620270    0.05000000    0.03000000
   17.47555542   86.00620270    0.05000000    0.03000000
   17.47972298   86.62960052    0.05000000    0.03000000
   17.48277855   82.28749847    0.05000000    0.03000000
   17.48611069   86.01989746    0.05000000    0.03000000
   17.48916626   87.20989990    0.05000000    0.03000000
   17.49250031   85.01640320    0.05000000    0.03000000
   17.49583435   88.86799622    0.05000000    0.03000000
   17.49888992   88.78540039    0.05000000    0.03000000
   17.50222206   88.34600067    0.05000000    0.03000000
   17.50555611   83.92960358    0.05000000    0.03000000
   17.50777817   92.89450073    0.05000000    0.03000000
   17.50888824   90.10980225    0.05000000    0.03000000
   17.51222229   84.37460327    0.05000000    0.03000000
   17.51833344   84.37460327    0.05000000    0.03000000
   17.52249908   88.61049652    0.05000000    0.03000000
   17.52555466   82.81710052    0.05000000    0.03000000
   17.52888870   83.93479919    0.05000000    0.03000000
   17.53222275   84.31700134    0.05000000    0.03000000
   17.53527641   87.35780334    0.05000000    0.03000000
   17.53861046   91.63549805    0.05000000    0.03000000
   17.54111099   90.30829620    0.05000000    0.03000000
   17.54194450   85.10559845    0.05000000    0.03000000
   17.54527664   89.40480042    0.05000000    0.03000000
   17.54861069   85.73660278    0.05000000    0.03000000
   17.55166626   90.49250031    0.05000000    0.03000000
   17.55499840   87.01879883    0.05000000    0.03000000
   17.56110954   87.01879883    0.05000000    0.03000000
   17.56527710   80.21790314    0.05000000    0.03000000
   17.56861115   79.02539825    0.05000000    0.03000000
   17.57166672   96.24919891    0.05000000    0.03000000
   17.57444572   90.10420227    0.05000000    0.03000000
   17.57555580   85.39320374    0.05000000    0.03000000
   17.57861137   92.26979828    0.05000000    0.03000000
   17.58194542   96.93260193    0.05000000    0.03000000
   17.58500099   92.97869873    0.05000000    0.03000000
   17.58833313   91.01650238    0.05000000    0.03000000
   17.59166718   81.91059875    0.05000000    0.03000000
   17.59472275   89.17389679    0.05000000    0.03000000
   17.59805679   91.28420258    0.05000000    0.03000000
   17.60388947   91.28420258    0.05000000    0.03000000
   17.60805511   90.34200287    0.05000000    0.03000000
   17.61138916   89.15329742    0.05000000    0.03000000
   17.61472321   91.17379761    0.05000000    0.03000000
   17.61777878   82.52600098    0.05000000    0.03000000
   17.62111092   92.56919861    0.05000000    0.03000000
   17.62416649   94.89140320    0.05000000    0.03000000
   17.62750053   87.60330200    0.05000000    0.03000000
   17.63083267   89.91909790    0.05000000    0.03000000
   17.63388824   85.65480042    0.05000000    0.03000000
   17.63722229   87.97319794    0.05000000    0.03000000
   17.64055634   94.68479919    0.05000000    0.03000000
   17.64111137   91.62159729    0.05000000    0.03000000
   17.64694405   91.62159729    0.05000000    0.03000000
   17.65111160   98.35230255    0.05000000    0.03000000
   17.65416718   92.09110260    0.05000000    0.03000000
