    HOUR (UT)   FLARE FACTOR    SKY TESTER    SUN TESTER
   12.18083382   -1.00000000   -1.00000000   -1.00000000
   12.20694447  208.35800171    4.90999985    1.89999998
   12.21000004  198.70300293    4.90999985    1.89999998
   12.21333313   -1.00000000    4.90999985    1.89999998
   12.21666622   -1.00000000    4.90999985    1.89999998
   12.21972179   -1.00000000    4.90999985    1.89999998
   12.22305489   -1.00000000    4.90999985    1.89999998
   12.23111057  214.58399963    4.90999985    1.91999996
   12.23444462  209.83999634    4.90999985    1.89999998
   12.23777771  221.13000488    4.90999985    1.89999998
   12.24027824  225.88200378    4.90999985    1.91999996
   12.24111176  224.54200745    4.90999985    1.91999996
   12.24444485  218.95899963    4.73999977    1.91999996
   12.24777794  207.83399963    4.38999987    1.94000006
   12.25083351  203.92799377    4.30999994    1.91999996
   12.25416660  225.83299255    4.46999979    1.94000006
   12.25722218  231.90899658    4.67999983    1.94000006
   12.26055527  221.28799438    4.86999989    1.94000006
   12.26388931  229.14300537    4.90999985    1.94000006
   12.26999950  229.14300537    4.90999985    1.94000006
   12.27416611  241.09899902    4.90999985    1.94000006
   12.27750015  243.28199768    4.90999985    1.94000006
   12.28055573  268.74798584    4.90999985    1.88000000
   12.28388977  282.69799805    4.90999985    1.83000004
   12.28694534  262.64099121    4.90999985    1.86000001
   12.29027843  223.12699890    4.90999985    1.89999998
   12.29361153  216.21699524    4.90999985    1.94000006
   12.29666710  237.01800537    4.90999985    1.96000004
   12.30000019  219.58799744    4.90999985    1.98000002
   12.30333328  220.72799683    4.90999985    1.98000002
   12.30666733  205.13000488    4.90999985    1.98000002
   12.30722237  206.49800110    4.90999985    1.98000002
   12.31277752  206.49800110    4.90999985    1.98000002
   12.31694412  220.69099426    4.90999985    1.98000002
   12.32027817  205.71899414    4.90999985    1.98000002
   12.32333374  202.16900635    4.90999985    2.00000000
   12.32666683  206.02000427    4.90999985    2.00000000
   12.32999992  202.63099670    4.90999985    2.00000000
   12.33305550  211.23899841    4.90999985    2.01999998
   12.33638859  202.05599976    4.90999985    2.01999998
   12.33972168  197.01100159    4.90999985    2.01999998
   12.34055519  214.22799683    4.90999985    2.01999998
   12.34305477  209.03700256    4.90999985    2.00000000
   12.34638882  193.03700256    4.90999985    2.00000000
   12.34944439  187.00000000    4.90999985    2.03999996
   12.35583401  187.00000000    4.90999985    2.03999996
   12.35972214  187.35099792    4.90999985    2.03999996
   12.36305618  200.57600403    4.90999985    2.03999996
   12.36638927  202.25300598    4.90999985    2.03999996
   12.36944485  188.71499634    4.90999985    2.01999998
   12.37277794  191.47700500    4.90999985    2.03999996
   12.37388897  190.72200012    4.90999985    2.03999996
   12.37638855  188.52099609    4.90999985    2.03999996
   12.37972260  183.37500000    4.90999985    2.03999996
   12.38305569  186.34500122    4.90999985    2.03999996
   12.38611126  188.76400757    4.90999985    2.03999996
   12.38944435  184.41700745    4.67999983    2.03999996
   12.39249992  186.54699707    4.17999983    2.03999996
   12.39861107  186.54699707    3.84999990    2.05999994
   12.40277767  173.00900269    3.93000007    2.05999994
   12.40583324  182.82000732    4.00000000    2.05999994
   12.40722179  179.08299255    4.03999996    2.05999994
   12.40944386  187.77099609    4.11999989    2.03999996
   12.41277695  173.65299988    4.26000023    2.05999994
   12.41583252  175.26600647    4.30999994    2.05999994
   12.41916656  170.65499878    4.30999994    2.05999994
   12.42250061  183.68400574    4.23999977    2.03999996
   12.42555618  170.91999817    4.07999992    2.05999994
   12.42888927  167.32200623    3.82999992    2.07999992
   12.43222237  173.90699768    3.66000009    2.07999992
   12.43527794  165.01400757    3.57999992    2.07999992
   12.44138908  165.01400757    3.51999998    2.07999992
   12.44555569  176.67100525    3.51999998    2.07999992
   12.44888878  166.84300232    3.53999996    2.09999990
   12.45194435  169.63499451    3.53999996    2.07999992
   12.45527744  171.77400208    3.51999998    2.07999992
   12.45833302  167.69299316    3.53999996    2.07999992
   12.46166611  168.59800720    3.53999996    2.07999992
   12.46500015  173.67900085    3.57999992    2.07999992
   12.46805477  164.44200134    3.59999990    2.09999990
   12.47138882  179.18400574    3.59999990    2.09999990
   12.47388840  166.82699585    3.59999990    2.09999990
   12.47499943  161.52999878    3.61999989    2.07999992
   12.47833252  157.47200012    3.61999989    2.09999990
   12.48416710  157.47200012    3.64000010    2.09999990
   12.48833370  161.69200134    3.66000009    2.09999990
   12.49166679  159.15800476    3.70000005    2.09999990
   12.49472237  153.71600342    3.70000005    2.09999990
   12.49805546  155.90800476    3.70000005    2.09999990
   12.50138855  154.86700439    3.72000003    2.11999989
   12.50444412  154.29400635    3.72000003    2.11999989
   12.50722218  155.78799438    3.72000003    2.11999989
   12.50805569  152.03199768    3.70000005    2.09999990
   12.51138878  156.48800659    3.66000009    2.09999990
   12.51444435  156.65800476    3.61999989    2.11999989
   12.51777744  150.28999329    3.55999994    2.11999989
   12.52111053  154.44799805    3.51999998    2.11999989
   12.52722168  154.44799805    3.50000000    2.13000011
   12.53111076  146.98500061    3.46000004    2.11999989
   12.53444481  140.98199463    3.45000005    2.11999989
   12.53777790  145.19400024    3.41000009    2.13000011
   12.54055595  145.23399353    3.39000010    2.13000011
   12.54138947  144.71800232    3.39000010    2.11999989
   12.54472256  150.87300110    3.39000010    2.13000011
   12.54777813  149.32299805    3.34999990    2.11999989
   12.55111122  140.89399719    3.34999990    2.13000011
   12.55444431  139.83599854    3.32999992    2.13000011
   12.55749989  153.12699890    3.28999996    2.13000011
   12.56083393  158.65299988    3.25000000    2.13000011
   12.56416702  146.51100159    3.23000002    2.13000011
   12.56999969  146.51100159    3.23000002    2.15000010
   12.57416630  137.05999756    3.25000000    2.15000010
   12.57722187  144.38099670    3.25000000    2.15000010
   12.58055592  148.04800415    3.25000000    2.13000011
   12.58388901  145.99000549    3.23000002    2.15000010
   12.58694458  139.21899414    3.25000000    2.13000011
   12.59027767  136.48300171    3.26999998    2.15000010
   12.59333324  134.93299866    3.26999998    2.15000010
   12.59666634  138.86199951    3.28999996    2.15000010
   12.60000038  147.98500061    3.30999994    2.15000010
   12.60305595  142.89799500    3.32999992    2.15000010
   12.60638905  137.44200134    3.32999992    2.15000010
   12.60722256  148.26499939    3.32999992    2.15000010
   12.61277771  148.26499939    3.32999992    2.19000006
   12.61694431  136.59199524    3.30999994    2.15000010
   12.62027836  138.44099426    3.28999996    2.15000010
   12.62333393  136.37100220    3.26999998    2.17000008
   12.62666702  148.40600586    3.25000000    2.17000008
   12.62972260  139.74899292    3.23000002    2.17000008
   12.63305569  144.17300415    3.21000004    2.17000008
   12.63638878  141.40499878    3.20000005    2.17000008
   12.63944435  139.48300171    3.18000007    2.17000008
   12.64055538  154.48199463    3.18000007    2.17000008
   12.64305496  143.25799561    3.18000007    2.17000008
   12.64638901  142.00599670    3.16000009    2.17000008
   12.64972210  141.06100464    3.14000010    2.17000008
   12.65555477  141.06100464    3.09999990    2.17000008
   12.65972137  139.27799988    3.09999990    2.17000008
   12.66305542  145.50999451    3.09999990    2.19000006
   12.66611099  139.48199463    3.09999990    2.17000008
   12.66944504  148.90600586    3.05999994    2.19000006
   12.67277813  140.49499512    3.01999998    2.17000008
   12.67388916  140.50700378    3.01999998    2.17000008
   12.67611122  141.82400513    2.98000002    2.19000006
   12.67944431  135.23399353    2.98000002    2.17000008
   12.68277836  138.12699890    2.98000002    2.19000006
   12.68583298  133.41600037    2.96000004    2.21000004
   12.68916702  144.09100342    2.96000004    2.21000004
   12.69222260  134.22900391    2.96000004    2.21000004
   12.69861126  134.22900391    2.94000006    2.19000006
   12.70249939  131.61099243    2.94000006    2.21000004
   12.70583344  134.09800720    2.94000006    2.21000004
   12.70722198  141.52699280    2.94000006    2.19000006
   12.70944405  137.93800354    2.94000006    2.19000006
   12.71277714  138.00500488    2.93000007    2.21000004
   12.71611118  135.80900574    2.91000009    2.21000004
   12.71916580  134.81500244    2.91000009    2.21000004
   12.72249985  132.25300598    2.89000010    2.21000004
   12.72555542  135.12199402    2.86999989    2.21000004
   12.72888851  135.00799561    2.86999989    2.21000004
   12.73222160  132.68200684    2.86999989    2.21000004
   12.73527813  134.92900085    2.86999989    2.23000002
   12.74138927  134.92900085    2.89000010    2.23000002
   12.74555588   -1.00000000    2.89000010    2.23000002
   12.74861145  100.66600037    2.89000010    2.23000002
   12.75194454   86.57669830    2.89000010    2.21000004
   12.75527763   82.72699738    2.89000010    2.23000002
   12.75833321   82.77490234    2.89000010    2.21000004
   12.76166630   80.12920380    2.86999989    2.23000002
   12.76500034   87.12030029    2.86999989    2.23000002
   12.76805496   -1.00000000    2.84999990    2.23000002
   12.77138901   -1.00000000    2.84999990    2.23000002
   12.77388859  177.18600464    2.84999990    2.23000002
   12.77499962   -1.00000000    2.84999990    2.23000002
   12.77833271   95.44100189    2.84999990    2.23000002
   12.78416729   95.44100189    2.86999989    2.23000002
   12.78833389  135.12500000    2.89000010    2.25000000
   12.79166698  144.04100037    2.91000009    2.25000000
   12.79472256  143.55900574    2.91000009    2.23000002
   12.79805565  134.95300293    2.89000010    2.25000000
   12.80111122  147.03100586    2.86999989    2.23000002
   12.80444431  135.81799316    2.82999992    2.25000000
   12.80722237  149.69900513    2.80999994    2.23000002
   12.80805588  141.78100586    2.80999994    2.23000002
   12.81138897  142.20100403    2.76999998    2.23000002
   12.81472206  144.41499329    2.75000000    2.25000000
   12.81777763  143.59700012    2.73000002    2.25000000
   12.82111073  150.46000671    2.71000004    2.25000000
   12.82694435  150.46000671    2.69000006    2.25000000
   12.83111095  141.36700439    2.66000009    2.23000002
   12.83444405  149.35899353    2.61999989    2.25000000
   12.83749962  151.99699402    2.57999992    2.25000000
   12.84055519  144.86799622    2.55999994    2.25000000
   12.84111118  153.00799561    2.53999996    2.25000000
   12.84444427  155.63699341    2.51999998    2.23000002
   12.84777737  152.29899597    2.48000002    2.23000002
   12.85083389  145.37300110    2.46000004    2.25000000
   12.85416698  147.53500366    2.44000006    2.25000000
   12.85722256  141.70100403    2.44000006    2.25000000
   12.86055565  151.68299866    2.42000008    2.25000000
   12.86388969  155.58399963    2.42000008    2.25000000
   12.86999989  155.58399963    2.40000010    2.25000000
   12.87388897  143.24400330    2.40000010    2.26999998
   12.87722206  146.24099731    2.40000010    2.25000000
   12.88055611  145.36700439    2.42000008    2.26999998
   12.88361073  148.82299805    2.42000008    2.28999996
   12.88694477  152.16099548    2.42000008    2.26999998
   12.89027786  157.66700745    2.40000010    2.26999998
   12.89333344  153.19900513    2.39000010    2.25000000
   12.89666653  145.87100220    2.39000010    2.26999998
   12.89972210  152.40600586    2.36999989    2.26999998
   12.90305519  153.32699585    2.36999989    2.26999998
   12.90638828  146.50500488    2.36999989    2.26999998
   12.90722179  152.36599731    2.36999989    2.26999998
   12.91277695  152.36599731    2.36999989    2.28999996
   12.91694450  147.99600220    2.36999989    2.26999998
   12.92000008  147.19599915    2.36999989    2.25000000
   12.92333412  161.27799988    2.34999990    2.28999996
   12.92666721  142.86999512    2.34999990    2.28999996
   12.92972279  155.02600098    2.34999990    2.28999996
   12.93305588  149.15299988    2.34999990    2.28999996
   12.93611145  154.41000366    2.34999990    2.28999996
   12.93944454  151.97500610    2.34999990    2.28999996
   12.94055557  154.05099487    2.34999990    2.28999996
   12.94305515  166.10099792    2.34999990    2.30999994
   12.94638920  168.04499817    2.34999990    2.28999996
   12.94972229  151.69500732    2.32999992    2.28999996
   12.95555496  151.69500732    2.30999994    2.28999996
   12.95972157  148.90100098    2.30999994    2.30999994
   12.96305561  153.99899292    2.30999994    2.28999996
   12.96611118  143.71800232    2.30999994    2.28999996
   12.96944427  151.73500061    2.28999996    2.28999996
   12.97277737  143.32899475    2.28999996    2.30999994
   12.97388840  146.52999878    2.28999996    2.30999994
   12.97611046  153.89199829    2.28999996    2.28999996
   12.97944355  149.55599976    2.26999998    2.28999996
   12.98277760  153.85499573    2.28999996    2.28999996
   12.98583317  155.05299377    2.28999996    2.28999996
   12.98916721  151.60099792    2.30999994    2.30999994
   12.99250031  151.54299927    2.28999996    2.32999992
   12.99833393  151.54299927    2.28999996    2.30999994
   13.00249958  141.88099670    2.25000000    2.30999994
   13.00583363  141.41700745    2.23000002    2.30999994
   13.00722218  155.43699646    2.23000002    2.28999996
   13.00916672  149.22900391    2.21000004    2.30999994
   13.01249981  143.67500305    2.23000002    2.30999994
   13.01583290  151.05400085    2.23000002    2.32999992
   13.01888847  144.20300293    2.21000004    2.30999994
   13.02222157  144.89999390    2.23000002    2.30999994
   13.02555561  149.44500732    2.23000002    2.30999994
   13.02861118  146.45899963    2.21000004    2.30999994
   13.03194427  140.32600403    2.21000004    2.30999994
   13.03500080  147.27099609    2.21000004    2.30999994
   13.04138947  147.27099609    2.19000006    2.32999992
   13.04527855  149.82899475    2.17000008    2.32999992
   13.04861164  150.81700134    2.19000006    2.32999992
   13.05194473  139.09700012    2.19000006    2.32999992
   13.05500031  141.60699463    2.19000006    2.32999992
   13.05833340  145.03700256    2.19000006    2.32999992
   13.06166649  145.54400635    2.17000008    2.32999992
   13.06472206  147.16400146    2.17000008    2.32999992
   13.06805515  146.82600403    2.19000006    2.32999992
   13.07111073  144.98399353    2.19000006    2.30999994
   13.07388878  161.41499329    2.19000006    2.32999992
   13.07472229  157.16299438    2.19000006    2.32999992
   13.07805538  147.62399292    2.17000008    2.32999992
   13.08416653  147.62399292    2.19000006    2.32999992
   13.08833313  148.11700439    2.19000006    2.32999992
   13.09138870  147.67900085    2.19000006    2.34999990
   13.09472179  148.44099426    2.17000008    2.34999990
   13.09805489  143.80799866    2.15000010    2.32999992
   13.10111141  150.53300476    2.13000011    2.34999990
   13.10472298  142.40899658    2.11999989    2.34999990
   13.10722256  139.94299316    2.11999989    2.34999990
   13.10805607  140.42100525    2.11999989    2.32999992
   13.11166668  138.75100708    2.11999989    2.34999990
   13.11500072  147.21499634    2.09999990    2.32999992
   13.11805534  147.36999512    2.07999992    2.34999990
   13.12138939  141.56199646    2.07999992    2.34999990
   13.12694454  141.56199646    2.05999994    2.36999989
   13.13111115  142.41299438    2.05999994    2.34999990
   13.13444424  148.74099731    2.03999996    2.36999989
   13.13749981  144.64999390    2.05999994    2.34999990
   13.14055538  136.61099243    2.03999996    2.34999990
   13.14111137  144.55999756    2.03999996    2.34999990
   13.14444447  145.21000671    2.01999998    2.34999990
   13.14777756  146.28900146    2.01999998    2.34999990
   13.15083313  144.37699890    2.01999998    2.34999990
   13.15416622  139.91700745    2.00000000    2.34999990
   13.15749931  144.04800415    2.00000000    2.34999990
   13.16055489  144.70300293    2.01999998    2.36999989
   13.16388893  142.05000305    2.00000000    2.34999990
   13.16972256  142.05000305    2.00000000    2.36999989
   13.17388916  143.81900024    1.98000002    2.36999989
   13.17722225  152.58999634    1.98000002    2.34999990
   13.18027782  144.35000610    2.00000000    2.36999989
   13.18361092  150.56199646    1.98000002    2.34999990
   13.18694496  141.24800110    1.98000002    2.36999989
   13.19000053  145.68400574    1.98000002    2.34999990
   13.19333363  151.63099670    1.98000002    2.39000010
   13.19666672  150.23399353    1.98000002    2.34999990
   13.19972229  141.47399902    1.98000002    2.39000010
   13.20305538  139.97700500    1.98000002    2.36999989
   13.20611095  154.87100220    1.96000004    2.39000010
   13.20722198  149.06399536    1.98000002    2.36999989
   13.22777748  149.06399536    1.98000002    2.36999989
   13.23194408  145.85000610    1.96000004    2.39000010
   13.23527813  144.80499268    1.96000004    2.39000010
   13.23861122  151.58999634    2.00000000    2.39000010
   13.24055576  148.25399780    2.00000000    2.39000010
   13.24222279  153.97300720    2.01999998    2.39000010
   13.24527836  141.61500549    2.01999998    2.39000010
   13.24861145  142.72900391    2.03999996    2.39000010
   13.25166702  144.17300415    2.03999996    2.39000010
   13.25500011  146.62899780    2.05999994    2.39000010
   13.25833321  146.24099731    2.03999996    2.39000010
   13.26138878  153.88999939    2.01999998    2.36999989
   13.26472187  155.43600464    2.00000000    2.39000010
   13.27055550  155.43600464    2.00000000    2.36999989
   13.27472210  144.80599976    1.98000002    2.39000010
   13.27805519  145.80700684    2.00000000    2.39000010
   13.28111076  143.78199768    2.00000000    2.36999989
   13.28444481  144.02200317    2.01999998    2.39000010
   13.28777790  144.76199341    2.00000000    2.39000010
   13.29083347  143.25599670    1.98000002    2.39000010
   13.29416752  144.16600037    1.98000002    2.39000010
   13.29750061  143.28500366    1.96000004    2.39000010
   13.30055618  145.01400757    1.96000004    2.39000010
   13.30388927  138.61199951    1.96000004    2.40000010
   13.30722237  143.45300293    1.96000004    2.39000010
   13.30749989  143.54600525    1.96000004    2.39000010
   13.31361103  143.54600525    1.94000006    2.40000010
   13.31750011  149.49899292    1.94000006    2.40000010
   13.32083321  142.31599426    1.91999996    2.40000010
   13.32416630  141.42199707    1.89999998    2.40000010
   13.32722187  137.57699585    1.91999996    2.40000010
   13.33055592  145.88800049    1.89999998    2.40000010
   13.33388901  139.11999512    1.91999996    2.39000010
   13.33694458  137.82200623    1.94000006    2.42000008
   13.34027767  144.10499573    1.94000006    2.40000010
   13.34083271  140.18400574    1.94000006    2.40000010
   13.34388828  146.14700317    1.94000006    2.40000010
   13.34722233  135.11099243    1.94000006    2.40000010
   13.35027790  143.25300598    1.94000006    2.40000010
   13.35638905  143.25300598    1.94000006    2.40000010
   13.36055565  141.70100403    1.96000004    2.40000010
   13.36361122  140.36599731    1.96000004    2.40000010
   13.36694431  141.67599487    1.96000004    2.40000010
   13.37027836  139.41700745    1.94000006    2.40000010
   13.37333393  140.81300354    1.94000006    2.40000010
   13.37416649  142.71899414    1.94000006    2.40000010
   13.37694454  144.50900269    1.94000006    2.42000008
   13.38027763  137.78500366    1.91999996    2.40000010
   13.38333321  140.70599365    1.91999996    2.40000010
   13.38666630  146.98500061    1.89999998    2.40000010
   13.39000034  139.57299805    1.88000000    2.39000010
   13.39305496  145.94900513    1.88000000    2.42000008
   13.39916611  145.94900513    1.88000000    2.42000008
   13.40333271  139.40199280    1.88000000    2.42000008
   13.40666676  143.30799866    1.88000000    2.40000010
   13.40749931  137.33099365    1.88000000    2.42000008
   13.41027737  135.45700073    1.88000000    2.40000010
   13.41361046  134.74600220    1.88000000    2.40000010
   13.41666698  140.02900696    1.88000000    2.42000008
   13.42000008  144.94599915    1.89999998    2.40000010
   13.42333412  142.35600281    1.89999998    2.42000008
   13.42638874  142.42100525    1.89999998    2.42000008
   13.42972279  143.11599731    1.89999998    2.42000008
   13.43305588  138.21400452    1.89999998    2.42000008
   13.43611145  148.75599670    1.94000006    2.40000010
   13.44194412  148.75599670    1.94000006    2.40000010
   13.44611073  137.46600342    1.91999996    2.40000010
   13.44944477  138.64500427    1.91999996    2.44000006
   13.45277786  141.27999878    1.91999996    2.44000006
   13.45583344  141.48199463    1.94000006    2.42000008
   13.45916653  136.74800110    1.94000006    2.42000008
   13.46222210  139.99499512    1.94000006    2.42000008
   13.46555519  135.69000244    1.94000006    2.42000008
   13.46888828  144.32099915    1.94000006    2.42000008
   13.47194386  133.67700195    1.98000002    2.44000006
   13.47416592  137.42799377    1.96000004    2.42000008
   13.47555542  147.61099243    1.98000002    2.42000008
   13.47888851  139.83900452    1.94000006    2.44000006
   13.48500061  139.83900452    1.89999998    2.46000004
   13.48888874  143.30499268    1.89999998    2.44000006
   13.49222279  136.30499268    1.89999998    2.42000008
   13.49555588  134.19500732    1.89999998    2.42000008
   13.49861145  131.67900085    1.89999998    2.42000008
   13.50194454  138.13299561    1.88000000    2.44000006
   13.50527763  135.75999451    1.88000000    2.44000006
   13.50749969  140.13999939    1.88000000    2.42000008
   13.50888920  143.70399475    1.88000000    2.42000008
   13.51222229  136.37399292    1.88000000    2.42000008
   13.51527786  146.56599426    1.89999998    2.44000006
   13.51861095  139.03900146    1.89999998    2.44000006
   13.52194405  139.35299683    1.89999998    2.44000006
   13.52777767  139.35299683    1.89999998    2.44000006
   13.53194427  137.61599731    1.91999996    2.44000006
   13.53500080  142.50100708    1.91999996    2.44000006
   13.53833389  133.61399841    1.89999998    2.46000004
   13.54111195  130.47999573    1.91999996    2.44000006
   13.54194450  138.83999634    1.91999996    2.44000006
   13.54527855  141.56799316    1.91999996    2.46000004
   13.54833412  141.69900513    1.91999996    2.42000008
   13.55166721  133.82699585    1.91999996    2.46000004
   13.55500031  138.45799255    1.91999996    2.44000006
   13.55805588  134.63900757    1.91999996    2.46000004
   13.56138897  137.55200195    1.94000006    2.44000006
   13.56472206  139.99800110    1.91999996    2.44000006
   13.57055569  139.99800110    1.91999996    2.44000006
   13.57472229  140.21499634    1.88000000    2.44000006
   13.57805538  141.52999878    1.88000000    2.44000006
   13.58111095  133.40199280    1.86000001    2.44000006
   13.58444405  132.13400269    1.86000001    2.44000006
   13.58749962  139.87399292    1.85000002    2.44000006
   13.59083271  138.82499695    1.85000002    2.44000006
   13.59416676  138.57800293    1.85000002    2.44000006
   13.59722233  138.12300110    1.85000002    2.44000006
   13.60055637  136.89300537    1.80999994    2.46000004
   13.60388947  142.55499268    1.80999994    2.46000004
   13.60694504  131.69799805    1.80999994    2.46000004
   13.60777855  136.90100098    1.80999994    2.46000004
   13.61333370  136.90100098    1.80999994    2.46000004
   13.61750031  135.39300537    1.80999994    2.46000004
   13.62083340  144.15299988    1.80999994    2.46000004
   13.62388897  139.96299744    1.80999994    2.44000006
   13.62722206  142.56100464    1.80999994    2.44000006
   13.63055611  142.22399902    1.80999994    2.46000004
   13.63361073  141.80599976    1.80999994    2.44000006
   13.63694477  144.27000427    1.80999994    2.44000006
   13.64027786  137.54800415    1.80999994    2.46000004
   13.64111137  141.42100525    1.80999994    2.46000004
   13.64361095  144.17500305    1.80999994    2.46000004
   13.64694405  144.15400696    1.83000004    2.46000004
   13.65027714  143.12600708    1.80999994    2.46000004
   13.65611076  143.12600708    1.80999994    2.46000004
   13.66027737  138.23500061    1.83000004    2.44000006
   13.66361046  136.67999268    1.83000004    2.46000004
   13.66694450  141.90899658    1.83000004    2.46000004
   13.67000008  143.60699463    1.83000004    2.46000004
   13.67333412  147.78799438    1.83000004    2.46000004
   13.67444515  133.76400757    1.83000004    2.46000004
   13.67694473  135.55499268    1.83000004    2.46000004
   13.68027782  136.75199890    1.83000004    2.46000004
   13.68333340  134.85200500    1.83000004    2.48000002
   13.68666649  138.64300537    1.83000004    2.46000004
   13.69000053  146.19299316    1.83000004    2.46000004
   13.69305515  131.33500671    1.83000004    2.46000004
   13.69916630  131.33500671    1.83000004    2.46000004
   13.70333290  140.16799927    1.83000004    2.46000004
   13.70638847  136.18899536    1.83000004    2.46000004
   13.70777798  136.10099792    1.83000004    2.46000004
   13.71000004  147.64100647    1.83000004    2.46000004
   13.71333313  141.10899353    1.85000002    2.46000004
   13.71638870  132.97000122    1.85000002    2.46000004
   13.71972179  138.62699890    1.83000004    2.46000004
   13.72305489  137.27200317    1.83000004    2.46000004
   13.72611046  138.01699829    1.80999994    2.46000004
   13.72944355  145.90299988    1.80999994    2.48000002
   13.73277760  141.46499634    1.80999994    2.48000002
   13.73583317  141.05200195    1.78999996    2.46000004
   13.74194431  141.05200195    1.78999996    2.48000002
   13.74611092  140.87800598    1.78999996    2.48000002
   13.74916649  141.41999817    1.78999996    2.46000004
   13.75277805  140.80599976    1.78999996    2.46000004
   13.75611115  132.12500000    1.78999996    2.48000002
   13.75916672  142.54899597    1.80999994    2.48000002
   13.76249981  138.25199890    1.80999994    2.48000002
   13.76583290  136.56500244    1.80999994    2.48000002
   13.76888847  137.87500000    1.80999994    2.48000002
   13.77222157  131.90899658    1.83000004    2.48000002
   13.77444458  140.27299500    1.83000004    2.48000002
   13.77583313  133.07699585    1.80999994    2.48000002
   13.77916622  138.97500610    1.83000004    2.46000004
   13.78472233  138.97500610    1.83000004    2.48000002
   13.78888893  136.40400696    1.85000002    2.48000002
   13.79222298  136.05000305    1.83000004    2.50000000
   13.79527855  138.68400574    1.83000004    2.50000000
   13.79861164  136.05700684    1.85000002    2.48000002
   13.80194473  125.08799744    1.85000002    2.50000000
   13.80500031  132.90600586    1.83000004    2.48000002
   13.80777836  142.04899597    1.83000004    2.48000002
   13.80861092  131.82899475    1.80999994    2.48000002
   13.81194496  132.60600281    1.80999994    2.46000004
   13.81527805  141.94099426    1.78999996    2.48000002
   13.81833363  130.18499756    1.78999996    2.48000002
   13.82166672  137.13299561    1.78999996    2.48000002
   13.82750034  137.13299561    1.78999996    2.48000002
   13.83166695  136.62199402    1.76999998    2.48000002
   13.83500004  132.64799500    1.75000000    2.48000002
   13.83833313  136.78599548    1.75000000    2.48000002
   13.84111118  134.40499878    1.75000000    2.48000002
   13.84166622  130.38000488    1.73000002    2.50000000
   13.84499931  135.22900391    1.73000002    2.50000000
   13.84833336  131.36799622    1.73000002    2.48000002
   13.85138893  127.77999878    1.73000002    2.50000000
   13.85472298  131.24299622    1.75000000    2.50000000
   13.85777855  130.23199463    1.75000000    2.48000002
   13.86111164  129.86099243    1.75000000    2.48000002
   13.86444473  130.07299805    1.73000002    2.50000000
   13.87055588  130.07299805    1.69000006    2.50000000
   13.87472248  134.49800110    1.71000004    2.50000000
   13.87777805  136.86199951    1.69000006    2.50000000
   13.88111115  132.62100220    1.69000006    2.48000002
   13.88444424  133.97099304    1.71000004    2.48000002
   13.88749981  131.04200745    1.71000004    2.48000002
   13.89083290  136.15400696    1.71000004    2.50000000
   13.89388847  137.21200562    1.71000004    2.50000000
   13.89722252  137.27000427    1.69000006    2.51999998
   13.90055561  133.75799561    1.69000006    2.50000000
   13.90361118  132.05999756    1.64999998    2.51999998
   13.90694427  129.44799805    1.64999998    2.51999998
   13.90777779  130.82200623    1.64999998    2.51999998
   13.91333294  130.82200623    1.63000000    2.50000000
   13.91750050  127.84200287    1.61000001    2.51999998
   13.92083359  132.89999390    1.61000001    2.51999998
   13.92388916  125.71299744    1.61000001    2.51999998
   13.92722225  140.33900452    1.61000001    2.51999998
   13.93027782  126.70200348    1.63000000    2.51999998
   13.93361092  134.47500610    1.63000000    2.50000000
   13.93694496  129.19599915    1.64999998    2.50000000
   13.94000053  132.42300415    1.64999998    2.50000000
   13.94111156  130.27000427    1.64999998    2.50000000
   13.94388866  129.27699280    1.64999998    2.50000000
   13.94722271  130.26600647    1.64999998    2.50000000
   13.95027733  132.32600403    1.64999998    2.50000000
   13.95611095  132.32600403    1.64999998    2.50000000
   13.96027756  131.11000061    1.63000000    2.48000002
   13.96361065  130.60600281    1.64999998    2.50000000
   13.96666622  130.93099976    1.64999998    2.51999998
   13.96999931  129.24699402    1.64999998    2.51999998
   13.97333336  132.69500732    1.66999996    2.51999998
   13.97444439  138.68099976    1.66999996    2.51999998
   13.97666645  132.59599304    1.66999996    2.50000000
   13.97999954  136.71000671    1.63000000    2.51999998
   13.98333359  141.29200745    1.63000000    2.51999998
   13.98638916  132.44299316    1.63000000    2.51999998
   13.98972225  131.20100403    1.63000000    2.51999998
   13.99305534  130.77699280    1.61000001    2.51999998
   13.99888897  130.77699280    1.61000001    2.51999998
   14.00305557  133.58500671    1.61000001    2.50000000
   14.00638866  121.10099792    1.61000001    2.50000000
   14.00777817  126.88600159    1.61000001    2.50000000
   14.01000023  132.28100586    1.61000001    2.51999998
   14.01333332  130.60099792    1.61000001    2.50000000
   14.01666641  137.47399902    1.61000001    2.50000000
   14.01972198  132.26800537    1.61000001    2.50000000
   14.02305508  136.51100159    1.61000001    2.50000000
   14.02638817  136.89599609    1.61000001    2.51999998
   14.02944374  134.58799744    1.61000001    2.51999998
   14.03277779  133.34800720    1.61000001    2.51999998
   14.03611183  129.12199402    1.60000002    2.53999996
   14.04194450  129.12199402    1.60000002    2.50000000
   14.04611111  132.43600464    1.60000002    2.50000000
   14.04916668  124.06199646    1.60000002    2.51999998
   14.05249977  131.78700256    1.60000002    2.50000000
   14.05583382  139.33900452    1.60000002    2.51999998
   14.05888939  129.30400085    1.60000002    2.50000000
   14.06222248  130.78199768    1.60000002    2.50000000
   14.06555557  131.68699646    1.61000001    2.51999998
   14.06861115  136.56700134    1.63000000    2.51999998
   14.07194424  134.52099609    1.63000000    2.51999998
   14.07444477  134.47999573    1.63000000    2.51999998
   14.07555580  130.53300476    1.63000000    2.51999998
   14.07888889  128.96099854    1.63000000    2.51999998
   14.08472157  128.96099854    1.63000000    2.51999998
   14.08888817  130.78900146    1.63000000    2.50000000
   14.09194374  130.77400208    1.63000000    2.50000000
   14.09527779  135.24099731    1.63000000    2.51999998
   14.09861088  125.05500031    1.63000000    2.53999996
   14.10166740  133.15100098    1.64999998    2.51999998
   14.10500050  127.06500244    1.64999998    2.53999996
   14.10777855  125.76899719    1.64999998    2.53999996
   14.10861111  124.78600311    1.64999998    2.51999998
   14.11194515  124.87699890    1.64999998    2.51999998
   14.11527824  133.99299622    1.63000000    2.53999996
   14.11833382  133.84800720    1.63000000    2.53999996
   14.12166691  125.78800201    1.61000001    2.51999998
   14.12750053  125.78800201    1.63000000    2.53999996
   14.13166714  132.92900085    1.61000001    2.53999996
   14.13500023  129.02900696    1.61000001    2.53999996
   14.13805580  125.00499725    1.61000001    2.53999996
   14.14111137  132.25700378    1.63000000    2.51999998
   14.14166641  134.55499268    1.63000000    2.51999998
   14.14499950  132.91700745    1.63000000    2.53999996
   14.14833355  126.07099915    1.61000001    2.51999998
   14.15138817  126.55999756    1.60000002    2.53999996
   14.15472221  131.53500366    1.60000002    2.53999996
   14.15805531  127.12799835    1.60000002    2.53999996
   14.16111088  131.52999878    1.60000002    2.53999996
   14.16444397  122.82199860    1.61000001    2.53999996
   14.17027855  122.82199860    1.61000001    2.51999998
   14.17444515  119.17900085    1.60000002    2.53999996
   14.17777824  138.18600464    1.60000002    2.53999996
   14.18111134  135.94900513    1.58000004    2.53999996
   14.18416691  128.67900085    1.58000004    2.53999996
   14.18750000  127.59500122    1.60000002    2.53999996
   14.19055557  127.76200104    1.60000002    2.53999996
   14.19388866  130.75799561    1.60000002    2.53999996
   14.19722271  131.72200012    1.60000002    2.53999996
   14.20027733  129.21400452    1.60000002    2.53999996
   14.20361137  125.80699921    1.60000002    2.53999996
   14.20694447  127.91300201    1.60000002    2.53999996
   14.20777798  133.46099854    1.60000002    2.53999996
   14.21333313  133.46099854    1.60000002    2.53999996
   14.21749973  129.53900146    1.60000002    2.53999996
   14.22055531  126.63999939    1.60000002    2.53999996
   14.22388840  130.77000427    1.58000004    2.53999996
   14.24138927  124.02799988    1.55999994    2.53999996
   14.24388885  131.51800537    1.55999994    2.53999996
   14.24722290  126.43800354    1.58000004    2.53999996
   14.25027752  125.38400269    1.58000004    2.53999996
   14.25638866  125.38400269    1.58000004    2.55999994
   14.26027775  121.26799774    1.60000002    2.53999996
   14.26361084  120.00800323    1.60000002    2.53999996
   14.26694393  126.20600128    1.58000004    2.53999996
   14.26999950  131.29899597    1.58000004    2.53999996
   14.27333355  130.58799744    1.58000004    2.55999994
   14.27472210  129.24899292    1.58000004    2.55999994
   14.27722168  130.05599976    1.55999994    2.55999994
   14.28027725  121.59899902    1.55999994    2.55999994
   14.28361130  121.76699829    1.55999994    2.53999996
   14.28666687  126.56800079    1.55999994    2.55999994
   14.29000092  126.21199799    1.55999994    2.53999996
   14.29333401  126.97299957    1.55999994    2.55999994
   14.29916668  126.97299957    1.55999994    2.55999994
   14.30333328  133.02699280    1.55999994    2.53999996
   14.30638885  130.07800293    1.53999996    2.53999996
   14.30805588  129.69900513    1.53999996    2.53999996
   14.31027794  125.26599884    1.55999994    2.53999996
   14.31361103  126.83399963    1.53999996    2.55999994
   14.31666660  123.83300018    1.51999998    2.53999996
   14.31999969  130.01400757    1.51999998    2.53999996
   14.32305527  123.29599762    1.51999998    2.55999994
   14.32638836  124.18000031    1.53999996    2.53999996
   14.32972240  127.51100159    1.53999996    2.55999994
   14.33277798  125.30300140    1.53999996    2.53999996
   14.33611107  117.13600159    1.53999996    2.53999996
   14.34194374  117.13600159    1.51999998    2.57999992
   14.34611034  132.91499329    1.51999998    2.53999996
   14.34944439  123.12100220    1.51999998    2.53999996
   14.35249996  129.86500549    1.51999998    2.55999994
   14.35583401  122.60800171    1.50000000    2.53999996
   14.35888958  123.90000153    1.50000000    2.55999994
   14.36222267  130.64900208    1.50000000    2.55999994
   14.36555576  124.19300079    1.50000000    2.55999994
   14.36861134  129.86799622    1.50000000    2.55999994
   14.37194443  133.37600708    1.50000000    2.53999996
   14.37472248  122.18599701    1.48000002    2.53999996
   14.37527752  126.09100342    1.48000002    2.53999996
   14.37861156  131.77900696    1.48000002    2.55999994
   14.38472176  131.77900696    1.46000004    2.55999994
   14.38888836  112.16799927    1.46000004    2.53999996
   14.39222240  128.98199463    1.46000004    2.53999996
   14.39527798  128.13299561    1.46000004    2.53999996
   14.39861107  125.12100220    1.46000004    2.53999996
   14.40194416  127.78099823    1.46000004    2.55999994
   14.40499973  126.58499908    1.48000002    2.55999994
   14.40805531  122.88700104    1.50000000    2.55999994
   14.40888882  126.58300018    1.50000000    2.55999994
   14.41194439  124.16100311    1.50000000    2.55999994
   14.41527748  126.48500061    1.50000000    2.55999994
   14.41861153  127.43900299    1.51999998    2.53999996
   14.42166710  128.13900757    1.53999996    2.55999994
   14.42777824  128.13900757    1.51999998    2.53999996
   14.43166733  135.80599976    1.50000000    2.55999994
   14.43500042  134.67300415    1.50000000    2.55999994
   14.43833351  128.27999878    1.48000002    2.57999992
   14.44138908  125.25900269    1.48000002    2.55999994
   14.44194412  132.97700500    1.48000002    2.55999994
   14.44527817  130.94900513    1.48000002    2.55999994
   14.44833374  129.41999817    1.48000002    2.57999992
   14.45166683  138.33700562    1.48000002    2.55999994
   14.45472240  133.38200378    1.48000002    2.55999994
   14.45805550  137.86500549    1.48000002    2.55999994
   14.46138859  145.12899780    1.48000002    2.57999992
   14.46444416  138.77400208    1.48000002    2.55999994
   14.47055531  138.77400208    1.48000002    2.55999994
   14.47472191  131.88900757    1.46000004    2.55999994
   14.47527695  134.24000549    1.46000004    2.55999994
   14.47833252  134.61999512    1.46000004    2.55999994
   14.48166656  130.28999329    1.48000002    2.57999992
   14.48472214  137.36999512    1.46000004    2.55999994
   14.48805618  139.52799988    1.46000004    2.57999992
   14.49138927  135.71899414    1.46000004    2.57999992
   14.49444485  135.64599609    1.48000002    2.55999994
   14.49777794  140.22999573    1.48000002    2.55999994
   14.50111103  140.33399963    1.46000004    2.57999992
   14.50416660  138.24600220    1.46000004    2.55999994
   14.50749969  141.91099548    1.46000004    2.55999994
   14.50833321  135.44999695    1.46000004    2.55999994
   14.51333332  135.44999695    1.44000006    2.55999994
   14.51749992  144.76499939    1.46000004    2.57999992
   14.52083302  143.20399475    1.46000004    2.57999992
   14.52388859  139.76899719    1.46000004    2.57999992
   14.52722168  138.74899292    1.44000006    2.57999992
   14.53027725  138.32099915    1.41999996    2.57999992
   14.53361130  141.25799561    1.41999996    2.57999992
   14.53694534  147.38800049    1.41999996    2.57999992
   14.54000092  143.14100647    1.44000006    2.57999992
   14.54138947  141.56300354    1.44000006    2.57999992
   14.54388905  143.07099915    1.44000006    2.57999992
   14.54694462  141.51400757    1.44000006    2.57999992
   14.55027771  145.01699829    1.44000006    2.57999992
   14.55611134  145.01699829    1.39999998    2.55999994
   14.56027794  147.35800171    1.36000001    2.57999992
   14.56361103  141.82000732    1.36000001    2.57999992
   14.56666660  143.69700623    1.38000000    2.57999992
   14.56999969  138.70899963    1.38000000    2.57999992
   14.57333374  138.50599670    1.38000000    2.55999994
   14.57472229  140.31500244    1.38000000    2.57999992
   14.57694435  142.27600098    1.38000000    2.57999992
   14.57999992  141.85899353    1.36000001    2.57999992
   14.58333302  144.84899902    1.34000003    2.57999992
   14.58638859  145.79299927    1.36000001    2.57999992
   14.58972168  149.32000732    1.36000001    2.57999992
   14.59305477  145.22700500    1.36000001    2.57999992
   14.59888840  145.22700500    1.36000001    2.57999992
   14.60305595  146.31599426    1.36000001    2.55999994
   14.60638905  135.75999451    1.36000001    2.57999992
   14.60805607  141.66200256    1.36000001    2.57999992
   14.61000061  144.02299500    1.34000003    2.57999992
   14.61333370  147.64300537    1.36000001    2.57999992
   14.61666679  146.50300598    1.36000001    2.57999992
   14.61972237  144.66999817    1.36000001    2.57999992
   14.62305546  144.24499512    1.34000003    2.57999992
   14.62611103  136.28100586    1.34000003    2.57999992
   14.62944412  146.60499573    1.33000004    2.57999992
   14.63277817  145.02299500    1.30999994    2.59999990
   14.63583279  140.52799988    1.28999996    2.57999992
   14.64194393  140.52799988    1.28999996    2.59999990
   14.64611053  145.69700623    1.28999996    2.57999992
   14.64916611  136.80200195    1.28999996    2.57999992
   14.65249920  148.41299438    1.28999996    2.59999990
   14.65583324  137.20500183    1.28999996    2.59999990
   14.65888882  140.58399963    1.30999994    2.59999990
   14.66222191  149.65699768    1.28999996    2.59999990
   14.66555500  142.17199707    1.30999994    2.59999990
   14.66861153  141.42500305    1.28999996    2.57999992
   14.67194462  148.76800537    1.28999996    2.59999990
   14.67472267  141.52200317    1.28999996    2.57999992
   14.67555618  148.86900330    1.28999996    2.57999992
   14.67861176  144.26699829    1.28999996    2.57999992
   14.68472195  144.26699829    1.28999996    2.57999992
   14.68888855  143.38299561    1.30999994    2.59999990
   14.69222260  139.20799255    1.30999994    2.57999992
   14.69527817  146.54600525    1.33000004    2.59999990
   14.69861126  147.05299377    1.34000003    2.57999992
   14.70166683  142.10099792    1.34000003    2.57999992
   14.70499992  146.26300049    1.34000003    2.57999992
   14.70805550  145.99299622    1.33000004    2.57999992
   14.70861053  143.40699768    1.33000004    2.59999990
   14.71166611  142.91700745    1.33000004    2.55999994
   14.71500015  140.21299744    1.33000004    2.59999990
   14.71833324  147.52799988    1.34000003    2.57999992
   14.72138882  145.96800232    1.34000003    2.59999990
   14.72749996  145.96800232    1.34000003    2.59999990
   14.73166656  152.42300415    1.33000004    2.57999992
   14.73500061  148.86599731    1.33000004    2.57999992
   14.73833370  145.20199585    1.33000004    2.57999992
   14.74138927  146.00399780    1.33000004    2.57999992
   14.74194431  152.75799561    1.33000004    2.57999992
   14.74499989  145.43400574    1.33000004    2.57999992
   14.74833393  150.13999939    1.33000004    2.59999990
   14.75166702  144.51100159    1.34000003    2.61999989
   14.75472260  142.96200562    1.36000001    2.59999990
   14.75805569  146.91099548    1.36000001    2.59999990
   14.76111126  146.68099976    1.36000001    2.59999990
   14.76444435  143.55499268    1.38000000    2.59999990
   14.77055550  143.55499268    1.38000000    2.61999989
   14.77444458  143.33700562    1.36000001    2.59999990
   14.77499962  146.75599670    1.36000001    2.59999990
   14.77833271  144.64100647    1.38000000    2.61999989
   14.78166676  147.56900024    1.38000000    2.61999989
   14.78472233  143.35000610    1.38000000    2.59999990
   14.78805637  134.85699463    1.38000000    2.57999992
   14.79138947  137.17700195    1.36000001    2.59999990
   14.79444504  144.96499634    1.36000001    2.59999990
   14.79777813  146.66499329    1.36000001    2.57999992
   14.80083370  143.39900208    1.36000001    2.59999990
   14.80416679  150.54200745    1.36000001    2.59999990
   14.80749989  150.09800720    1.36000001    2.59999990
   14.80833340  152.43899536    1.36000001    2.59999990
   14.81333351  152.43899536    1.36000001    2.59999990
   14.81750011  146.29400635    1.34000003    2.59999990
   14.82055569  143.67100525    1.36000001    2.59999990
   14.82388878  142.99499512    1.34000003    2.59999990
   14.82694435  147.88499451    1.34000003    2.59999990
   14.83027744  144.06900024    1.34000003    2.59999990
   14.83361053  146.71200562    1.36000001    2.61999989
   14.83694458  139.81100464    1.38000000    2.59999990
   14.84000015  141.80400085    1.36000001    2.61999989
   14.84166622  144.84100342    1.36000001    2.61999989
   14.84361076  144.56100464    1.36000001    2.59999990
   14.84694386  148.20300293    1.36000001    2.59999990
   14.85000038  147.15600586    1.36000001    2.59999990
   14.85611153  147.15600586    1.33000004    2.61999989
   14.86027813  153.57600403    1.33000004    2.59999990
   14.86333370  145.76800537    1.33000004    2.61999989
   14.86666679  142.32400513    1.33000004    2.59999990
   14.86999989  153.28799438    1.33000004    2.61999989
   14.87305546  132.31500244    1.33000004    2.61999989
   14.87500000  147.24499512    1.33000004    2.59999990
   14.87694454  151.92399597    1.33000004    2.59999990
   14.98055553   -1.00000000   -1.00000000   -1.00000000
   15.09305477   -1.00000000   -1.00000000   -1.00000000
   15.19277763   -1.00000000   -1.00000000   -1.00000000
   15.21916580  143.71699524    1.44000006    2.61999989
   15.22222137  149.72200012    1.44000006    2.61999989
   15.22555542  146.92399597    1.44000006    2.61999989
   15.22861099  141.79699707    1.44000006    2.61999989
   15.23194408  147.36099243    1.46000004    2.61999989
   15.23527813  148.92199707    1.41999996    2.61999989
   15.23944473  148.92199707    1.44000006    2.61999989
   15.24333382  145.02099609    1.41999996    2.64000010
   15.24666691  149.00000000    1.41999996    2.61999989
   15.25000000  149.41700745    1.41999996    2.61999989
   15.25222206  145.72999573    1.41999996    2.61999989
   15.25388908  145.14799500    1.41999996    2.61999989
   15.25694466  145.82400513    1.44000006    2.61999989
   15.26027775  146.60800171    1.44000006    2.61999989
   15.26361084  142.43600464    1.44000006    2.61999989
   15.26666641  144.16799927    1.44000006    2.61999989
   15.26999950  140.15600586    1.44000006    2.64000010
   15.27305508  140.55299377    1.44000006    2.64000010
   15.27638817  144.01300049    1.44000006    2.64000010
   15.28222179  144.01300049    1.41999996    2.61999989
   15.28638935  146.97500610    1.44000006    2.61999989
   15.28944492  152.66499329    1.41999996    2.66000009
   15.29277802  141.94500732    1.44000006    2.61999989
   15.29611111  141.99600220    1.41999996    2.61999989
   15.29916668  153.37199402    1.41999996    2.61999989
   15.30249977  150.39300537    1.44000006    2.64000010
   15.30555534  146.27999878    1.44000006    2.61999989
   15.30888939  145.78399658    1.44000006    2.64000010
   15.31222248  144.88000488    1.44000006    2.64000010
   15.31527805  148.09300232    1.44000006    2.61999989
   15.31861115  140.54499817    1.44000006    2.61999989
   15.31916618  140.39199829    1.44000006    2.61999989
   15.32499981  140.39199829    1.48000002    2.64000010
   15.32916641  142.78599548    1.48000002    2.61999989
   15.33222198  146.36099243    1.48000002    2.61999989
   15.33555508  149.23599243    1.48000002    2.64000010
   15.33888817  144.24299622    1.48000002    2.61999989
   15.34194374  141.53300476    1.48000002    2.61999989
   15.34527779  143.28799438    1.48000002    2.61999989
   15.34861088  143.48399353    1.44000006    2.61999989
   15.35166740  147.38699341    1.44000006    2.64000010
   15.35249996  148.31500244    1.44000006    2.64000010
   15.35527802  135.54200745    1.44000006    2.61999989
   15.35861111  146.42599487    1.44000006    2.64000010
   15.36194515  145.91000366    1.44000006    2.64000010
   15.36777782  145.91000366    1.46000004    2.64000010
   15.37194443  142.61099243    1.46000004    2.64000010
   15.37527752  140.71600342    1.46000004    2.64000010
   15.37833309  142.02600098    1.46000004    2.61999989
   15.38166714  144.74600220    1.44000006    2.64000010
   15.38500023  141.95399475    1.46000004    2.64000010
   15.38583279  139.10699463    1.46000004    2.64000010
   15.38833332  138.23599243    1.46000004    2.64000010
   15.39166641  138.35899353    1.46000004    2.64000010
   15.39499950  138.29899597    1.46000004    2.64000010
   15.39805508  142.79100037    1.48000002    2.61999989
   15.40138817  142.07899475    1.48000002    2.64000010
   15.40472221  143.96800232    1.48000002    2.64000010
   15.41055489  143.96800232    1.48000002    2.64000010
   15.41472149  145.20300293    1.46000004    2.61999989
   15.41805553  136.17199707    1.46000004    2.64000010
   15.41916656  143.08999634    1.46000004    2.64000010
   15.42166710  141.81100464    1.48000002    2.64000010
   15.42500019  137.40499878    1.48000002    2.64000010
   15.42833328  145.91799927    1.48000002    2.61999989
   15.43138885  142.60699463    1.48000002    2.64000010
   15.43500042  134.72000122    1.50000000    2.64000010
   15.43805599  139.78100586    1.48000002    2.64000010
   15.44138908  145.40800476    1.48000002    2.64000010
   15.44472218  148.58299255    1.50000000    2.64000010
   15.44777775  148.17999268    1.50000000    2.61999989
   15.45361137  148.17999268    1.50000000    2.61999989
   15.45777798  150.02299500    1.51999998    2.64000010
   15.46083355  147.39300537    1.51999998    2.61999989
   15.46416664  143.35699463    1.53999996    2.64000010
   15.46722221  141.80599976    1.53999996    2.64000010
   15.47055531  143.78599548    1.51999998    2.64000010
   15.47388840  147.50500488    1.51999998    2.64000010
   15.47694397  140.38999939    1.51999998    2.64000010
   15.48027706  142.92900085    1.51999998    2.61999989
   15.48361111  133.77000427    1.50000000    2.64000010
   15.48583317  135.39999390    1.50000000    2.64000010
   15.48694515  131.07800293    1.51999998    2.64000010
   15.49027824  137.70599365    1.51999998    2.64000010
   15.49638939  137.70599365    1.48000002    2.64000010
   15.50055599  146.43400574    1.48000002    2.64000010
   15.50361156  141.14999390    1.48000002    2.61999989
   15.50694466  140.33700562    1.48000002    2.61999989
   15.51027775  146.90699768    1.50000000    2.64000010
   15.51333332  146.01499939    1.50000000    2.66000009
   15.51666641  143.73899841    1.51999998    2.64000010
   15.51916599  143.50199890    1.51999998    2.64000010
   15.52027798  134.69599915    1.53999996    2.64000010
   15.52361107  137.16400146    1.53999996    2.64000010
   15.52694416  141.02600098    1.53999996    2.64000010
   15.52999973  144.72900391    1.55999994    2.64000010
   15.53333378  143.53100586    1.55999994    2.64000010
   15.53916740  143.53100586    1.55999994    2.64000010
   15.54333401  139.27799988    1.55999994    2.64000010
   15.54666710  137.25599670    1.55999994    2.64000010
   15.54972267  130.97500610    1.55999994    2.64000010
   15.55249977  136.95399475    1.55999994    2.64000010
   15.55361176  143.30400085    1.55999994    2.64000010
   15.55666733  143.19799805    1.55999994    2.64000010
   15.56000042  142.21099854    1.55999994    2.64000010
   15.56305599  136.68499756    1.58000004    2.66000009
   15.56638908  141.52900696    1.58000004    2.64000010
   15.56972218  142.33299255    1.58000004    2.64000010
   15.57277775  147.93099976    1.58000004    2.64000010
   15.57611084  141.12800598    1.60000002    2.66000009
   15.58194447  141.12800598    1.58000004    2.64000010
   15.58611107  137.84700012    1.60000002    2.66000009
   15.58944416  141.19900513    1.60000002    2.64000010
   15.59277725  137.66900635    1.60000002    2.64000010
   15.59583282  139.17100525    1.58000004    2.64000010
   15.59916592  140.01400757    1.58000004    2.64000010
   15.60222244  142.83700562    1.58000004    2.66000009
   15.60555553  138.97799683    1.58000004    2.64000010
   15.60888958  141.82099915    1.58000004    2.64000010
   15.61222267  143.27900696    1.60000002    2.64000010
   15.61527824  142.38800049    1.60000002    2.64000010
   15.61861134  145.81399536    1.58000004    2.64000010
   15.61916637  143.54200745    1.58000004    2.64000010
   15.62500000  143.54200745    1.53999996    2.64000010
   15.62916660  145.05999756    1.53999996    2.64000010
   15.63222218  146.68299866    1.55999994    2.64000010
   15.63555527  142.05700684    1.55999994    2.64000010
   15.63861084  144.66600037    1.55999994    2.64000010
   15.64194393  138.03999329    1.55999994    2.64000010
   15.64527798  139.18699646    1.55999994    2.64000010
   15.64833355  142.52299500    1.55999994    2.64000010
   15.65166664  138.44200134    1.58000004    2.64000010
   15.65249920  143.31599426    1.58000004    2.64000010
   15.65527725  142.64100647    1.58000004    2.64000010
   15.65833282  136.93600464    1.60000002    2.64000010
   15.66166592  141.58399963    1.60000002    2.64000010
   15.66777802  141.58399963    1.60000002    2.64000010
   15.67194462  142.56399536    1.61000001    2.66000009
   15.67500019  137.39900208    1.61000001    2.66000009
   15.67833328  144.93899536    1.64999998    2.64000010
   15.68166733  146.61599731    1.66999996    2.66000009
   15.68472195  138.20500183    1.66999996    2.66000009
   15.68583298  137.21600342    1.66999996    2.66000009
   15.68861103  136.17799377    1.64999998    2.66000009
   15.69166660  148.82800293    1.69000006    2.66000009
   15.69499969  134.16000366    1.71000004    2.66000009
   15.69833374  142.40699768    1.66999996    2.64000010
   15.70138836  142.17199707    1.66999996    2.66000009
   15.70472240  136.00000000    1.66999996    2.64000010
   15.71055508  136.00000000    1.66999996    2.66000009
   15.71472168  133.04600525    1.66999996    2.66000009
   15.71805477  142.01400757    1.66999996    2.64000010
   15.71916580  134.46699524    1.66999996    2.64000010
   15.72166634  143.09800720    1.64999998    2.64000010
   15.72472191  135.47000122    1.64999998    2.66000009
   15.72805500  138.90499878    1.66999996    2.66000009
   15.73138809  127.19699860    1.66999996    2.66000009
   15.73444462  133.84500122    1.66999996    2.66000009
   15.73777771  137.50799561    1.69000006    2.66000009
   15.74083328  139.49400330    1.71000004    2.66000009
   15.74416733  140.64599609    1.69000006    2.66000009
   15.74750042  136.89500427    1.71000004    2.64000010
   15.75333309  136.89500427    1.71000004    2.66000009
   15.75749969  133.32899475    1.75000000    2.66000009
   15.76083374  131.81500244    1.78999996    2.66000009
   15.76416683  135.90899658    1.78999996    2.64000010
   15.76722240  137.13299561    1.76999998    2.66000009
   15.77055550  140.00900269    1.76999998    2.64000010
   15.77361107  133.21699524    1.76999998    2.66000009
   15.77694416  133.34399414    1.80999994    2.64000010
   15.78027725  133.25700378    1.80999994    2.66000009
   15.78333378  138.78799438    1.80999994    2.64000010
   15.78583336  136.62600708    1.80999994    2.66000009
   15.78722286  134.98699951    1.80999994    2.66000009
   15.79027843  139.07400513    1.80999994    2.66000009
   15.79638958  139.07400513    1.80999994    2.64000010
   15.80055618  136.51400757    1.80999994    2.66000009
   15.80361176  143.98500061    1.80999994    2.66000009
   15.80694485  145.39199829    1.80999994    2.66000009
   15.81000042  148.26199341    1.83000004    2.66000009
   15.81333351  145.57600403    1.85000002    2.66000009
   15.81666660  141.27000427    1.83000004    2.66000009
   15.81916618  140.33399963    1.83000004    2.66000009
   15.82027817  137.79200745    1.83000004    2.66000009
   15.82333374  133.10200500    1.83000004    2.66000009
   15.82666683  143.18699646    1.85000002    2.64000010
   15.82999992  140.82099915    1.80999994    2.66000009
   15.83305550  133.74499512    1.80999994    2.64000010
   15.83916664  133.74499512    1.80999994    2.66000009
   15.84333324  142.56100464    1.80999994    2.64000010
   15.84638882  142.63099670    1.78999996    2.64000010
   15.84972191  142.97999573    1.78999996    2.66000009
   15.85249996  136.05799866    1.80999994    2.66000009
   15.85333347  140.73800659    1.80999994    2.66000009
   15.85638905  132.71499634    1.80999994    2.67000008
   15.85972214  140.70799255    1.80999994    2.67000008
   15.86305618  144.84100342    1.83000004    2.64000010
   15.86611176  140.88099670    1.83000004    2.64000010
   15.86944485  136.68400574    1.85000002    2.66000009
   15.87277794  140.17199707    1.83000004    2.66000009
   15.87583351  133.37199402    1.83000004    2.66000009
   15.88194466  133.37199402    1.80999994    2.66000009
   15.88611126  132.77400208    1.78999996    2.66000009
   15.88944435  137.49800110    1.78999996    2.61999989
   15.89249992  134.35000610    1.78999996    2.66000009
   15.89583302  137.12199402    1.80999994    2.67000008
   15.89888859  136.75999451    1.83000004    2.66000009
   15.90222168  133.94500732    1.83000004    2.66000009
   15.90555477  138.05099487    1.83000004    2.66000009
   15.90861034  136.81100464    1.85000002    2.66000009
   15.91194439  137.46299744    1.88000000    2.66000009
   15.91527748  134.79200745    1.88000000    2.66000009
   15.91833401  133.91700745    1.88000000    2.66000009
   15.91916656  131.91600037    1.88000000    2.66000009
   15.92472267  131.91600037    1.89999998    2.64000010
   15.92888927  139.67799377    1.94000006    2.64000010
   15.93222237  147.21600342    1.96000004    2.66000009
   15.93527794  137.17300415    2.00000000    2.66000009
   15.93861103  134.28399658    1.98000002    2.64000010
   15.94194412  131.51899719    1.98000002    2.64000010
   15.94499969  134.12699890    1.98000002    2.66000009
   15.94833374  137.62300110    1.96000004    2.64000010
   15.95166683  139.27900696    1.96000004    2.64000010
   15.95249939  134.76699829    1.96000004    2.64000010
   15.95527744  136.73399353    1.96000004    2.64000010
   15.95833302  140.80599976    1.96000004    2.67000008
   15.96166611  140.74000549    1.96000004    2.66000009
   15.96777725  140.74000549    2.03999996    2.66000009
   15.97166634  136.83999634    2.01999998    2.66000009
   15.97499943  132.14999390    2.01999998    2.66000009
   15.97833252  134.26699829    2.01999998    2.64000010
   15.98138809  137.44799805    2.00000000    2.66000009
   15.98472214  135.82400513    2.00000000    2.66000009
   15.98583317  136.94999695    2.00000000    2.66000009
   15.98833370  137.68200684    2.00000000    2.64000010
   15.99138927  137.07000732    2.01999998    2.66000009
   15.99472237  134.76699829    2.00000000    2.66000009
   15.99805546  131.82699585    1.98000002    2.64000010
   16.00111198  140.74600220    2.00000000    2.66000009
   16.00444412  139.64199829    1.98000002    2.64000010
   16.01055527  139.64199829    2.00000000    2.66000009
   16.01472282  138.59599304    2.00000000    2.66000009
   16.01777840  139.97300720    1.98000002    2.66000009
   16.01916695  143.90699768    1.98000002    2.66000009
   16.02166557  140.63600159    2.00000000    2.66000009
   16.02499962  140.52299500    2.01999998    2.64000010
   16.02805519  140.04699707    2.03999996    2.66000009
   16.03138924  140.64700317    2.03999996    2.64000010
   16.03444481  139.19400024    2.01999998    2.66000009
   16.03777695  139.57499695    2.00000000    2.66000009
   16.04111099  142.27999878    1.98000002    2.66000009
   16.04416656  140.68699646    1.98000002    2.66000009
   16.04749870  132.93400574    1.98000002    2.67000008
   16.05333328  132.93400574    1.98000002    2.66000009
   16.05749893  140.51699829    2.00000000    2.66000009
   16.06083298  135.36900330    2.01999998    2.66000009
   16.06388855  138.84399414    2.00000000    2.66000009
   16.06722260  138.04499817    2.01999998    2.66000009
   16.07027817  139.66999817    2.01999998    2.66000009
   16.07361221  141.82600403    2.03999996    2.66000009
   16.07694626  141.09100342    2.03999996    2.66000009
   16.08000183  137.25199890    2.03999996    2.66000009
   16.08333397  136.83599854    2.03999996    2.66000009
   16.08583450  138.92399597    2.03999996    2.66000009
   16.08694458  139.44500732    2.03999996    2.66000009
   16.09000015  138.61199951    2.01999998    2.66000009
   16.09611130  138.61199951    2.00000000    2.66000009
   16.10027885  138.71899414    2.01999998    2.66000009
   16.10361099  128.41099548    2.01999998    2.66000009
   16.10666656  136.38000488    2.01999998    2.64000010
   16.11000061  134.24000549    2.01999998    2.66000009
   16.11333466  142.77699280    2.03999996    2.64000010
   16.11638832  139.95300293    2.05999994    2.66000009
   16.11916733  143.22399902    2.05999994    2.66000009
   16.12027740  141.20700073    2.05999994    2.66000009
   16.12333298  143.77200317    2.03999996    2.66000009
   16.12666702  140.38699341    2.05999994    2.66000009
   16.13000107  144.47300720    2.07999992    2.66000009
   16.13305473  146.59899902    2.17000008    2.66000009
   16.13916588  146.59899902    2.13000011    2.66000009
   16.14305496  146.77799988    2.13000011    2.66000009
   16.14638901  141.05200195    2.13000011    2.66000009
   16.14972115  141.80999756    2.13000011    2.61999989
   16.15250015  146.72000122    2.11999989    2.66000009
   16.15333366  135.18600464    2.11999989    2.66000009
   16.15638924  139.92500305    2.11999989    2.66000009
   16.15972137  139.18299866    2.11999989    2.66000009
   16.16305542  143.23399353    2.09999990    2.66000009
   16.16611099  140.39900208    2.09999990    2.66000009
   16.16944313  139.88000488    2.07999992    2.66000009
   16.17277718  144.07600403    2.07999992    2.66000009
   16.17583275  141.41400146    2.05999994    2.66000009
   16.18194389  141.41400146    2.05999994    2.66000009
   16.18610954  145.38400269    2.05999994    2.66000009
   16.18916512  142.30000305    2.07999992    2.66000009
   16.19249916  133.22999573    2.09999990    2.66000009
   16.19583321  141.15499878    2.07999992    2.66000009
   16.19888878  142.57699585    2.05999994    2.64000010
   16.20222282  145.66000366    2.03999996    2.66000009
   16.20527840  142.84800720    2.01999998    2.64000010
   16.20861244  142.95500183    2.01999998    2.66000009
   16.21194458  141.46000671    2.01999998    2.66000009
   16.21500015  142.76800537    2.03999996    2.64000010
   16.21833420  139.79200745    2.05999994    2.66000009
   16.21916771  150.14999390    2.05999994    2.66000009
   16.23999977  150.14999390    2.09999990    2.64000010
   16.24388885  141.99600220    2.17000008    2.64000010
   16.24722290  143.11799622    2.15000010    2.66000009
   16.25055504  133.57299805    2.13000011    2.67000008
   16.25250053  142.86999512    2.09999990    2.64000010
   16.25416756  140.04800415    2.09999990    2.67000008
   16.25749969  141.05299377    2.05999994    2.66000009
   16.26055527  144.05099487    2.13000011    2.66000009
   16.26388931  136.00000000    2.21000004    2.66000009
   16.26722145  141.31900024    2.23000002    2.66000009
   16.27027702  144.75300598    2.19000006    2.66000009
   16.27361107  138.87500000    2.21000004    2.64000010
   16.27666664  144.08700562    2.21000004    2.64000010
   16.28249931  144.08700562    2.13000011    2.66000009
   16.28666687  141.20599365    2.11999989    2.66000009
   16.28999901  143.15499878    2.09999990    2.66000009
   16.29333305  144.13900757    2.03999996    2.66000009
   16.29638863  148.55000305    1.98000002    2.66000009
   16.29972076  146.28700256    1.98000002    2.64000010
   16.30277634  144.31599426    1.98000002    2.66000009
   16.30611038  146.58900452    2.00000000    2.66000009
   16.30944443  145.29400635    2.01999998    2.66000009
   16.31250000  148.63099670    2.01999998    2.66000009
   16.31583214  144.38800049    2.05999994    2.66000009
   16.31916809  147.62500000    2.07999992    2.64000010
   16.31944466  145.14599609    2.07999992    2.64000010
   16.32555580  145.14599609    2.07999992    2.66000009
   16.32972336  146.99099731    2.09999990    2.66000009
   16.33277893  153.21099854    2.13000011    2.66000009
   16.33611107  144.40499878    2.13000011    2.66000009
   16.33916664  143.55499268    2.15000010    2.66000009
   16.34250069  147.66499329    2.15000010    2.67000008
   16.34583473  150.34399414    2.17000008    2.66000009
   16.34889030  143.44200134    2.15000010    2.66000009
   16.35222244  145.46200562    2.13000011    2.66000009
   16.35277748  153.88400269    2.13000011    2.66000009
   16.35583305  147.19000244    2.09999990    2.67000008
   16.35916710  143.38200378    2.09999990    2.66000009
   16.36222267  137.34500122    2.09999990    2.67000008
   16.36833382  137.34500122    2.07999992    2.64000010
   16.37249947  143.64199829    2.01999998    2.66000009
   16.37555504  149.03500366    2.01999998    2.64000010
   16.37888908  142.61999512    2.03999996    2.66000009
   16.38222313  146.45100403    2.03999996    2.66000009
   16.38527679  146.83200073    2.03999996    2.66000009
   16.38611031  150.75199890    2.03999996    2.67000008
   16.38888931  151.74800110    2.05999994    2.66000009
   16.39222145  149.95500183    2.11999989    2.64000010
   16.39527702  155.90199280    2.19000006    2.66000009
   16.39861107  154.85499573    2.23000002    2.66000009
   16.40194321  152.35299683    2.26999998    2.64000010
   16.40499878  151.78500366    2.28999996    2.66000009
   16.41110992  151.78500366    2.26999998    2.66000009
   16.41527748  146.84700012    2.26999998    2.67000008
   16.41860962  143.27400208    2.25000000    2.66000009
   16.41972160  149.61199951    2.25000000    2.64000010
   16.42222214  142.55799866    2.23000002    2.66000009
   16.42555428  148.40899658    2.23000002    2.64000010
   16.42860985  147.00300598    2.19000006    2.64000010
   16.43194389  142.09899902    2.13000011    2.66000009
   16.43527603  147.47700500    2.11999989    2.66000009
   16.43833160  144.25999451    2.11999989    2.66000009
   16.44166565  144.07800293    2.13000011    2.66000009
   16.44499969  141.21699524    2.13000011    2.66000009
   16.44805527  143.24699402    2.13000011    2.66000009
   16.45388985  143.24699402    2.11999989    2.66000009
   16.45805550  148.86099243    2.11999989    2.67000008
   16.46138954  146.02699280    2.11999989    2.66000009
   16.46472359  138.57800293    2.11999989    2.66000009
   16.46777916  150.47000122    2.09999990    2.66000009
   16.47111130  141.77999878    2.09999990    2.64000010
   16.47416687  147.31900024    2.09999990    2.67000008
   16.47750092  139.23300171    2.09999990    2.66000009
   16.48083305  145.50199890    2.07999992    2.66000009
   16.48388863  145.90600586    2.07999992    2.67000008
   16.48638916  140.12899780    2.05999994    2.66000009
   16.48750114  137.86199951    2.03999996    2.66000009
   16.49083328  149.50100708    2.03999996    2.66000009
   16.49694443  149.50100708    2.09999990    2.67000008
   16.50083351  141.81500244    2.13000011    2.66000009
   16.50416756  142.61900330    2.19000006    2.64000010
   16.50749969  143.73100281    2.21000004    2.66000009
   16.51055527  142.36099243    2.21000004    2.66000009
   16.51388931  151.98399353    2.21000004    2.64000010
   16.51722145  142.50000000    2.25000000    2.66000009
   16.51972198  148.55700684    2.26999998    2.66000009
   16.52055550  149.36599731    2.26999998    2.66000009
   16.52388954  150.49499512    2.25000000    2.66000009
   16.52694511  144.32899475    2.23000002    2.66000009
   16.53027725  143.94500732    2.21000004    2.66000009
   16.53361130  147.15400696    2.19000006    2.66000009
   16.53972244  147.15400696    2.15000010    2.67000008
   16.54388809  146.36599731    2.13000011    2.66000009
   16.54694366  147.81599426    2.13000011    2.66000009
   16.55027771  145.46299744    2.17000008    2.66000009
   16.55305481  148.00100708    2.15000010    2.66000009
   16.55388832  148.21200562    2.15000010    2.66000009
   16.55722237  141.38200378    2.15000010    2.67000008
   16.56027794  140.65800476    2.13000011    2.66000009
   16.56361008  146.47999573    2.11999989    2.66000009
   16.56694603  147.04200745    2.09999990    2.66000009
   16.57000160  148.16400146    2.07999992    2.66000009
   16.57333374  143.08299255    2.05999994    2.67000008
   16.57666779  152.33000183    2.05999994    2.66000009
   16.58250046  152.33000183    2.11999989    2.66000009
   16.58666801  141.38400269    2.17000008    2.67000008
   16.59000015  147.48800659    2.19000006    2.67000008
   16.59305573  144.24400330    2.17000008    2.66000009
   16.59638977  139.85899353    2.17000008    2.66000009
   16.59972191  147.12399292    2.17000008    2.67000008
   16.60277748  141.78700256    2.19000006    2.64000010
   16.60611153  145.58999634    2.21000004    2.66000009
   16.60916710  148.26100159    2.23000002    2.66000009
   16.61250114  146.74499512    2.21000004    2.67000008
   16.61583328  145.02900696    2.21000004    2.64000010
   16.61888885  140.20500183    2.17000008    2.66000009
   16.61972237  140.04499817    2.15000010    2.66000009
   16.62527847  140.04499817    2.15000010    2.66000009
   16.62944412  140.35000610    2.13000011    2.66000009
   16.63277817  139.43099976    2.09999990    2.67000008
   16.63611031  141.89799500    2.09999990    2.66000009
   16.63916588  149.20500183    2.11999989    2.66000009
   16.64249992  153.65499878    2.15000010    2.64000010
   16.64555550  147.68699646    2.21000004    2.66000009
   16.64888954  143.81799316    2.21000004    2.66000009
   16.65222168  152.32499695    2.17000008    2.66000009
   16.65305519  150.54600525    2.17000008    2.66000009
   16.65555573  149.26499939    2.17000008    2.66000009
   16.65888786  141.83700562    2.17000008    2.66000009
   16.66222191  147.04400635    2.15000010    2.66000009
   16.66833305  147.04400635    2.15000010    2.66000009
   16.67249870  143.14199829    2.13000011    2.66000009
   16.67555428  144.76600647    2.17000008    2.66000009
   16.67888832  146.52900696    2.17000008    2.66000009
   16.68194389  147.41499329    2.19000006    2.66000009
   16.68527603  148.18200684    2.19000006    2.66000009
   16.68638802  150.78199768    2.19000006    2.66000009
   16.68888855  143.70799255    2.19000006    2.66000009
   16.69222069  156.06100464    2.17000008    2.66000009
   16.69555473  151.23199463    2.17000008    2.66000009
   16.69861031  150.97300720    2.19000006    2.66000009
   16.70194435  145.68699646    2.19000006    2.66000009
   16.70499992  148.48100281    2.21000004    2.66000009
   16.71111107  148.48100281    2.26999998    2.64000010
   16.71527863  149.82499695    2.28999996    2.64000010
   16.71833420  142.87600708    2.30999994    2.66000009
   16.71972275  146.88200378    2.30999994    2.66000009
   16.72194481  146.98899841    2.30999994    2.66000009
   16.72527885  141.40499878    2.28999996    2.66000009
   16.72861099  149.22999573    2.25000000    2.67000008
   16.73166656  147.00199890    2.25000000    2.66000009
   16.73500061  141.39900208    2.25000000    2.67000008
   16.73805618  155.86900330    2.28999996    2.66000009
   16.74138832  154.17500305    2.28999996    2.66000009
   16.74472237  146.65199280    2.28999996    2.67000008
   16.74777794  147.24099731    2.32999992    2.66000009
   16.75388908  147.24099731    2.34999990    2.64000010
   16.75805473  143.64700317    2.36999989    2.67000008
   16.76138878  152.61300659    2.36999989    2.66000009
   16.76444435  156.44400024    2.39000010    2.64000010
   16.76777840  154.54600525    2.42000008    2.66000009
   16.77111053  158.03599548    2.40000010    2.66000009
   16.77416611  156.53500366    2.40000010    2.66000009
   16.77750015  157.89700317    2.40000010    2.66000009
   16.78055573  155.27699280    2.40000010    2.66000009
   16.78388786  158.54400635    2.39000010    2.66000009
   16.78638840  150.33299255    2.40000010    2.66000009
   16.78750038  155.24800110    2.39000010    2.66000009
   16.79083252  161.47300720    2.40000010    2.66000009
   16.79666710  161.47300720    2.42000008    2.66000009
   16.80083275  148.23500061    2.44000006    2.66000009
   16.80416679  155.05499268    2.46000004    2.66000009
   16.80749893  149.72000122    2.46000004    2.66000009
   16.81055450  152.41099548    2.50000000    2.66000009
   16.81388855  155.08099365    2.50000000    2.66000009
   16.81694603  161.19700623    2.48000002    2.66000009
   16.81972313  160.82699585    2.50000000    2.64000010
   16.82055664  156.03900146    2.50000000    2.66000009
   16.82389069  158.77000427    2.50000000    2.66000009
   16.82722282  153.98500061    2.48000002    2.66000009
   16.83027840  148.59700012    2.48000002    2.66000009
   16.83361244  151.04400635    2.46000004    2.64000010
   16.83972359  151.04400635    2.40000010    2.67000008
   16.84388924  152.82800293    2.32999992    2.66000009
   16.84694481  154.93800354    2.28999996    2.64000010
   16.85027885  149.63400269    2.28999996    2.66000009
   16.85305595  142.70399475    2.28999996    2.66000009
   16.85388947  149.10600281    2.28999996    2.66000009
   16.85722351  150.65699768    2.28999996    2.64000010
   16.86055565  149.71699524    2.32999992    2.64000010
   16.86361122  154.11599731    2.32999992    2.64000010
   16.86694527  144.44200134    2.32999992    2.66000009
   16.87000084  150.73699951    2.32999992    2.66000009
   16.87333298  150.46499634    2.30999994    2.66000009
   16.87666702  156.00799561    2.32999992    2.64000010
   16.88249969  156.00799561    2.32999992    2.66000009
   16.88666725  154.36900330    2.32999992    2.66000009
   16.88972282  155.31199646    2.32999992    2.66000009
   16.89305496  148.29899597    2.32999992    2.66000009
   16.89638901  148.44299316    2.32999992    2.67000008
   16.89944458  153.83500671    2.32999992    2.66000009
   16.90277672  148.44500732    2.32999992    2.66000009
   16.90611076  153.84599304    2.32999992    2.64000010
   16.90916634  154.17700195    2.34999990    2.66000009
   16.91250038  148.22999573    2.36999989    2.66000009
   16.91555595  144.42900085    2.36999989    2.66000009
   16.91888809  154.34800720    2.30999994    2.66000009
   16.91972160  152.45500183    2.30999994    2.66000009
   16.92527771  152.45500183    2.23000002    2.66000009
   16.92944336  154.17900085    2.23000002    2.66000009
   16.93277740  149.42900085    2.25000000    2.67000008
   16.93583298  152.45899963    2.28999996    2.66000009
   16.93916512  145.36099243    2.30999994    2.67000008
   16.94249916  148.05499268    2.32999992    2.67000008
   16.94555473  147.33399963    2.36999989    2.66000009
   16.94888878  145.75300598    2.34999990    2.66000009
   16.95222282  151.23300171    2.36999989    2.66000009
   16.95305634  145.09399414    2.36999989    2.66000009
   16.95555687  145.67100525    2.36999989    2.66000009
   16.95888901  145.26699829    2.39000010    2.66000009
   16.96222305  147.26899719    2.40000010    2.66000009
   16.96805573  147.26899719    2.42000008    2.66000009
   16.97222328  151.90400696    2.40000010    2.64000010
   16.97555542  151.90400696    2.39000010    2.66000009
   16.97888947  147.63200378    2.39000010    2.64000010
   16.98194504  146.02699280    2.34999990    2.66000009
   16.98527718  151.14100647    2.34999990    2.66000009
   16.98638916  155.69000244    2.34999990    2.66000009
   16.98861122  149.83599854    2.32999992    2.67000008
   16.99194527  147.83900452    2.34999990    2.66000009
   16.99527740  151.79400635    2.34999990    2.66000009
   16.99833298  148.85699463    2.36999989    2.66000009
   17.00166702  130.39199829    2.36999989    2.66000009
   17.00499916  147.77600098    2.36999989    2.66000009
   17.01111031  147.77600098    2.30999994    2.66000009
   17.01527786  148.96699524    2.30999994    2.66000009
   17.01833344  152.56599426    2.26999998    2.66000009
   17.01972198  151.85800171    2.28999996    2.66000009
   17.02194405  154.80499268    2.28999996    2.66000009
   17.02527809  154.84100342    2.32999992    2.66000009
   17.02861023  150.50500488    2.34999990    2.66000009
   17.03166580  152.51600647    2.34999990    2.64000010
   17.03499985  149.12899780    2.34999990    2.66000009
   17.03833199  156.29800415    2.34999990    2.66000009
   17.04138756  150.40800476    2.30999994    2.66000009
   17.04472160  152.61900330    2.25000000    2.66000009
   17.04777718  148.37800598    2.25000000    2.66000009
   17.05388832  148.37800598    2.25000000    2.66000009
   17.05805397  160.13000488    2.26999998    2.67000008
   17.06110954  153.70300293    2.25000000    2.64000010
   17.06444359  146.45199585    2.26999998    2.66000009
   17.06777954  148.14500427    2.26999998    2.66000009
   17.07083511  154.80999756    2.34999990    2.66000009
   17.07416725  144.50100708    2.36999989    2.66000009
   17.07750130  153.52499390    2.34999990    2.66000009
   17.08055687  153.99600220    2.32999992    2.66000009
   17.08388901  148.32299805    2.32999992    2.66000009
   17.08638954  141.96899414    2.32999992    2.66000009
   17.08722305  145.38900757    2.32999992    2.66000009
   17.09055710  149.57699585    2.32999992    2.66000009
   17.09666824  149.57699585    2.32999992    2.64000010
   17.10083389  147.25700378    2.30999994    2.66000009
   17.10416794  154.65100098    2.28999996    2.64000010
   17.10722351  149.47999573    2.30999994    2.66000009
   17.11055565  149.43600464    2.30999994    2.67000008
   17.11388969  152.77600098    2.28999996    2.66000009
   17.11694527  145.35099792    2.26999998    2.66000009
   17.11972237  134.40199280    2.25000000    2.66000009
   17.12055588  145.47799683    2.25000000    2.66000009
   17.12388992  153.17799377    2.26999998    2.66000009
   17.12722206  149.08399963    2.26999998    2.66000009
   17.13027763  142.97099304    2.28999996    2.66000009
   17.13361168  152.22099304    2.34999990    2.64000010
   17.13944435  152.22099304    2.34999990    2.66000009
   17.14361191  148.05200195    2.34999990    2.66000009
   17.14694405  149.47000122    2.34999990    2.66000009
   17.15027809  149.95100403    2.32999992    2.66000009
   17.15305519  148.99000549    2.32999992    2.66000009
   17.15361023  147.34899902    2.32999992    2.66000009
   17.15694427  148.36199951    2.32999992    2.66000009
   17.16027832  149.18400574    2.32999992    2.66000009
   17.16333389  150.60899353    2.30999994    2.64000010
   17.16666603  151.11799622    2.30999994    2.66000009
   17.17000008  157.42100525    2.26999998    2.66000009
   17.17305565  148.96699524    2.30999994    2.66000009
   17.17638779  154.50700378    2.39000010    2.66000009
   17.18249893  154.50700378    2.34999990    2.66000009
   17.18666649  158.42300415    2.28999996    2.66000009
   17.18972206  155.63099670    2.28999996    2.66000009
   17.19305420  153.52200317    2.28999996    2.66000009
   17.19610977  154.90199280    2.28999996    2.66000009
   17.19944382  158.36399841    2.30999994    2.64000010
   17.20277786  148.41499329    2.28999996    2.66000009
   17.20583344  150.22999573    2.28999996    2.64000010
   17.20916748  159.80999756    2.26999998    2.66000009
   17.21250153  143.29600525    2.23000002    2.66000009
   17.21555710  150.93499756    2.25000000    2.66000009
   17.21888924  144.73699951    2.26999998    2.64000010
   17.21972275  147.97900391    2.28999996    2.64000010
   17.22527885  147.97900391    2.36999989    2.66000009
   17.22944450  151.50000000    2.34999990    2.66000009
   17.23250008  151.58099365    2.34999990    2.66000009
   17.23583412  154.15800476    2.34999990    2.66000009
   17.25583267   -1.00000000    2.13000011    2.66000009
   17.25888824   -1.00000000    2.15000010    2.66000009
   17.26222229   -1.00000000    2.13000011    2.66000009
   17.27222252   -1.00000000    2.11999989    2.66000009
   17.27555466   -1.00000000    2.09999990    2.66000009
   17.27888870   -1.00000000    2.13000011    2.67000008
   17.28194427   -1.00000000    2.15000010    2.66000009
   17.28527641   -1.00000000    2.09999990    2.66000009
   17.28861046   -1.00000000    2.09999990    2.66000009
   17.29194450   -1.00000000    2.19000006    2.64000010
   17.29500008   -1.00000000    2.11999989    2.66000009
   17.29833221   -1.00000000    2.07999992    2.66000009
   17.30166626   -1.00000000    2.05999994    2.66000009
   17.30472183   -1.00000000    2.01999998    2.66000009
   17.31527710   -1.00000000    2.09999990    2.66000009
   17.31833458   -1.00000000    2.09999990    2.66000009
   17.32194519   -1.00000000    2.13000011    2.66000009
   17.32527924   -1.00000000    2.13000011    2.66000009
   17.32833481   -1.00000000    2.13000011    2.64000010
   17.33166695   -1.00000000    2.11999989    2.66000009
   17.33500099   -1.00000000    2.07999992    2.66000009
   17.33805656   -1.00000000    2.05999994    2.66000009
   17.34138870   -1.00000000    2.01999998    2.66000009
   17.34472275   -1.00000000    2.00000000    2.66000009
   17.34777832   -1.00000000    1.98000002    2.66000009
   17.35805511   -1.00000000    1.96000004    2.64000010
   17.36138916   -1.00000000    1.96000004    2.66000009
   17.36444473   -1.00000000    1.98000002    2.66000009
   17.36777878   -1.00000000    1.98000002    2.66000009
   17.37083435   -1.00000000    1.98000002    2.66000009
   17.37416649   -1.00000000    1.98000002    2.66000009
   17.37750053   -1.00000000    1.96000004    2.66000009
   17.38055611   -1.00000000    1.96000004    2.66000009
   17.38388824   -1.00000000    1.98000002    2.66000009
   17.38722229   -1.00000000    1.96000004    2.66000009
   17.39055634   -1.00000000    1.96000004    2.66000009
   17.40083313   -1.00000000    1.94000006    2.66000009
   17.40416718   -1.00000000    1.94000006    2.66000009
   17.40722275   -1.00000000    1.94000006    2.66000009
   17.41055489   -1.00000000    1.94000006    2.64000010
   17.41388893   -1.00000000    1.83000004    2.64000010
   17.41694450   -1.00000000    1.83000004    2.66000009
   17.42083359   -1.00000000    1.86000001    2.66000009
   17.42416573   -1.00000000    1.85000002    2.64000010
   17.42749977   -1.00000000    1.85000002    2.64000010
   17.43055534   -1.00000000    1.85000002    2.66000009
   17.43388748   -1.00000000    1.85000002    2.66000009
   17.44361115   -1.00000000    1.98000002    2.66000009
   17.44694328   -1.00000000    1.86000001    2.64000010
   17.45027924   -1.00000000    1.85000002    2.64000010
   17.45361137   -1.00000000    1.85000002    2.64000010
   17.45750046   -1.00000000    1.85000002    2.66000009
   17.46083450   -1.00000000    1.85000002    2.66000009
   17.46389008  125.64399719    1.96000004    2.66000009
   17.46722221   82.94290161    2.05999994    2.66000009
   17.47027779   95.06379700    2.09999990    2.66000009
   17.47361183  147.89999390    2.09999990    2.66000009
   17.47694588  148.80900574    2.07999992    2.64000010
   17.48250008  148.80900574    2.09999990    2.64000010
   17.48666763  153.68600464    2.13000011    2.64000010
   17.48999977  153.96000671    2.13000011    2.66000009
   17.49305534  149.45599365    2.11999989    2.66000009
   17.49638939  162.84599304    2.11999989    2.64000010
   17.49944496  157.71800232    2.11999989    2.64000010
   17.50277710  151.21099854    2.07999992    2.66000009
   17.50611115  156.05499268    2.09999990    2.66000009
   17.50916672  145.41600037    2.13000011    2.64000010
   17.51250076  154.49699402    2.11999989    2.64000010
   17.51583290  154.64799500    2.11999989    2.66000009
   17.51888847  145.82200623    2.07999992    2.66000009
   17.52000046  153.17900085    2.07999992    2.64000010
   17.52527809  153.17900085    2.17000008    2.66000009
   17.52944374  154.00399780    2.17000008    2.64000010
   17.53277779  161.83099365    2.17000008    2.66000009
   17.53583336  154.12300110    2.21000004    2.64000010
   17.53916550  157.54899597    2.23000002    2.64000010
   17.54249954  151.57000732    2.21000004    2.64000010
   17.54555511  154.89500427    2.19000006    2.64000010
   17.54888916  148.22300720    2.19000006    2.66000009
   17.55222130  139.98500061    2.15000010    2.64000010
   17.55333328  152.32000732    2.13000011    2.66000009
   17.55583191  145.57200623    2.11999989    2.66000009
   17.55888748  154.66400146    2.13000011    2.64000010
   17.56222153  152.21800232    2.13000011    2.64000010
   17.56833458  152.21800232    2.13000011    2.64000010
   17.57222366  147.63299561    2.15000010    2.64000010
   17.57555580  142.21800232    2.13000011    2.64000010
   17.57888985  143.53300476    2.15000010    2.64000010
   17.58194542  150.38900757    2.23000002    2.64000010
   17.58527756  146.31599426    2.25000000    2.64000010
   17.58666801  148.38200378    2.23000002    2.64000010
   17.58889008  150.36700439    2.23000002    2.64000010
   17.59194565  152.45899963    2.23000002    2.64000010
   17.59527779  149.15299988    2.21000004    2.64000010
   17.59861183  145.25700378    2.17000008    2.66000009
   17.60166740  148.45599365    2.13000011    2.64000010
   17.60499954  147.21800232    2.11999989    2.64000010
   17.61111069  147.21800232    2.07999992    2.64000010
   17.61527824  149.71699524    2.07999992    2.64000010
   17.61833382  149.51600647    2.05999994    2.64000010
   17.62000084  153.78799438    2.07999992    2.64000010
   17.62222290  152.93400574    2.05999994    2.64000010
   17.62527847  147.86599731    2.05999994    2.66000009
   17.62861061  156.87399292    2.05999994    2.66000009
   17.63194466  153.13699341    2.05999994    2.64000010
   17.63500023  150.64199829    2.03999996    2.64000010
   17.63833237  153.03799438    2.00000000    2.64000010
   17.64138794  148.33399963    1.96000004    2.64000010
   17.64472198  152.05299377    1.94000006    2.66000009
   17.64805603  152.21299744    1.96000004    2.64000010
   17.65388870  152.21299744    2.00000000    2.66000009
   17.65805435  154.52299500    2.03999996    2.66000009
   17.66138840  152.60899353    2.05999994    2.66000009
   17.66444397  153.70500183    2.05999994    2.64000010
   17.66777802  151.74699402    2.05999994    2.64000010
   17.67083359  151.61999512    2.07999992    2.64000010
   17.67416573  159.02799988    2.03999996    2.64000010
   17.67749977  148.04699707    2.01999998    2.64000010
   17.68055534  151.95300293    2.00000000    2.64000010
   17.68388748  150.90800476    1.98000002    2.64000010
   17.68666649  156.92100525    1.98000002    2.64000010
   17.68750000  156.01899719    1.96000004    2.64000010
   17.69055557  154.12399292    1.96000004    2.66000009
   17.69666672  154.12399292    1.94000006    2.64000010
   17.70083427  145.46400452    1.89999998    2.64000010
   17.70416832  151.48199463    1.89999998    2.64000010
   17.70722389  149.57499695    1.86000001    2.64000010
   17.71055603  148.60000610    1.85000002    2.66000009
   17.71389008  151.34300232    1.85000002    2.64000010
   17.71694565  149.85299683    1.85000002    2.66000009
   17.72000122  138.53300476    1.88000000    2.66000009
   17.72083473  154.65499878    1.88000000    2.66000009
   17.72389030  145.22000122    1.88000000    2.64000010
   17.72722244  151.37199402    1.88000000    2.64000010
   17.73055649  146.18499756    1.89999998    2.66000009
   17.73361206  146.49699402    1.86000001    2.64000010
   17.73944473  146.49699402    1.86000001    2.66000009
   17.74361229  145.77999878    1.85000002    2.66000009
   17.74694443  143.04499817    1.83000004    2.66000009
   17.75027847  152.12800598    1.85000002    2.64000010
   17.75333405  144.20100403    1.83000004    2.64000010
   17.75388908  145.88400269    1.83000004    2.64000010
   17.75694466  147.48899841    1.85000002    2.66000009
   17.76027870  143.09800720    1.83000004    2.66000009
   17.76361084  150.57600403    1.83000004    2.66000009
   17.76666641  144.83799744    1.83000004    2.66000009
   17.77000046  152.99899292    1.80999994    2.66000009
   17.77333260  145.16000366    1.78999996    2.64000010
   17.77638817  144.99000549    1.78999996    2.64000010
   17.78249931  144.99000549    1.78999996    2.64000010
   17.78666687  153.00599670    1.78999996    2.66000009
   17.78722191  150.98199463    1.78999996    2.66000009
   17.79027748  150.14199829    1.80999994    2.64000010
   17.79361153  149.72500610    1.85000002    2.64000010
   17.79666710  155.00999451    1.85000002    2.64000010
   17.79999924  148.77600098    1.85000002    2.64000010
   17.80333328  150.97399902    1.85000002    2.64000010
   17.80638885  155.91400146    1.86000001    2.64000010
   17.80972099  158.40100098    1.86000001    2.64000010
   17.81305504  155.79800415    1.86000001    2.64000010
   17.81611061  147.46600342    1.86000001    2.66000009
   17.81944466  148.41200256    1.86000001    2.64000010
   17.82055664  148.63499451    1.86000001    2.64000010
   17.82527924  148.63499451    1.88000000    2.64000010
   17.83000183  154.96099854    1.89999998    2.66000009
   17.83333397  144.69900513    1.89999998    2.66000009
   17.83666801  146.87699890    1.91999996    2.64000010
   17.83972359  147.06300354    1.89999998    2.64000010
   17.84305573  145.03100586    1.94000006    2.64000010
   17.84638977  156.88900757    2.03999996    2.64000010
   17.84944534  110.08999634    2.03999996    2.64000010
   17.85333443   -1.00000000    2.05999994    2.64000010
   17.85666656  153.53999329    2.05999994    2.64000010
   17.86000061  155.74499512    2.03999996    2.64000010
   17.86305618  163.37500000    2.01999998    2.64000010
   17.86805534  163.37500000    1.98000002    2.64000010
   17.87222290  149.43600464    1.96000004    2.64000010
   17.87555504  156.17500305    1.96000004    2.61999989
   17.87861061  154.88499451    1.96000004    2.64000010
   17.88194466  144.85400391    1.96000004    2.64000010
   17.88527679  145.00100708    1.96000004    2.64000010
   17.88722229  157.25900269    1.96000004    2.64000010
   17.88888931  154.74000549    1.98000002    2.61999989
   17.89194489  148.56700134    2.15000010    2.64000010
   17.89527702  152.44299316    2.15000010    2.64000010
   17.89833260  146.19200134    2.05999994    2.64000010
   17.90166664  147.99000549    2.01999998    2.64000010
   17.90499878  156.58900452    2.05999994    2.64000010
   17.91110992  156.58900452    2.13000011    2.64000010
   17.91499901  143.55900574    2.11999989    2.64000010
   17.91833305  152.57600403    2.05999994    2.61999989
   17.92055511  148.93499756    2.01999998    2.61999989
   17.92194366  142.65299988    2.03999996    2.64000010
   17.92527771  148.08299255    2.01999998    2.61999989
   17.92860985  145.88900757    2.00000000    2.64000010
   17.93166542  147.79100037    2.00000000    2.64000010
   17.93499947   -1.00000000    2.01999998    2.64000010
   17.93833160   -1.00000000    1.96000004    2.64000010
   17.94138718   -1.00000000    1.91999996    2.64000010
   17.94472122   -1.00000000    1.86000001    2.64000010
   17.94805527   -1.00000000    1.86000001    2.61999989
   17.95777893   -1.00000000    1.89999998    2.64000010
   17.96111107   -1.00000000    1.89999998    2.64000010
   17.96444511   -1.00000000    1.89999998    2.64000010
   17.96750069   -1.00000000    1.88000000    2.61999989
   17.97083473   -1.00000000    1.88000000    2.61999989
   17.97389030   -1.00000000    1.86000001    2.64000010
   17.97722244   -1.00000000    1.86000001    2.64000010
   17.98055649   -1.00000000    1.89999998    2.64000010
   17.98361206   -1.00000000    1.91999996    2.64000010
   17.98694420   -1.00000000    1.91999996    2.64000010
   17.99055672   -1.00000000    1.91999996    2.64000010
   18.00055504   -1.00000000    2.01999998    2.64000010
   18.00388908   -1.00000000    2.01999998    2.64000010
   18.00722313   -1.00000000    2.11999989    2.61999989
   18.01027870   -1.00000000    2.07999992    2.64000010
   18.01361084   -1.00000000    2.03999996    2.64000010
   18.01694489   -1.00000000    1.94000006    2.64000010
   18.02000046   -1.00000000    1.89999998    2.61999989
   18.02361107   -1.00000000    1.91999996    2.64000010
   18.02666664   -1.00000000    1.91999996    2.64000010
   18.03000069   -1.00000000    1.89999998    2.61999989
   18.03333282   -1.00000000    1.89999998    2.61999989
   18.04361153   -1.00000000    1.89999998    2.64000010
   18.04666710  168.05200195    1.89999998    2.64000010
   18.04999924  116.60800171    1.91999996    2.64000010
   18.05333328  146.47399902    1.91999996    2.64000010
   18.05555534  149.10800171    1.94000006    2.61999989
   18.05694389  150.70899963    1.94000006    2.61999989
   18.06027794  141.90199280    1.94000006    2.61999989
   18.06361008  146.80499268    1.91999996    2.64000010
   18.06666756  145.06799316    1.91999996    2.64000010
   18.07000160  144.57299805    1.83000004    2.61999989
   18.07333374  143.08399963    1.80999994    2.61999989
   18.07638931  150.06399536    1.80999994    2.64000010
   18.08222389  150.06399536    1.73000002    2.64000010
   18.08638954  145.98899841    1.73000002    2.61999989
   18.08889008  142.22500610    1.75000000    2.64000010
   18.09000015  145.26499939    1.75000000    2.64000010
   18.09333420  144.03700256    1.76999998    2.61999989
   18.09638977  147.69299316    1.71000004    2.64000010
   18.09972191  148.89100647    1.75000000    2.64000010
   18.10305595  136.62899780    1.78999996    2.64000010
   18.10611153  141.50100708    1.78999996    2.64000010
   18.10944557  142.42799377    1.78999996    2.64000010
   18.11250114  143.14900208    1.83000004    2.61999989
   18.11583328  144.84300232    1.83000004    2.61999989
   18.11916733  142.22099304    1.76999998    2.64000010
   18.12527847  142.22099304    1.66999996    2.64000010
   18.12944412  147.75999451    1.69000006    2.61999989
   18.13249969  143.20399475    1.69000006    2.61999989
   18.13583374  144.14999390    1.69000006    2.61999989
   18.13888931  138.72300720    1.69000006    2.61999989
   18.14222145  147.57899475    1.71000004    2.61999989
   18.14555550  141.17300415    1.71000004    2.64000010
   18.14888954  141.56199646    1.71000004    2.64000010
   18.15194321  146.47000122    1.71000004    2.64000010
   18.15527725  149.69599915    1.71000004    2.61999989
   18.15611076  145.05200195    1.71000004    2.61999989
   18.15888786  151.47399902    1.71000004    2.64000010
   18.16194344  146.97500610    1.69000006    2.64000010
   18.16805458  146.97500610    1.66999996    2.61999989
   18.17222214  153.88900757    1.66999996    2.64000010
   18.17527771  147.01300049    1.66999996    2.64000010
   18.17860985  141.43899536    1.66999996    2.61999989
   18.18194389  148.82400513    1.66999996    2.64000010
   18.18499947  144.50599670    1.64999998    2.64000010
   18.18833160  141.24200439    1.64999998    2.64000010
   18.18944359  146.31599426    1.64999998    2.64000010
   18.19194412  140.99000549    1.64999998    2.61999989
   18.19499969  146.08999634    1.64999998    2.61999989
   18.19833183  145.11000061    1.64999998    2.61999989
   18.20166779  145.54499817    1.64999998    2.61999989
   18.20472336  144.20599365    1.64999998    2.64000010
   18.21083450  144.20599365    1.69000006    2.64000010
   18.21500015  149.36300659    1.69000006    2.64000010
   18.21833420  140.66400146    1.69000006    2.64000010
   18.22166634  152.43099976    1.80999994    2.61999989
   18.22305679  142.29699707    1.69000006    2.61999989
   18.22527885  147.94799805    1.69000006    2.61999989
   18.22861099  150.50199890    1.66999996    2.61999989
   18.23194504  140.85899353    1.66999996    2.61999989
   18.23500061  148.22500610    1.64999998    2.61999989
   18.23833275  147.59800720    1.63000000    2.61999989
   18.24138832  146.76600647    1.64999998    2.64000010
   18.24472237  153.32299805    1.66999996    2.64000010
   18.24805641  147.61500549    1.69000006    2.61999989
   18.25361061  147.61500549    1.66999996    2.61999989
   18.27222252  142.38600159    1.69000006    2.64000010
   18.27527809  138.09500122    1.66999996    2.59999990
   18.27861023  151.64500427    1.69000006    2.61999989
   18.28166580  148.69500732    1.66999996    2.61999989
   18.28499985  142.19700623    1.64999998    2.61999989
   18.28833199  148.13600159    1.66999996    2.64000010
   18.29138756  143.45100403    1.64999998    2.61999989
   18.29694366  143.45100403    1.66999996    2.61999989
   18.30083275  128.84800720    1.64999998    2.61999989
   18.30416679  146.02999878    1.64999998    2.61999989
   18.30527687  146.18299866    1.63000000    2.61999989
   18.30777740  146.49200439    1.63000000    2.61999989
   18.31110954  141.22900391    1.61000001    2.61999989
   18.31416512  145.18800354    1.60000002    2.61999989
   18.31750107  147.47399902    1.63000000    2.61999989
   18.32083511  142.17199707    1.64999998    2.61999989
   18.32389069  148.31199646    1.66999996    2.61999989
   18.32722282  141.85299683    1.69000006    2.64000010
   18.33055687  147.72300720    1.69000006    2.61999989
   18.33361244  145.91900635    1.71000004    2.61999989
   18.33972359  145.91900635    1.69000006    2.61999989
   18.34388924  144.27400208    1.71000004    2.61999989
   18.34694481  152.49800110    1.73000002    2.61999989
   18.35027885  146.05999756    1.73000002    2.61999989
   18.35333443  149.86900330    1.69000006    2.61999989
   18.35666656  144.88999939    1.69000006    2.61999989
   18.36000061  148.93699646    1.66999996    2.61999989
   18.36305618  141.37500000    1.66999996    2.61999989
   18.36638832  146.41799927    1.64999998    2.61999989
   18.36972237  145.45599365    1.64999998    2.61999989
   18.37194443  147.10699463    1.64999998    2.61999989
   18.37305641  144.24499512    1.64999998    2.61999989
   18.37638855  154.72300720    1.64999998    2.61999989
   18.38249969  154.72300720    1.64999998    2.61999989
   18.38666725  141.81900024    1.64999998    2.61999989
   18.38999939  143.73899841    1.64999998    2.61999989
   18.39305496  149.45799255    1.63000000    2.61999989
   18.39638901  147.11999512    1.64999998    2.61999989
   18.39972115  147.29600525    1.66999996    2.61999989
   18.40277672  150.88299561    1.71000004    2.61999989
   18.40527725  149.50199890    1.69000006    2.61999989
   18.40638924  154.58900452    1.69000006    2.61999989
   18.40972137  149.40100098    1.69000006    2.61999989
   18.41277695  144.66299438    1.66999996    2.61999989
   18.41611099  150.42599487    1.66999996    2.61999989
   18.41944313  145.13299561    1.66999996    2.61999989
   18.42527771  145.13299561    1.64999998    2.61999989
   18.42944336  141.91999817    1.63000000    2.61999989
   18.43277740  144.90600586    1.63000000    2.61999989
   18.43610954  151.76899719    1.63000000    2.59999990
   18.43861008  145.90400696    1.63000000    2.59999990
   18.43944359  142.49499512    1.63000000    2.61999989
   18.44277763  143.62800598    1.66999996    2.61999989
   18.44583321  148.55200195    1.66999996    2.61999989
   18.44916534  145.24899292    1.66999996    2.61999989
   18.45250130  156.60200500    1.66999996    2.61999989
   18.45555687  155.74600220    1.71000004    2.59999990
   18.45888901  132.81100464    1.69000006    2.61999989
   18.46222305  154.57000732    1.69000006    2.61999989
   18.46833420  154.57000732    1.69000006    2.61999989
   18.47222328  145.27099609    1.71000004    2.59999990
   18.47555542  141.74099731    1.73000002    2.59999990
   18.47888947  147.32099915    1.73000002    2.61999989
   18.48194504  144.94299316    1.73000002    2.59999990
   18.48527718  147.53300476    1.75000000    2.59999990
   18.48833275  144.83700562    1.73000002    2.59999990
   18.49166679  143.74299622    1.75000000    2.59999990
   18.49500084  145.22200012    1.76999998    2.59999990
   18.49805641  163.13499451    1.76999998    2.59999990
   18.50138855  140.23199463    1.76999998    2.59999990
   18.50472260  142.69299316    1.75000000    2.59999990
   18.50527763  145.97599792    1.75000000    2.59999990
   18.51111031  145.97599792    1.75000000    2.59999990
   18.51527786  155.55799866    1.76999998    2.59999990
   18.51833344  139.31300354    1.76999998    2.59999990
   18.52166557  146.69500732    1.78999996    2.59999990
   18.52472115  150.41799927    1.78999996    2.59999990
   18.52805519  147.09800720    1.78999996    2.59999990
   18.53138924  160.53799438    1.80999994    2.59999990
   18.53444481  154.11300659    1.83000004    2.59999990
   18.53777695  141.34100342    1.83000004    2.59999990
   18.53861046  155.32000732    1.83000004    2.59999990
   18.54138756  152.87199402    1.80999994    2.59999990
   18.54472160  151.42100525    1.80999994    2.59999990
   18.54805565  147.21600342    1.76999998    2.59999990
   18.55388832  147.21600342    1.80999994    2.61999989
   18.55805397  152.54899597    1.88000000    2.59999990
   18.56110954  146.79899597    1.88000000    2.59999990
   18.56444359  143.67500305    1.88000000    2.59999990
   18.56777954  151.36500549    1.86000001    2.59999990
   18.57083511  146.79800415    1.86000001    2.59999990
   18.57194519  145.86399841    1.86000001    2.59999990
   18.57472229  149.69999695    1.96000004    2.57999992
   18.57805634  147.30599976    2.01999998    2.57999992
   18.58111191  146.37300110    1.89999998    2.59999990
   18.58444595  150.80200195    1.89999998    2.59999990
   18.58750153  144.36900330    1.88000000    2.59999990
   18.59083366  145.76800537    1.91999996    2.59999990
   18.59666824  145.76800537    1.83000004    2.57999992
   18.60083389  140.44799805    1.83000004    2.59999990
   18.60416794  146.90100098    1.83000004    2.59999990
   18.60527802  140.05200195    1.83000004    2.59999990
   18.60750008  143.68400574    1.83000004    2.59999990
   18.61083412  144.30200195    1.78999996    2.59999990
   18.61416626  142.08799744    1.78999996    2.59999990
   18.61722183  148.47200012    1.78999996    2.59999990
   18.62055588  147.05900574    1.76999998    2.59999990
   18.62388992  140.56599426    1.78999996    2.57999992
   18.62694550  140.83599854    1.75000000    2.59999990
   18.63027763  140.78799438    1.75000000    2.59999990
   18.63333321  138.01300049    1.76999998    2.59999990
   18.63972282  138.01300049    1.75000000    2.59999990
   18.64361191  139.22300720    1.75000000    2.59999990
   18.64694405  144.63299561    1.75000000    2.59999990
   18.65027809  145.08099365    1.75000000    2.59999990
   18.65416718  141.83799744    1.78999996    2.59999990
   18.65722275  135.99899292    1.85000002    2.59999990
   18.66055489  136.92900085    1.80999994    2.59999990
   18.66388893  141.19099426    1.91999996    2.59999990
   18.66694450  142.85400391    1.91999996    2.57999992
   18.67027664  140.16999817    1.78999996    2.59999990
   18.67194366  140.40299988    1.78999996    2.59999990
   18.67388916  139.12600708    1.78999996    2.59999990
   18.67722130  149.03999329    1.75000000    2.59999990
   18.68249893  149.03999329    1.83000004    2.59999990
   18.68666649  138.60099792    1.80999994    2.59999990
   18.68972206  142.02099609    1.80999994    2.59999990
   18.69305420  147.96200562    1.75000000    2.59999990
   18.69638824  153.31199646    1.75000000    2.57999992
   18.69944382  144.72599792    1.76999998    2.59999990
   18.70277786  146.04699707    1.78999996    2.59999990
   18.70527840  145.56799316    1.80999994    2.57999992
   18.70639038  144.77299500    1.78999996    2.57999992
   18.70972252  144.57800293    1.76999998    2.59999990
   18.71305656  141.05499268    1.76999998    2.59999990
   18.71611214  144.31199646    1.76999998    2.57999992
   18.71944427  143.92399597    1.78999996    2.57999992
   18.72527885  143.92399597    1.76999998    2.59999990
   18.72944450  147.84300232    1.76999998    2.59999990
   18.73250008  145.46099854    1.76999998    2.59999990
   18.73583412  147.83900452    1.78999996    2.57999992
   18.73861122  146.99699402    1.78999996    2.57999992
   18.73944473  147.65199280    1.78999996    2.57999992
   18.74277878  149.43800354    1.83000004    2.57999992
   18.74611092  149.64599609    1.83000004    2.57999992
   18.74916649  147.69299316    1.94000006    2.57999992
   18.75250053  149.97900391    1.86000001    2.57999992
   18.75555611  146.94299316    1.88000000    2.57999992
   18.75888824  144.48399353    1.88000000    2.57999992
   18.76222229  152.78799438    1.88000000    2.59999990
   18.76805496  152.78799438    1.88000000    2.57999992
   18.77222252  152.29899597    1.86000001    2.57999992
   18.77555466  154.10800171    1.85000002    2.57999992
   18.77861023  150.51699829    1.85000002    2.57999992
   18.78194427  147.79400635    1.85000002    2.57999992
   18.78527641  148.08200073    1.80999994    2.57999992
   18.78833199  149.51300049    1.78999996    2.57999992
   18.79166603  152.54400635    1.76999998    2.59999990
   18.79472160  154.40699768    1.75000000    2.57999992
   18.79805565  148.45199585    1.75000000    2.57999992
   18.80138779  151.88400269    1.75000000    2.57999992
   18.80444336  150.39500427    1.76999998    2.59999990
   18.80527687  151.26499939    1.76999998    2.59999990
   18.81110954  151.26499939    1.73000002    2.59999990
   18.81499863  152.29299927    1.71000004    2.57999992
   18.81833458  160.19299316    1.66999996    2.57999992
   18.82166672  153.64500427    1.64999998    2.57999992
   18.82472229  151.10600281    1.64999998    2.57999992
   18.82805634  149.33999634    1.64999998    2.57999992
   18.83139038  148.86099243    1.66999996    2.57999992
   18.83444595  154.61199951    1.89999998    2.57999992
   18.83777809  143.83200073    1.89999998    2.57999992
   18.83861160  146.60899353    1.89999998    2.57999992
   18.84138870  153.47700500    1.89999998    2.57999992
   18.84472275  151.19099426    1.88000000    2.57999992
   18.84805679  148.24299622    1.76999998    2.57999992
   18.85388947  148.24299622    1.76999998    2.57999992
   18.85805511  148.58000183    1.64999998    2.57999992
   18.86111069  145.65199280    1.64999998    2.55999994
   18.86444473  146.14799500    1.64999998    2.59999990
   18.86750031  157.72500610    1.64999998    2.57999992
   18.87083435  145.87500000    1.64999998    2.57999992
   18.87194443  151.32499695    1.64999998    2.57999992
   18.87444496  144.64300537    1.64999998    2.57999992
   18.87777710  146.08999634    1.64999998    2.57999992
   18.88111115  139.23199463    1.64999998    2.57999992
   18.88416672  145.66499329    1.64999998    2.57999992
   18.88750076  149.17300415    1.66999996    2.57999992
   18.89083290  146.39900208    1.64999998    2.57999992
   18.89666748  146.39900208    1.66999996    2.55999994
   18.90083313  143.89300537    1.63000000    2.57999992
   18.90388870  145.94099426    1.63000000    2.55999994
   18.90527725  135.79100037    1.63000000    2.57999992
   18.90749931  142.68800354    1.63000000    2.57999992
   18.91083336  140.49499512    1.63000000    2.55999994
   18.91416550  145.88600159    1.63000000    2.55999994
   18.91722107  140.92399597    1.63000000    2.57999992
   18.92055511  148.10400391    1.63000000    2.55999994
   18.92388916  150.67500305    1.63000000    2.57999992
   18.92694473  150.44900513    1.61000001    2.55999994
   18.93027687  145.82400513    1.61000001    2.57999992
   18.93333244  145.44900513    1.61000001    2.55999994
   18.93944359  145.44900513    1.61000001    2.57999992
   18.94361115  145.66400146    1.61000001    2.55999994
   18.94694328  149.22300720    1.61000001    2.57999992
   18.95000076  151.34700012    1.61000001    2.57999992
   18.95361137  142.34500122    1.61000001    2.55999994
   18.95666695  147.94900513    1.60000002    2.57999992
   18.96000099  150.87500000    1.60000002    2.57999992
   18.96305656  152.28500366    1.60000002    2.57999992
   18.96638870  146.45399475    1.60000002    2.57999992
   18.96972275  150.27400208    1.58000004    2.57999992
   18.97194481  149.58399963    1.55999994    2.55999994
   18.97333336  154.90299988    1.55999994    2.55999994
   18.97638893  150.76100159    1.55999994    2.55999994
   18.98222351  150.76100159    1.58000004    2.55999994
   18.98638916  161.88099670    1.55999994    2.55999994
   18.98972321  152.70399475    1.60000002    2.55999994
   18.99305534  157.04499817    1.60000002    2.55999994
   18.99611092  147.35699463    1.60000002    2.55999994
   18.99944496  148.13000488    1.61000001    2.55999994
   19.00277710  149.07299805    1.63000000    2.55999994
   19.00527763  143.52999878    1.63000000    2.55999994
   19.00611115  147.48199463    1.63000000    2.55999994
   19.00944519  150.72300720    1.61000001    2.55999994
   19.01277733  142.88699341    1.63000000    2.55999994
   19.01583290  145.84899902    1.64999998    2.55999994
   19.01916695  144.72700500    1.64999998    2.55999994
   19.02527809  144.72700500    1.63000000    2.55999994
   19.02944374  144.54800415    1.63000000    2.55999994
   19.03249931  146.80499268    1.63000000    2.55999994
   19.03583336  144.01600647    1.63000000    2.55999994
   19.03861046  146.78500366    1.63000000    2.55999994
   19.03944397  145.50399780    1.64999998    2.55999994
   19.04249954  142.27600098    1.64999998    2.55999994
   19.04583359  144.47000122    1.64999998    2.55999994
   19.04888916  143.72999573    1.61000001    2.53999996
   19.05222130  147.52600098    1.61000001    2.55999994
   19.05555534  143.97099304    1.63000000    2.53999996
   19.05861092  149.94000244    1.63000000    2.53999996
   19.06194305  150.35299683    1.63000000    2.55999994
   19.06805611  150.35299683    1.58000004    2.55999994
   19.07222366  146.98500061    1.60000002    2.55999994
   19.07527924  149.38900757    1.63000000    2.55999994
   19.07861137  149.50000000    1.63000000    2.53999996
   19.08194542  149.65600586    1.60000002    2.55999994
   19.08500099  148.39100647    1.60000002    2.55999994
   19.08833313  152.35000610    1.60000002    2.53999996
   19.09166718  144.63400269    1.58000004    2.53999996
   19.09472275  146.23300171    1.58000004    2.55999994
   19.09805679  147.99499512    1.58000004    2.55999994
   19.10138893  145.56900024    1.60000002    2.55999994
   19.10444450  146.03100586    1.55999994    2.53999996
   19.10527802  150.59100342    1.55999994    2.53999996
   19.11083412  150.59100342    1.55999994    2.55999994
   19.11499977  144.52200317    1.55999994    2.53999996
   19.11833382  147.64399719    1.58000004    2.53999996
   19.12138939  147.58999634    1.58000004    2.53999996
   19.12472153  151.11999512    1.58000004    2.53999996
   19.12805557  147.25199890    1.60000002    2.53999996
   19.13111115  144.07400513    1.75000000    2.53999996
   19.13444519  140.06599426    1.75000000    2.55999994
   19.13750076  147.30299377    1.75000000    2.55999994
   19.13861084  142.83399963    1.75000000    2.53999996
   19.14138794  146.32299805    1.75000000    2.53999996
   19.14444351  145.98399353    1.73000002    2.53999996
   19.14777756  141.73199463    1.71000004    2.53999996
   19.15361023  141.73199463    1.69000006    2.55999994
   19.15777779  141.12600708    1.71000004    2.55999994
   19.16110992  142.61500549    1.71000004    2.53999996
   19.16444397  145.40499878    1.75000000    2.51999998
   19.16749954  145.66099548    1.73000002    2.53999996
   19.17083359  142.65699768    1.66999996    2.53999996
   19.17194366  146.94000244    1.64999998    2.53999996
   19.17444420  139.12899780    1.63000000    2.53999996
   19.17749977  147.58099365    1.64999998    2.53999996
   19.18083191  144.80799866    1.71000004    2.53999996
   19.18388748  141.75199890    1.73000002    2.53999996
   19.18722153  151.39599609    1.75000000    2.53999996
   19.19055557  152.52699280    1.75000000    2.53999996
   19.19666672  152.52699280    1.76999998    2.53999996
   19.20083427  145.96400452    1.76999998    2.53999996
   19.20388985  149.64100647    1.76999998    2.53999996
   19.20527840  149.78300476    1.78999996    2.51999998
   19.20777893  147.04800415    1.78999996    2.51999998
   19.21083450  142.93600464    1.89999998    2.51999998
   19.21416664  141.23599243    1.80999994    2.51999998
   19.21722221  141.75399780    1.80999994    2.53999996
   19.22055626  142.64100647    1.80999994    2.53999996
   19.22389030  141.20700073    1.80999994    2.51999998
   19.22694588  148.05599976    1.88000000    2.51999998
   19.23027802  146.04499817    1.89999998    2.53999996
   19.23361206  143.00700378    1.89999998    2.53999996
   19.23944473  143.00700378    1.85000002    2.51999998
   19.24361229  150.52699280    1.85000002    2.51999998
   19.24666786  145.76499939    1.86000001    2.51999998
   19.25000000  146.19200134    1.88000000    2.51999998
   19.25333405  148.97900391    1.88000000    2.51999998
   19.25638962  145.36999512    1.88000000    2.51999998
   19.25972176  145.91200256    1.86000001    2.51999998
   19.26305580  142.05000305    1.86000001    2.51999998
   19.26611137  142.76499939    1.88000000    2.51999998
   19.26944351  142.02999878    1.86000001    2.51999998
   19.27194405  143.61399841    1.83000004    2.53999996
   19.29249954  143.61399841    1.60000002    2.53999996
   19.29666710  139.91099548    1.60000002    2.53999996
   19.29999924  140.97500610    1.60000002    2.51999998
   19.30333328  146.65899658    1.60000002    2.51999998
   19.30527687  142.70500183    1.64999998    2.51999998
   19.30694389  138.57899475    1.64999998    2.51999998
   19.30999947  145.77499390    1.60000002    2.51999998
   19.31333351  139.28900146    1.60000002    2.51999998
   19.31666756  145.20700073    1.58000004    2.51999998
   19.31972313  147.24699402    1.58000004    2.53999996
   19.32305717  150.67599487    1.58000004    2.51999998
   19.32611275  141.01499939    1.58000004    2.51999998
   19.32944489  145.41900635    1.58000004    2.51999998
   19.33527756  145.41900635    1.60000002    2.51999998
   19.33944511  145.08999634    1.60000002    2.50000000
   19.34277916  146.47300720    1.60000002    2.50000000
   19.34583473  144.35000610    1.58000004    2.51999998
   19.34916687  146.69400024    1.58000004    2.51999998
   19.35250092  145.21699524    1.58000004    2.51999998
   19.35555649  144.41299438    1.60000002    2.51999998
   19.35888863  144.23599243    1.60000002    2.51999998
   19.36194420  152.49600220    1.60000002    2.50000000
   19.36527824  145.42999268    1.60000002    2.51999998
   19.36861038  148.54299927    1.60000002    2.50000000
   19.37166595  142.88699341    1.63000000    2.50000000
   19.37222290  144.88999939    1.64999998    2.50000000
   19.37805557  144.88999939    1.66999996    2.51999998
   19.38222313  147.23199463    1.69000006    2.50000000
   19.38555527  147.99699402    1.69000006    2.50000000
   19.38888931  148.45199585    1.69000006    2.50000000
   19.39194489  146.12100220    1.71000004    2.51999998
   19.39527702  147.82200623    1.71000004    2.50000000
   19.39861107  147.96099854    1.71000004    2.50000000
   19.40166664  152.29699707    1.71000004    2.50000000
   19.40499878  152.21200562    1.73000002    2.50000000
   19.40555573  143.54499817    1.73000002    2.50000000
   19.40861130  143.22700500    1.73000002    2.50000000
   19.41194344  145.45700073    1.76999998    2.50000000
   19.41499901  143.42599487    1.76999998    2.51999998
   19.42111015  143.42599487    1.76999998    2.50000000
   19.42527771  151.11000061    1.76999998    2.51999998
   19.42833328  141.09899902    1.75000000    2.50000000
   19.43166542  142.59899902    1.75000000    2.50000000
   19.43472099  139.73300171    1.75000000    2.48000002
   19.43805504  142.54499817    1.75000000    2.48000002
   19.43888855  137.24099731    1.75000000    2.48000002
   19.44166565  137.80299377    1.75000000    2.50000000
   19.44499969  139.71099854    1.75000000    2.48000002
   19.44805527  137.02400208    1.75000000    2.50000000
   19.45138931  138.02099609    1.75000000    2.50000000
   19.45444489  134.56199646    1.75000000    2.50000000
   19.45777893  136.56399536    1.76999998    2.48000002
   19.46389008  136.56399536    1.80999994    2.50000000
   19.46805573  144.27699280    1.80999994    2.48000002
   19.47138977  141.96699524    1.80999994    2.48000002
   19.47222328  138.64900208    1.80999994    2.48000002
   19.47500038  137.59599304    1.80999994    2.48000002
   19.47833443  145.30000305    1.80999994    2.50000000
   19.48139000  138.82600403    1.78999996    2.50000000
   19.48472214  136.09300232    1.91999996    2.50000000
   19.48805618  137.38499451    1.91999996    2.48000002
   19.49111176  137.22599792    1.91999996    2.48000002
   19.49444389  139.99600220    1.94000006    2.48000002
   19.49749947  138.02999878    2.03999996    2.48000002
   19.50083351  140.90299988    2.03999996    2.48000002
   19.50666618  140.90299988    1.98000002    2.48000002
   19.51083374  140.52699280    1.96000004    2.48000002
   19.51416588  143.30700684    1.94000006    2.48000002
   19.51722145  139.86500549    1.91999996    2.48000002
   19.52055550  140.81300354    2.00000000    2.48000002
   19.52388954  141.28300476    2.07999992    2.48000002
   19.52694511  145.21499634    2.05999994    2.48000002
   19.53027725  150.88099670    2.09999990    2.48000002
   19.53333282  134.86900330    2.05999994    2.48000002
   19.53666687  142.44900513    2.07999992    2.48000002
   19.53888893  139.29200745    2.05999994    2.48000002
   19.54027748  141.23599243    2.03999996    2.48000002
   19.54361153  144.15100098    2.03999996    2.46000004
   19.54944420  144.15100098    2.07999992    2.48000002
   19.55360985  136.62600708    2.13000011    2.46000004
   19.55694389  138.14500427    2.11999989    2.46000004
   19.56027794  137.73199463    2.13000011    2.48000002
   19.56333351  140.99000549    2.25000000    2.46000004
   19.56666756  135.78599548    2.30999994    2.46000004
   19.56972313  136.33599854    2.32999992    2.48000002
   19.57222366  135.03500366    2.36999989    2.46000004
   19.57361221  138.55499268    2.40000010    2.46000004
   19.57694626  142.22700500    2.36999989    2.46000004
   19.58000183  141.35400391    2.28999996    2.46000004
   19.58333397  145.95100403    2.15000010    2.48000002
   19.58638954  134.30400085    2.11999989    2.48000002
   19.59250069  134.30400085    2.15000010    2.46000004
   19.59666824  137.79499817    2.26999998    2.46000004
   19.59972191  141.88800049    2.25000000    2.46000004
   19.60305595  137.40600586    2.15000010    2.46000004
   19.60555649  140.75300598    2.11999989    2.46000004
   19.60666656  145.59500122    2.11999989    2.46000004
   19.61000061  144.42700195    2.11999989    2.46000004
   19.61305618  138.04400635    2.09999990    2.46000004
   19.61638832  139.55000305    2.09999990    2.46000004
   19.61944389  136.78100586    2.05999994    2.46000004
   19.62277794  138.36999512    1.96000004    2.46000004
   19.62611198  136.42900085    1.96000004    2.46000004
   19.62916756  139.91900635    1.89999998    2.46000004
   19.63527679  139.91900635    1.88000000    2.46000004
   19.63944435  144.68800354    1.86000001    2.46000004
   19.64249992  140.51699829    1.88000000    2.46000004
   19.64583397  138.74800110    1.88000000    2.46000004
   19.64916611  138.52200317    1.86000001    2.46000004
   19.65222168  139.11599731    1.86000001    2.46000004
   19.65555573  139.13699341    1.86000001    2.46000004
   19.65888786  143.60200500    1.86000001    2.46000004
   19.66194344  144.45799255    1.86000001    2.46000004
   19.66527748  141.79100037    1.88000000    2.46000004
   19.66860962  144.44700623    1.89999998    2.46000004
   19.67194366  142.09500122    2.01999998    2.46000004
   19.67249870  137.15600586    2.01999998    2.46000004
   19.67805481  137.15600586    2.05999994    2.46000004
   19.68222237  138.76400757    2.05999994    2.46000004
   19.68555450  138.32499695    2.07999992    2.46000004
   19.68861008  138.77900696    2.11999989    2.46000004
   19.69194412  134.86099243    2.13000011    2.44000006
   19.69527626  131.28999329    2.15000010    2.46000004
   19.69833183  135.54699707    2.17000008    2.44000006
   19.70166779  140.67500305    2.19000006    2.44000006
   19.70499992  142.20799255    2.21000004    2.44000006
   19.70583344  139.71299744    2.21000004    2.44000006
   19.70833397  139.07099915    2.23000002    2.46000004
   19.71166801  130.77799988    2.21000004    2.44000006
   19.71500015  125.82900238    2.19000006    2.46000004
   19.72083473  125.82900238    2.19000006    2.44000006
   19.72500038   80.39050293    2.17000008    2.44000006
