    HOUR (UT)   FLARE FACTOR    SKY TESTER    SUN TESTER
   11.31027794   -1.00000000   -1.00000000   -1.00000000
   11.33638859  111.26300049    4.90999985    1.41999996
   11.34194374  132.31300354    4.90999985    1.61000001
   11.34499931  123.22399902    4.90999985    1.64999998
   11.34833336  133.33399963    4.90999985    1.66999996
   11.35166740   98.87280273    4.90999985    1.64999998
   11.35472298  142.16799927    4.90999985    1.64999998
   11.35805607  144.85800171    4.90999985    1.66999996
   11.36138916  214.64100647    4.90999985    1.76999998
   11.36444473  201.59899902    4.90999985    1.86000001
   11.36777782  184.57200623    4.90999985    2.01999998
   11.36972237  150.04299927    4.90999985    2.09999990
   11.37138939  155.48500061    4.90999985    2.13000011
   11.37444496  162.66400146    4.90999985    2.23000002
   11.37777805  157.55400085    4.90999985    2.23000002
   11.38111115  146.54600525    4.90999985    2.21000004
   11.38416672  161.13600159    4.90999985    2.21000004
   11.38749981  136.05900574    4.90999985    2.21000004
   11.39083290  160.00999451    4.90999985    2.15000010
   11.39388847  154.14500427    4.90999985    2.15000010
   11.39722252  163.12199402    4.90999985    2.15000010
   11.40027714  158.92999268    4.90999985    2.17000008
   11.40305519  143.55200195    4.90999985    2.17000008
   11.40416622  134.74600220    4.90999985    2.15000010
   11.40722179  164.04899597    4.90999985    2.15000010
   11.41055489  175.87199402    4.90999985    2.13000011
   11.41388893  179.23699951    4.90999985    2.11999989
   11.41722298  166.45899963    4.90999985    2.11999989
   11.42027855  163.61399841    4.90999985    2.13000011
   11.42361164  176.52299500    4.90999985    2.17000008
   11.42694473  127.30400085    4.90999985    2.21000004
   11.43000031  139.31700134    4.90999985    2.21000004
   11.43333340  137.20199585    4.90999985    2.19000006
   11.43638897  154.46800232    4.90999985    2.21000004
   11.43694496  151.65600586    4.90999985    2.21000004
   11.44000053  150.85400391    4.90999985    2.23000002
   11.44333363  143.62399292    4.90999985    2.23000002
   11.44666672  156.88400269    4.90999985    2.21000004
   11.44972229  158.81599426    4.90999985    2.19000006
   11.45305538  155.56300354    4.90999985    2.19000006
   11.45638847  122.04399872    4.90999985    2.21000004
   11.45944405  156.36599731    4.90999985    2.21000004
   11.46277714  159.99299622    4.90999985    2.21000004
   11.46583271  161.46400452    4.90999985    2.15000010
   11.46916580  157.42999268    4.90999985    2.13000011
   11.46972179  168.00799561    4.90999985    2.13000011
   11.47277737  175.20300293    4.90999985    2.17000008
   11.47583294  140.15400696    4.90999985    2.23000002
   11.47916603  158.02999878    4.90999985    2.25000000
   11.48249912  144.47300720    4.90999985    2.25000000
   11.48555565  131.44500732    4.90999985    2.25000000
   11.48888874  154.05799866    4.90999985    2.25000000
   11.49222279  160.44999695    4.90999985    2.25000000
   11.49527836  144.58099365    4.90999985    2.25000000
   11.49861145  158.24499512    4.90999985    2.25000000
   11.50194454  135.52299500    4.90999985    2.25000000
   11.50305557  134.43899536    4.90999985    2.25000000
   11.50555515  142.19799805    4.90999985    2.23000002
   11.50861073  137.66999817    4.90999985    2.23000002
   11.51194477  137.70500183    4.90999985    2.25000000
   11.51527786  123.45999908    4.90999985    2.25000000
   11.51833344  152.92999268    4.90999985    2.25000000
   11.52166653  159.30799866    4.90999985    2.26999998
   11.52499962  149.44900513    4.90999985    2.25000000
   11.52805519  131.94500732    4.90999985    2.23000002
   11.53138828  137.14399719    4.90999985    2.23000002
   11.53444481  148.12300110    4.90999985    2.23000002
   11.53638935  146.53599548    4.90999985    2.21000004
   11.53833389  158.96600342    4.90999985    2.17000008
   11.54166698  142.29200745    4.90999985    2.17000008
   11.54472256  134.88800049    4.90999985    2.25000000
   11.54805565  162.06199646    4.90999985    2.26999998
   11.55111122  125.64700317    4.90999985    2.25000000
   11.55444431  134.87699890    4.90999985    2.25000000
   11.55777836  154.84599304    4.90999985    2.28999996
   11.56083393  137.14199829    4.90999985    2.26999998
   11.56416702  161.71400452    4.90999985    2.25000000
   11.56750011  129.19000244    4.90999985    2.25000000
   11.56972218  165.73399353    4.90999985    2.26999998
   11.57111073  141.21800232    4.90999985    2.25000000
   11.57444477  150.14799500    4.90999985    2.26999998
   11.57750034  134.56199646    4.90999985    2.25000000
   11.58083344  141.21899414    4.90999985    2.25000000
   11.58388901  162.38699341    4.90999985    2.26999998
   11.58722210  134.33399963    4.90999985    2.26999998
   11.59055519  147.78599548    4.90999985    2.26999998
   11.59361076  153.82800293    4.90999985    2.26999998
   11.59694386  143.14199829    4.90999985    2.28999996
   11.60027790  164.94799805    4.90999985    2.28999996
   11.60305595  139.57600403    4.90999985    2.30999994
   11.60388947  152.86700439    4.90999985    2.30999994
   11.60694504  163.86500549    4.90999985    2.32999992
   11.61027813  174.48399353    4.90999985    2.32999992
   11.61361122  148.18400574    4.90999985    2.32999992
   11.61666679  144.72700500    4.90999985    2.23000002
   11.61999989  157.23199463    4.90999985    2.19000006
   11.62333393  187.25399780    4.90999985    2.19000006
   11.62638855  156.29200745    4.90999985    2.23000002
   11.62972260  184.27900696    4.90999985    2.26999998
   11.63277817  163.86399841    4.90999985    2.25000000
   11.63611126  180.97599792    4.90999985    2.26999998
   11.63666630  158.18600464    4.90999985    2.26999998
   11.64000034  147.82499695    4.90999985    2.28999996
   11.64305496  153.40600586    4.90999985    2.30999994
   11.64638901  174.61900330    4.90999985    2.28999996
   11.64972210  144.54600525    4.90999985    2.25000000
   11.65277767  147.78799438    4.90999985    2.30999994
   11.65611076  145.55400085    4.90999985    2.32999992
   11.65916634  151.06300354    4.90999985    2.32999992
   11.66249943  128.61999512    4.90999985    2.34999990
   11.66583252  140.19799805    4.90999985    2.34999990
   11.66888905  142.03300476    4.90999985    2.30999994
   11.67000008  183.29100037    4.90999985    2.28999996
   11.67277813  176.55599976    4.90999985    2.25000000
   11.67583370  158.80000305    4.90999985    2.30999994
   11.67916679  152.22799683    4.90999985    2.34999990
   11.68249989  171.22399902    4.90999985    2.32999992
   11.68555546  164.64599609    4.90999985    2.30999994
   11.68888855  160.81700134    4.90999985    2.25000000
   11.69194412  178.40600586    4.90999985    2.25000000
   11.69527817  163.61500549    4.90999985    2.26999998
   11.69861126  177.98399353    4.90999985    2.32999992
   11.70166683  136.39599609    4.90999985    2.36999989
   11.70333290  143.94599915    4.90999985    2.36999989
   11.70555496  157.01899719    4.90999985    2.36999989
   11.70861053  172.39799500    4.90999985    2.34999990
   11.71194458  185.68400574    4.90999985    2.32999992
   11.71500015  166.77999878    4.90999985    2.32999992
   11.71833324  182.22700500    4.90999985    2.32999992
   11.72166634  178.29400635    4.90999985    2.34999990
   11.72472191  182.40100098    4.90999985    2.32999992
   11.72805500  203.29800415    4.90999985    2.36999989
   11.73138809  171.97500610    4.90999985    2.36999989
   11.73444462  157.01600647    4.90999985    2.39000010
   11.73666668  174.44599915    4.90999985    2.36999989
   11.73833370  212.33700562    4.90999985    2.36999989
   11.74138927  173.75100708    4.90999985    2.36999989
   11.74472237  155.40299988    4.90999985    2.36999989
   11.74777794  149.19799805    4.90999985    2.39000010
   11.75111103  162.12500000    4.90999985    2.39000010
   11.75444412  171.25500488    4.90999985    2.36999989
   11.75749969  164.91900635    4.90999985    2.36999989
   11.76083374  155.24600220    4.90999985    2.36999989
   11.76416683  135.28900146    4.90999985    2.34999990
   11.76722240  174.12100220    4.90999985    2.34999990
   11.76999950  164.35899353    4.90999985    2.36999989
   11.77111053  179.41600037    4.90999985    2.36999989
   11.77416611  148.84700012    4.90999985    2.32999992
   11.77750015  141.83500671    4.90999985    2.32999992
   11.78083324  174.97999573    4.90999985    2.36999989
   11.78388977  141.65199280    4.90999985    2.32999992
   11.78722286  177.66900635    4.90999985    2.32999992
   11.79027843  156.49400330    4.90999985    2.36999989
   11.79361153  153.30900574    4.90999985    2.40000010
   11.79694462  136.14300537    4.90999985    2.40000010
   11.80000019  176.79800415    4.90999985    2.40000010
   11.80333328  143.91000366    4.90999985    2.40000010
   11.80388927  182.68400574    4.90999985    2.40000010
   11.80694485  169.47000122    4.90999985    2.40000010
   11.81027794  166.87399292    4.90999985    2.42000008
   11.81361103  159.88600159    4.90999985    2.42000008
   11.81666660  165.20799255    4.90999985    2.42000008
   11.81999969  155.34599304    4.90999985    2.42000008
   11.82305527  176.15199280    4.90999985    2.40000010
   11.82638836  161.74400330    4.90999985    2.40000010
   11.82972240  144.61000061    4.90999985    2.42000008
   11.83277798  137.13600159    4.90999985    2.44000006
   11.83611107  161.03399658    4.90999985    2.44000006
   11.83666611  155.64599609    4.90999985    2.44000006
   11.83972168  171.79100037    4.90999985    2.42000008
   11.84277725  161.48100281    4.90999985    2.36999989
   11.84611034  219.91700745    4.90999985    2.34999990
   11.84944439  183.47300720    4.90999985    2.30999994
   11.85249996  163.75799561    4.90999985    2.28999996
   11.85583401  174.83500671    4.90999985    2.30999994
   11.85888958  198.61599731    4.90999985    2.36999989
   11.86222267  170.95500183    4.90999985    2.44000006
   11.86555576  154.83900452    4.90999985    2.44000006
   11.86861134  180.16000366    4.90999985    2.44000006
   11.86999989  197.00300598    4.90999985    2.42000008
   11.87250042  180.69599915    4.90999985    2.40000010
   11.87555599  191.99400330    4.90999985    2.32999992
   11.87888908  196.52299500    4.90999985    2.28999996
   11.88222218  192.68200684    4.90999985    2.36999989
   11.88527775  208.83099365    4.90999985    2.36999989
   11.88861084  189.51600647    4.90999985    2.32999992
   11.89166641  180.99400330    4.90999985    2.36999989
   11.89499950  168.43099976    4.90999985    2.40000010
   11.89833355  176.91999817    4.90999985    2.25000000
   11.90138817  153.32400513    4.90999985    2.25000000
   11.90333271  198.47099304    4.90999985    2.25000000
   11.90527725  163.79100037    4.90999985    2.25000000
   11.90833282  169.16900635    4.90999985    2.40000010
   11.91166592  182.80700684    4.90999985    2.40000010
   11.91499996  177.39900208    4.90999985    2.42000008
   11.91805553  165.95599365    4.90999985    2.40000010
   11.92138958  182.30599976    4.90999985    2.40000010
   11.92444515  197.85200500    4.90999985    2.42000008
   11.92777824  196.24099731    4.90999985    2.25000000
   11.93111134  201.13999939    4.90999985    2.21000004
   11.93416691  229.94400024    4.90999985    2.09999990
   11.93666649  227.96200562    4.90999985    1.98000002
   11.93805599  230.40600586    4.90999985    2.00000000
   11.94111156  161.85899353    4.90999985    2.17000008
   11.94444466  189.30499268    4.90999985    2.28999996
   11.94777775  171.11500549    4.90999985    2.28999996
   11.95083332  186.42500305    4.90999985    2.32999992
   11.95416641  147.59599304    4.90999985    2.40000010
   11.95722198  185.85699463    4.90999985    2.40000010
   11.96055508  161.41999817    4.90999985    2.34999990
   11.96388912  161.74899292    4.90999985    2.44000006
   11.96694374  157.47900391    4.90999985    2.48000002
   11.96999931  151.24600220    4.90999985    2.46000004
   11.97083282  171.44900513    4.90999985    2.48000002
   11.97388840  144.48399353    4.90999985    2.48000002
   11.97722149  178.35600281    4.90999985    2.48000002
   11.98027706  143.84300232    4.90999985    2.50000000
   11.98361111  207.47700500    4.90999985    2.48000002
   11.98694515  198.07499695    4.90999985    2.44000006
   11.99000072  207.53399658    4.90999985    2.48000002
   11.99333382  217.98599243    4.90999985    2.48000002
   11.99666691  210.50500488    4.90999985    2.48000002
   11.99972248  249.51400757    4.90999985    2.48000002
   12.00305557  243.32800293    4.90999985    2.36999989
   12.00361156  224.60000610    4.90999985    2.36999989
   12.00666714  284.60998535    4.90999985    2.28999996
   12.01000023  261.67800903    4.90999985    2.30999994
   12.01333332  301.80499268    4.90999985    2.32999992
   12.01527786  295.58499146    4.90999985    2.30999994
   12.01666641  330.44500732    4.90999985    2.32999992
   12.01805496  289.09698486    4.90999985    2.34999990
   12.01944447  328.60699463    4.90999985    2.30999994
   12.02083302  295.23901367    4.90999985    2.26999998
   12.02222157  295.12200928    4.90999985    2.26999998
   12.02361107  243.72700500    4.90999985    2.36999989
   12.02361107  207.53399658    4.90999985    2.48000002
   12.02361107  217.98599243    4.90999985    2.48000002
   12.02388859  210.50500488    4.90999985    2.48000002
   12.02388859  249.51400757    4.90999985    2.48000002
   12.02388859  243.32800293    4.90999985    2.36999989
   12.02416611  284.60998535    4.90999985    2.28999996
   12.02416611  261.67800903    4.90999985    2.30999994
   12.02416611  301.80499268    4.90999985    2.32999992
   12.02444458  198.07499695    4.90999985    2.44000006
   12.02499962  303.84500122    4.90999985    2.40000010
   12.02694416  290.63000488    4.90999985    2.32999992
   12.02833271  283.07800293    4.90999985    2.28999996
   12.02972221  222.52400208    4.90999985    2.26999998
   12.02972221  303.84500122    4.90999985    2.40000010
   12.03027725  240.59800720    4.90999985    2.26999998
   12.03361130  270.20700073    4.90999985    2.44000006
   12.03666687  271.60198975    4.90999985    2.32999992
   12.04000092  250.08000183    4.90999985    2.42000008
   12.04333401  252.36999512    4.90999985    2.51999998
   12.04638958  234.55200195    4.90999985    2.46000004
   12.05055618  234.55200195    4.90999985    2.44000006
   12.05472279  225.58999634    4.90999985    2.50000000
   12.05805588  206.74600220    4.90999985    2.51999998
   12.06111145  214.20899963    4.90999985    2.42000008
   12.06361103  218.72700500    4.90999985    2.40000010
   12.06472206  233.44400024    4.90999985    2.40000010
   12.06805515  278.01800537    4.90999985    2.40000010
   12.07138920  297.27499390    4.90999985    2.25000000
   12.07444477  468.73300171    4.90999985    2.09999990
   12.07666683  772.65899658    4.90999985    2.00000000
   12.07777786   77.59329987    4.90999985    1.94000006
   12.07805538  233.44400024    4.90999985    2.40000010
   12.07805538  278.01800537    4.90999985    2.40000010
   12.07805538  297.27499390    4.90999985    2.25000000
   12.07833290  468.73300171    4.90999985    2.09999990
   12.07833290  252.36999512    4.90999985    2.51999998
   12.07833290  234.55200195    4.90999985    2.46000004
   12.07861137  225.58999634    4.90999985    2.50000000
   12.07861137  206.74600220    4.90999985    2.51999998
   12.07861137  214.20899963    4.90999985    2.42000008
   12.07972240  275.37100220    4.90999985    1.83000004
   12.08305550  229.19299316    4.90999985    1.75000000
   12.08638859  283.65798950    4.90999985    1.91999996
   12.08944416  245.28799438    4.90999985    2.25000000
   12.09277725  292.75698853    4.90999985    2.36999989
   12.09861088  292.75698853    4.90999985    2.42000008
   12.10277843  213.25999451    4.90999985    2.42000008
   12.10611153  175.19700623    4.90999985    2.50000000
   12.10916710  193.52299500    4.90999985    2.53999996
   12.11166668  193.50000000    4.90999985    2.51999998
   12.11305618  202.77699280    4.90999985    2.50000000
   12.11638927  213.77400208    4.90999985    2.48000002
   12.11944485  169.07899475    4.90999985    2.51999998
   12.12277794  149.21299744    4.90999985    2.53999996
   12.12583351  187.62300110    4.90999985    2.53999996
   12.12916660  207.36000061    4.90999985    2.53999996
   12.13249969  194.25100708    4.90999985    2.53999996
   12.13555527  214.93099976    4.90999985    2.51999998
   12.14166641  214.93099976    4.90999985    2.51999998
   12.14555550  198.74200439    4.90999985    2.55999994
   12.14888859  190.50399780    4.90999985    2.51999998
   12.15222168  175.65199280    4.90999985    2.46000004
   12.15527725  160.21600342    4.90999985    2.51999998
   12.15861034  171.21000671    4.90999985    2.50000000
   12.16166592  161.63999939    4.90999985    2.48000002
   12.16499996  198.65499878    4.90999985    2.42000008
   12.16833401  204.01400757    4.90999985    2.36999989
   12.17138958  148.43400574    4.90999985    2.44000006
   12.17472267  159.94500732    4.90999985    2.48000002
   12.17805576  174.72099304    4.90999985    2.51999998
   12.17861176  179.07699585    4.90999985    2.51999998
   12.18444443  179.07699585    4.90999985    2.51999998
   12.18861103  179.63400269    4.90999985    2.51999998
   12.19166660  157.67500305    4.90999985    2.48000002
   12.19499969  175.96099854    4.90999985    2.48000002
   12.19805527  185.27600098    4.90999985    2.51999998
   12.20138836  196.99099731    4.90999985    2.51999998
   12.20472240  190.09300232    4.90999985    2.48000002
   12.20777798  179.65100098    4.90999985    2.46000004
   12.21111107  177.37399292    4.90999985    2.51999998
   12.21194458  153.19299316    4.90999985    2.51999998
   12.21472168  165.74400330    4.90999985    2.51999998
   12.21805477  168.50700378    4.90999985    2.53999996
   12.22138882  157.84100342    4.90999985    2.55999994
   12.22722149  157.84100342    4.90999985    2.55999994
   12.23138809  150.52099609    4.90999985    2.57999992
   12.23472214  161.21800232    4.90999985    2.57999992
   12.23777771  152.50000000    4.90999985    2.55999994
   12.24111176  154.52900696    4.90999985    2.57999992
   12.24416733  162.68699646    4.90999985    2.55999994
   12.24527836  164.57200623    4.90999985    2.55999994
   12.24777794  156.23199463    4.90999985    2.55999994
   12.25111103  151.71400452    4.90999985    2.51999998
   12.25444412  153.67199707    4.90999985    2.55999994
   12.25749969  145.78599548    4.90999985    2.55999994
   12.26083374  143.06399536    4.90999985    2.55999994
   12.26388931  153.39300537    4.90999985    2.55999994
   12.26999950  153.39300537    4.90999985    2.55999994
   12.27416611  145.29800415    4.90999985    2.55999994
   12.27750015  147.72000122    4.90999985    2.57999992
   12.27861118  154.35099792    4.90999985    2.57999992
   12.28111076  144.88600159    4.90999985    2.57999992
   12.28444481  153.39599609    4.90999985    2.55999994
   12.28777790  150.70100403    4.90999985    2.57999992
   12.29083347  145.47300720    4.90999985    2.57999992
   12.29416752  138.63499451    4.90999985    2.57999992
   12.29722309  154.55099487    4.90999985    2.57999992
   12.30055618  143.02299500    4.90999985    2.57999992
   12.30388927  146.65899658    4.90999985    2.57999992
   12.30694485  140.86500549    4.90999985    2.57999992
   12.31305599  140.86500549    4.90999985    2.57999992
   12.31694412  154.09199524    4.90999985    2.57999992
   12.32027817  144.95899963    4.90999985    2.57999992
   12.32361126  150.83999634    4.90999985    2.57999992
   12.32666683  141.43099976    4.90999985    2.59999990
   12.32999992  128.23899841    4.90999985    2.57999992
   12.33333302  140.02200317    4.90999985    2.57999992
   12.33638859  133.95500183    4.90999985    2.59999990
   12.35333347  141.45399475    4.90999985    2.59999990
   12.35750008  141.45399475    4.90999985    2.57999992
   12.36166668  137.64999390    4.90999985    2.59999990
   12.36500072  141.74800110    4.90999985    2.59999990
   12.36805534  139.14500427    4.90999985    2.59999990
   12.37138939  136.61900330    4.90999985    2.59999990
   12.37472248  138.80200195    4.90999985    2.59999990
   12.37777805  143.65600586    4.90999985    2.59999990
   12.38111115  140.26899719    4.90999985    2.59999990
   12.38444424  143.83299255    4.90999985    2.59999990
   12.38666630  149.36799622    4.90999985    2.59999990
   12.38805580  136.42799377    4.90999985    2.59999990
   12.39111137  137.80999756    4.90999985    2.59999990
   12.39444447  136.32099915    4.90999985    2.59999990
   12.40055561  136.32099915    4.90999985    2.61999989
   12.40444374  138.93699646    4.90999985    2.59999990
   12.40777779  140.02400208    4.90999985    2.61999989
   12.41111088  132.12399292    4.90999985    2.61999989
   12.41416645  133.03799438    4.90999985    2.61999989
   12.41750050  142.87199402    4.90999985    2.61999989
   12.42000008  138.52900696    4.90999985    2.61999989
   12.42111111  146.65199280    4.90999985    2.61999989
   12.42416668  146.52600098    4.90999985    2.61999989
   12.42750072  141.92700195    4.90999985    2.61999989
   12.43083382  134.36300659    4.90999985    2.61999989
   12.43388939  142.09300232    4.90999985    2.61999989
   12.43722248  147.99299622    4.90999985    2.61999989
   12.44333363  147.99299622    4.90999985    2.61999989
   12.44750023  146.37899780    4.90999985    2.61999989
   12.45055580  140.68600464    4.90999985    2.61999989
   12.45333290  144.14599609    4.90999985    2.59999990
   12.45444393  143.17199707    4.90999985    2.59999990
   12.45749950  141.08099365    4.90999985    2.61999989
   12.46083355  144.33000183    4.90999985    2.61999989
   12.46416664  149.55999756    4.90999985    2.61999989
   12.46722221  145.88800049    4.90999985    2.64000010
   12.47055531  143.50700378    4.90999985    2.61999989
   12.47361088  144.90299988    4.90999985    2.61999989
   12.47694397  145.31599426    4.90999985    2.61999989
   12.48027706  143.03700256    4.90999985    2.64000010
   12.48611164  143.03700256    4.90999985    2.64000010
   12.49027824  150.57499695    4.90999985    2.64000010
   12.49361134  146.86500549    4.90999985    2.64000010
   12.49666691  146.45399475    4.90999985    2.64000010
   12.50000000  146.99499512    4.90999985    2.64000010
   12.50305557  142.65199280    4.90999985    2.64000010
   12.50638866  138.87600708    4.90999985    2.64000010
   12.50972176  151.21699524    4.90999985    2.64000010
   12.51277733  137.83099365    4.90999985    2.64000010
   12.51611137  145.22599792    4.90999985    2.64000010
   12.51944447  154.36000061    4.90999985    2.64000010
   12.52111053  147.10200500    4.90999985    2.64000010
   12.52305508  149.22500610    4.90999985    2.64000010
   12.52888870  149.22500610    4.90999985    2.64000010
   12.53305531  147.24899292    4.90999985    2.64000010
   12.53638935  149.31700134    4.90999985    2.64000010
   12.53944492  150.13999939    4.90999985    2.64000010
   12.54277802  140.29600525    4.90999985    2.64000010
   12.54611111  144.33900452    4.90999985    2.64000010
   12.54916668  151.02000427    4.90999985    2.64000010
   12.55249977  146.96600342    4.90999985    2.64000010
   12.55444431  150.95700073    4.90999985    2.66000009
   12.55611134  145.20899963    4.90999985    2.64000010
   12.55916691  147.13299561    4.90999985    2.66000009
   12.56250000  147.09399414    4.90999985    2.64000010
   12.56583309  146.90400696    4.90999985    2.64000010
   12.57194424  146.90400696    4.90999985    2.64000010
   12.57583332  151.34599304    4.90999985    2.64000010
   12.57916641  144.82400513    4.90999985    2.64000010
   12.58249950  142.38699341    4.90999985    2.64000010
   12.58555508  153.22900391    4.90999985    2.66000009
   12.58805561  150.14300537    4.90999985    2.55999994
   12.58944416  157.77400208    4.90999985    2.59999990
   12.59249973  146.26300049    4.90999985    2.66000009
   12.59583282  140.88600159    4.90999985    2.66000009
   12.59888840  138.07400513    4.90999985    2.64000010
   12.60222244  146.63800049    4.90999985    2.66000009
   12.60555553  145.03900146    4.90999985    2.66000009
   12.60861111  136.28900146    4.90999985    2.66000009
   12.61472225  136.28900146    4.90999985    2.66000009
   12.61888885  146.27999878    4.90999985    2.66000009
   12.62138939  145.16099548    4.90999985    2.66000009
   12.62250042  153.48699951    4.90999985    2.66000009
   12.62555599  149.08799744    4.90999985    2.66000009
   12.62888908  152.43499756    4.90999985    2.66000009
   12.63194466  138.71000671    4.90999985    2.66000009
   12.63527775  138.21699524    4.90999985    2.64000010
   12.63861084  142.56300354    4.90999985    2.64000010
   12.64166641  141.97500610    4.90999985    2.64000010
   12.64499950  141.37500000    4.90999985    2.64000010
   12.64833355  137.03100586    4.90999985    2.64000010
   12.65138817  136.92999268    4.90999985    2.64000010
   12.65749931  136.92999268    4.90999985    2.67000008
   12.66166592  131.49499512    4.90999985    2.67000008
   12.66472149  130.94400024    4.90999985    2.66000009
   12.66805553  142.27400208    4.90999985    2.67000008
   12.67138958  136.71400452    4.90999985    2.66000009
   12.67472267  130.45799255    4.90999985    2.67000008
   12.67777824  147.57200623    4.90999985    2.67000008
   12.68111134  139.45500183    4.90999985    2.67000008
   12.68416691  135.51699829    4.90999985    2.67000008
   12.68750000  133.81900024    4.90999985    2.67000008
   12.68833351  135.75700378    4.90999985    2.67000008
   12.69111156  137.80000305    4.90999985    2.67000008
   12.69444466  144.19799805    4.90999985    2.67000008
   12.70027733  144.19799805    4.90999985    2.67000008
   12.70444393  140.50199890    4.90999985    2.67000008
   12.70777798  139.40400696    4.90999985    2.67000008
   12.71083355  145.49899292    4.90999985    2.67000008
   12.71416664  135.26899719    4.90999985    2.67000008
   12.71749973  132.68099976    4.90999985    2.67000008
   12.72055531  133.96099854    4.90999985    2.67000008
   12.72166634  136.49499512    4.90999985    2.67000008
   12.72416592  145.08200073    4.90999985    2.67000008
   12.72749996  134.70599365    4.90999985    2.67000008
   12.73055553  140.40600586    4.90999985    2.67000008
   12.73388958  135.31300354    4.90999985    2.67000008
   12.73694515  136.17300415    4.90999985    2.67000008
   12.74333382  136.17300415    4.90999985    2.67000008
   12.74722290  148.19099426    4.90999985    2.67000008
   12.75055599  159.87199402    4.90999985    2.67000008
   12.75388908  150.02099609    4.90999985    2.59999990
   12.75527763  151.81900024    4.90999985    2.66000009
   12.75749969  147.00000000    4.90999985    2.67000008
   12.76055527  146.55700684    4.90999985    2.67000008
   12.76388931  144.11199951    4.90999985    2.67000008
   12.76722240  159.15400696    4.90999985    2.69000006
   12.77027798  153.46600342    4.90999985    2.69000006
   12.77361107  148.86099243    4.90999985    2.67000008
   12.77694416  161.07800293    4.90999985    2.67000008
   12.77999973  190.71800232    4.90999985    2.64000010
   12.78611183  190.71800232    4.90999985    2.61999989
   12.79027843  155.94000244    4.90999985    2.67000008
   12.79333401  147.26899719    4.90999985    2.67000008
   12.79666710  132.87399292    4.90999985    2.67000008
   12.79972267  138.56900024    4.90999985    2.64000010
   12.80305576  176.39700317    4.90999985    2.66000009
   12.80638885  157.96699524    4.90999985    2.67000008
   12.80944443  143.38099670    4.90999985    2.69000006
   12.81277752  193.03100586    4.90999985    2.69000006
   12.81611156  173.77000427    4.90999985    2.69000006
   12.81916618  137.47399902    4.90999985    2.67000008
   12.82194424  159.85499573    4.90999985    2.67000008
   12.82305527  144.81199646    4.90999985    2.69000006
   12.82888889  144.81199646    4.90999985    2.67000008
   12.83305550  144.91999817    4.90999985    2.64000010
   12.83611107  153.44799805    4.90999985    2.69000006
   12.83944416  145.19000244    4.90999985    2.69000006
   12.84277725  146.76199341    4.90999985    2.69000006
   12.84583282  153.11500549    4.90999985    2.71000004
   12.84916592  142.03199768    4.90999985    2.69000006
   12.85249996  157.78500366    4.90999985    2.69000006
   12.85527802  144.55799866    4.90999985    2.67000008
   12.85611153  142.14199829    4.90999985    2.69000006
   12.85916710  151.24000549    4.90999985    2.69000006
   12.86250019  142.19799805    4.90999985    2.67000008
   12.86583328  140.47000122    4.90999985    2.71000004
   12.87166691  140.47000122    4.90999985    2.71000004
   12.87583351  132.22000122    4.90999985    2.71000004
   12.87916660  138.09500122    4.90999985    2.69000006
   12.88222218  148.89799500    4.90999985    2.69000006
   12.88555527  144.57699585    4.90999985    2.57999992
   12.88861084  145.27600098    4.90999985    2.71000004
   12.88916683  138.58900452    4.90999985    2.71000004
   12.89222240  139.04800415    4.90999985    2.69000006
   12.89555550  140.70300293    4.90999985    2.71000004
   12.89888859  151.48599243    4.90999985    2.61999989
   12.90194416  142.08299255    4.90999985    2.66000009
   12.90527725  147.73500061    4.90999985    2.71000004
   12.90833282  140.69099426    4.90999985    2.71000004
   12.91472149  140.69099426    4.90999985    2.71000004
   12.91861153  145.63000488    4.90999985    2.71000004
   12.92194462  151.92500305    4.90999985    2.71000004
   12.92250061  150.22999573    4.90999985    2.71000004
   12.92555618  140.40899658    4.90999985    2.71000004
   12.92888927  146.53599548    4.90999985    2.71000004
   12.93222237  144.18499756    4.90999985    2.71000004
   12.93527794  138.26400757    4.90999985    2.71000004
   12.93861103  139.07800293    4.90999985    2.71000004
   12.94166660  140.87899780    4.90999985    2.71000004
   12.94499969  144.84700012    4.90999985    2.71000004
   12.94833374  144.18899536    4.90999985    2.71000004
   12.95138836  143.39100647    4.90999985    2.71000004
   12.95749950  143.39100647    4.90999985    2.71000004
   12.96166611  135.75399780    4.90999985    2.71000004
   12.96472168  129.09500122    4.90999985    2.71000004
   12.96805477  143.07400513    4.90999985    2.71000004
   12.97111034  143.86300659    4.90999985    2.71000004
   12.97444439  137.77699280    4.90999985    2.71000004
   12.97777748  129.85899353    4.90999985    2.71000004
   12.98083305  131.27999878    4.90999985    2.73000002
   12.98416710  125.91500092    4.90999985    2.71000004
   12.98750019  120.60700226    4.90999985    2.71000004
   12.98861122  127.99700165    4.90999985    2.71000004
   12.99111176  130.14999390    4.90999985    2.73000002
   12.99416733  136.75799561    4.90999985    2.71000004
   13.00027752  136.75799561    4.90999985    2.71000004
   13.00444412  134.11999512    4.90999985    2.73000002
   13.00777817  136.34899902    4.90999985    2.73000002
   13.01083374  133.97700500    4.90999985    2.73000002
   13.01416683  131.01699829    4.90999985    2.73000002
   13.01722240  131.91099548    4.90999985    2.73000002
   13.02055550  129.24400330    4.90999985    2.71000004
   13.02194405  134.94400024    4.90999985    2.73000002
   13.02416611  138.11000061    4.90999985    2.71000004
   13.02722168  130.22500610    4.90999985    2.71000004
   13.03055573  136.56399536    4.90999985    2.73000002
   13.03388977  130.88200378    4.90999985    2.73000002
   13.03694534  131.64199829    4.90999985    2.73000002
   13.04305553  131.64199829    4.90999985    2.73000002
   13.04722309  135.84399414    4.90999985    2.59999990
   13.05055618  151.42399597    4.90999985    2.73000002
   13.05361176  136.48300171    4.90999985    2.73000002
   13.05555534  141.64500427    4.90999985    2.64000010
   13.05749989  144.00300598    4.90999985    2.61999989
   13.06055546  132.20199585    4.90999985    2.71000004
   13.06388950  136.80599976    4.90999985    2.73000002
   13.06694412  135.00599670    4.90999985    2.73000002
   13.07027817  141.44099426    4.90999985    2.67000008
   13.07361126  136.39199829    4.90999985    2.73000002
   13.07666683  137.56799316    4.90999985    2.71000004
   13.07999992  136.54899597    4.90999985    2.73000002
   13.08583260  136.54899597    4.90999985    2.73000002
   13.09000015  132.42799377    4.90999985    2.73000002
   13.09333324  131.85000610    4.90999985    2.73000002
   13.09666634  140.87100220    4.90999985    2.73000002
   13.09972191  130.24699402    4.90999985    2.73000002
   13.10305595  132.06199646    4.90999985    2.73000002
   13.10611153  135.39500427    4.90999985    2.73000002
   13.10944462  123.06700134    4.90999985    2.73000002
   13.11277771  129.94799805    4.90999985    2.75000000
   13.11583328  130.17999268    4.90999985    2.75000000
   13.11916637  132.08000183    4.90999985    2.73000002
   13.12222195  127.82499695    4.90999985    2.75000000
   13.12305546  124.19799805    4.90999985    2.73000002
   13.12888908  124.19799805    4.90999985    2.75000000
   13.13305569  134.09199524    4.90999985    2.73000002
   13.13611126  132.88099670    4.90999985    2.73000002
   13.13944435  128.92100525    4.90999985    2.73000002
   13.14249992  136.84199524    4.90999985    2.75000000
   13.14583302  131.12600708    4.90999985    2.75000000
   13.14916611  132.82800293    4.90999985    2.75000000
   13.15222168  138.16200256    4.90999985    2.75000000
   13.15555477  130.49000549    4.90999985    2.75000000
   13.15611076  138.87300110    4.90999985    2.75000000
   13.15916634  129.01100159    4.90999985    2.75000000
   13.16249943  147.45300293    4.90999985    2.75000000
   13.16555500  137.83900452    4.90999985    2.75000000
   13.17166710  137.83900452    4.90999985    2.75000000
   13.17583370  133.05499268    4.90999985    2.75000000
   13.17888927  127.86299896    4.90999985    2.75000000
   13.18222237  126.98899841    4.90999985    2.75000000
   13.18555546  133.21899414    4.90999985    2.75000000
   13.18861103  132.72599792    4.90999985    2.76999998
   13.18916702  135.49000549    4.90999985    2.75000000
   13.19250011  135.11399841    4.90999985    2.75000000
   13.19583321  129.29499817    4.90999985    2.75000000
   13.19888878  131.15400696    4.90999985    2.75000000
   13.20222187  127.57099915    4.90999985    2.75000000
   13.20527744  124.37899780    4.90999985    2.75000000
   13.20861053  131.38000488    4.90999985    2.75000000
   13.21444416  131.38000488    4.90999985    2.75000000
   13.21861076  137.08599854    4.90999985    2.75000000
   13.22194386  130.68400574    4.90999985    2.75000000
   13.22249985  130.39500427    4.90999985    2.75000000
   13.22555542  123.61000061    4.90999985    2.76999998
   13.22888851  130.47999573    4.90999985    2.75000000
   13.23194408  130.29899597    4.90999985    2.75000000
   13.23527813  128.53399658    4.90999985    2.76999998
   13.23833370  128.57000732    4.90999985    2.75000000
   13.24166679  129.48199463    4.90999985    2.75000000
   13.24499989  135.96000671    4.90999985    2.75000000
   13.24805546  127.33100128    4.90999985    2.75000000
   13.25138855  129.92500305    4.90999985    2.75000000
   13.25722218  129.92500305    4.90999985    2.76999998
   13.26138878  124.33000183    4.90999985    2.76999998
   13.26472187  134.88000488    4.90999985    2.76999998
   13.26805496  121.04100037    4.90999985    2.75000000
   13.27111053  126.56800079    4.90999985    2.75000000
   13.27444458  132.04600525    4.90999985    2.76999998
   13.27750015  133.22900391    4.90999985    2.75000000
   13.28083324  131.25199890    4.90999985    2.75000000
   13.28416729  134.43499756    4.90999985    2.75000000
   13.28722286  129.08099365    4.90999985    2.75000000
   13.28916740  129.84100342    4.90999985    2.75000000
   13.29111195  128.64700317    4.90999985    2.75000000
   13.29444504  126.36900330    4.90999985    2.76999998
   13.30027771  126.36900330    4.90999985    2.75000000
   13.30444431  127.15399933    4.90999985    2.76999998
   13.30749989  130.37699890    4.90999985    2.75000000
   13.31083393  128.25000000    4.90999985    2.75000000
   13.31388950  120.51200104    4.90999985    2.76999998
   13.31722260  122.04599762    4.90999985    2.76999998
   13.32055569  131.40499878    4.90999985    2.76999998
   13.32250023  123.67700195    4.90999985    2.76999998
   13.32416630  122.05899811    4.90999985    2.76999998
   13.32750034  127.07900238    4.90999985    2.76999998
   13.33055592  132.23699951    4.90999985    2.76999998
   13.33388901  134.94500732    4.90999985    2.76999998
   13.33694458  128.82099915    4.90999985    2.76999998
   13.34305477  128.82099915    4.90999985    2.76999998
   13.34722233  127.33399963    4.90999985    2.76999998
   13.35027790  126.75199890    4.90999985    2.76999998
   13.35361195  127.22799683    4.90999985    2.76999998
   13.37083340  135.31599426    4.90999985    2.75000000
   13.37361145  133.10499573    4.90999985    2.75000000
   13.37694454  139.12300110    4.90999985    2.76999998
   13.38000011  140.17100525    4.90999985    2.78999996
   13.38611126  140.17100525    4.90999985    2.76999998
   13.39027786  137.43299866    4.90999985    2.76999998
   13.39333344  129.01499939    4.90999985    2.78999996
   13.39666653  136.35099792    4.90999985    2.78999996
   13.39999962  123.35700226    4.90999985    2.76999998
   13.40305519  132.93699646    4.90999985    2.78999996
   13.40388870  138.75300598    4.90999985    2.78999996
   13.40666676  138.17900085    4.90999985    2.78999996
   13.40999985  135.70700073    4.90999985    2.76999998
   13.41305542  133.30499268    4.90999985    2.78999996
   13.41638851  129.49200439    4.90999985    2.76999998
   13.41944504  128.77400208    4.90999985    2.78999996
   13.42277813  135.51600647    4.90999985    2.76999998
   13.42888927  135.51600647    4.90999985    2.78999996
   13.43305588  127.81600189    4.90999985    2.78999996
   13.43638897  136.01199341    4.90999985    2.78999996
   13.43722248  134.11900330    4.90999985    2.78999996
   13.44000053  129.62600708    4.90999985    2.78999996
   13.44333363  133.91400146    4.90999985    2.76999998
   13.44638920  134.99299622    4.90999985    2.78999996
   13.44972229  129.03100586    4.90999985    2.78999996
   13.45277786  132.15499878    4.90999985    2.78999996
   13.45611095  133.76499939    4.90999985    2.78999996
   13.45944405  140.10200500    4.90999985    2.78999996
   13.46249962  126.37500000    4.90999985    2.78999996
   13.46583271  125.48000336    4.90999985    2.78999996
   13.47194386  125.48000336    4.90999985    2.78999996
   13.47611046  133.65499878    4.90999985    2.78999996
   13.47944355  138.56900024    4.90999985    2.78999996
   13.48249912  140.66700745    4.90999985    2.78999996
   13.48583317  132.89599609    4.90999985    2.78999996
   13.48888874  134.35299683    4.90999985    2.78999996
   13.49222279  132.66400146    4.90999985    2.78999996
   13.49555588  137.00799561    4.90999985    2.78999996
   13.49861145  144.44700623    4.90999985    2.78999996
   13.50194454  131.34199524    4.90999985    2.78999996
   13.50388908  136.23699951    4.90999985    2.78999996
   13.50555515  137.74000549    4.90999985    2.78999996
   13.50888920  130.05000305    4.90999985    2.78999996
   13.51472187  130.05000305    4.90999985    2.78999996
   13.51888847  143.32499695    4.90999985    2.78999996
   13.52194405  135.49499512    4.90999985    2.78999996
   13.52527714  128.11999512    4.90999985    2.78999996
   13.52833271  129.79200745    4.90999985    2.78999996
   13.53166676  132.47200012    4.90999985    2.78999996
   13.53500080  132.57000732    4.90999985    2.80999994
   13.53722286  135.09899902    4.90999985    2.78999996
   13.53861141  129.54699707    4.90999985    2.78999996
   13.54194450  132.01300049    4.90999985    2.78999996
   13.54500008  132.34899902    4.90999985    2.78999996
   13.54833412  129.41200256    4.90999985    2.78999996
   13.55138874  122.13600159    4.90999985    2.78999996
   13.55749989  122.13600159    4.90999985    2.78999996
   13.56166649  142.87699890    4.90999985    2.78999996
   13.56472206  115.45800018    4.90999985    2.78999996
   13.56805515  132.91900635    4.90999985    2.78999996
   13.57055569  124.66600037    4.90999985    2.78999996
   13.57166672  131.27900696    4.90999985    2.78999996
   13.57499981  132.71600342    4.90999985    2.78999996
   13.57805538  126.99199677    4.90999985    2.78999996
   13.58138847  141.55299377    4.90999985    2.78999996
   13.58444405  124.40000153    4.90999985    2.80999994
   13.58777714  143.40100098    4.90999985    2.78999996
   13.59111118  123.05500031    4.90999985    2.78999996
   13.59416676  124.22399902    4.90999985    2.78999996
   13.60027790  124.22399902    4.90999985    2.78999996
   13.60444450  126.54399872    4.90999985    2.80999994
   13.60777855  125.84899902    4.90999985    2.80999994
   13.61083412  124.36399841    4.90999985    2.80999994
   13.61416721  124.40799713    4.90999985    2.80999994
   13.61750031  138.60800171    4.90999985    2.78999996
   13.62055588  138.40800476    4.90999985    2.80999994
   13.62388897  126.06300354    4.90999985    2.78999996
   13.62694454  126.21299744    4.90999985    2.78999996
   13.63027763  142.48899841    4.90999985    2.78999996
   13.63361073  139.05200195    4.90999985    2.78999996
   13.63666630  132.17399597    4.90999985    2.80999994
   13.63722229  134.60200500    4.90999985    2.78999996
   13.64333344  134.60200500    4.90999985    2.80999994
   13.64722252  139.72700500    4.90999985    2.80999994
   13.65055561  128.49499512    4.90999985    2.78999996
   13.76138878   -1.00000000   -1.00000000   -1.00000000
   13.86250019   -1.00000000   -1.00000000   -1.00000000
   13.97249985   -1.00000000   -1.00000000   -1.00000000
   14.00055599   75.60739899    4.90999985    2.80999994
   14.00388908  127.57599640    4.90999985    2.82999992
   14.00694466  144.52799988    4.90999985    2.84999990
   14.01027775  134.57499695    4.90999985    2.82999992
   14.01361084  144.73899841    4.90999985    2.82999992
   14.01666641  133.88200378    4.90999985    2.82999992
   14.02083302  133.88200378    4.90999985    2.82999992
   14.02499962  137.13499451    4.90999985    2.84999990
   14.02833271  137.83700562    4.90999985    2.82999992
   14.03138828  121.58300018    4.90999985    2.82999992
   14.03388977  135.08399963    4.90999985    2.84999990
   14.03500080  142.41499329    4.90999985    2.82999992
   14.03833389  123.94300079    4.90999985    2.82999992
   14.04166698  132.63800049    4.90999985    2.82999992
   14.04472256  140.70399475    4.90999985    2.82999992
   14.04805565  109.67299652    4.90999985    2.82999992
   14.05138874  137.08000183    4.90999985    2.82999992
   14.05444431  140.55799866    4.90999985    2.82999992
   14.05777836  148.75599670    4.90999985    2.82999992
   14.06361103  148.75599670    4.90999985    2.84999990
   14.06777763  127.82900238    4.90999985    2.84999990
   14.07111073  142.15699768    4.90999985    2.82999992
   14.07416630  147.25199890    4.90999985    2.82999992
   14.07750034  136.40899658    4.90999985    2.82999992
   14.08083344  138.52999878    4.90999985    2.82999992
   14.08388901  141.10099792    4.90999985    2.82999992
   14.08722210  138.38600159    4.90999985    2.82999992
   14.09055519  136.17999268    4.90999985    2.82999992
   14.09361076  145.80099487    4.90999985    2.84999990
   14.09694386  145.59199524    4.90999985    2.82999992
   14.10027790  133.60600281    4.90999985    2.82999992
   14.10055637  137.82200623    4.90999985    2.82999992
   14.10666752  137.82200623    4.90999985    2.84999990
   14.11055565  144.28799438    4.90999985    2.82999992
   14.11388969  133.41600037    4.90999985    2.84999990
   14.11722279  134.40899658    4.90999985    2.82999992
   14.12027836  140.91900635    4.90999985    2.84999990
   14.12361145  128.43600464    4.90999985    2.84999990
   14.12694454  127.46499634    4.90999985    2.82999992
   14.13000011  128.92199707    4.90999985    2.82999992
   14.13333321  137.54100037    4.90999985    2.82999992
   14.13416672  132.00900269    4.90999985    2.84999990
   14.13694477  131.05499268    4.90999985    2.84999990
   14.14027786  143.60600281    4.90999985    2.84999990
   14.14333344  113.33200073    4.90999985    2.84999990
   14.14944458  113.33200073    4.90999985    2.82999992
   14.15361118  135.09300232    4.90999985    2.84999990
   14.15666676  138.46400452    4.90999985    2.82999992
   14.15999985  136.34899902    4.90999985    2.84999990
   14.16333294  136.39100647    4.90999985    2.82999992
   14.16638851  135.52699280    4.90999985    2.84999990
   14.16750050  124.70200348    4.90999985    2.82999992
   14.17000008  145.16999817    4.90999985    2.82999992
   14.17333412  132.81599426    4.90999985    2.84999990
   14.17638874  137.03300476    4.90999985    2.82999992
   14.17972279  140.77299500    4.90999985    2.84999990
   14.18305588  130.60699463    4.90999985    2.84999990
   14.18611145  131.59100342    4.90999985    2.82999992
   14.19222260  131.59100342    4.90999985    2.82999992
   14.19638920  124.59200287    4.90999985    2.84999990
   14.19972229  129.59300232    4.90999985    2.82999992
   14.20083332  126.78299713    4.90999985    2.84999990
   14.20305538  136.28599548    4.90999985    2.84999990
   14.20638847  133.81799316    4.90999985    2.82999992
   14.20944405  140.98100281    4.90999985    2.84999990
   14.21277714  130.96200562    4.90999985    2.82999992
   14.21611118  141.91499329    4.90999985    2.82999992
   14.21916580  139.53399658    4.90999985    2.84999990
   14.22249985  141.15299988    4.90999985    2.82999992
   14.22583294  132.58099365    4.90999985    2.80999994
   14.22888851  140.94299316    4.90999985    2.82999992
   14.23500061  140.94299316    4.90999985    2.82999992
   14.23916721  130.71600342    4.90999985    2.82999992
   14.24250031  136.57499695    4.90999985    2.82999992
   14.24583340  133.25500488    4.90999985    2.82999992
   14.24888897  115.51200104    4.90999985    2.84999990
   14.25222206  116.61900330    4.90999985    2.84999990
   14.25527763  138.83200073    4.90999985    2.82999992
   14.25861073  125.10600281    4.90999985    2.84999990
   14.26194477  119.73899841    4.90999985    2.84999990
   14.26500034  114.43800354    4.90999985    2.82999992
   14.26749992  126.32599640    4.90999985    2.84999990
   14.26861095  121.19599915    4.90999985    2.84999990
   14.27194405  132.22399902    4.90999985    2.86999989
   14.27805519  132.22399902    4.90999985    2.84999990
   14.28194427  128.56599426    4.90999985    2.84999990
   14.28527832  135.76199341    4.90999985    2.84999990
   14.28861141  125.16999817    4.90999985    2.84999990
   14.29166698  125.65499878    4.90999985    2.84999990
   14.29500008  128.40400696    4.90999985    2.86999989
   14.29833412  120.19899750    4.90999985    2.84999990
   14.30083370  117.18099976    4.90999985    2.84999990
   14.30166721  120.41799927    4.90999985    2.82999992
   14.30500031  126.21800232    4.90999985    2.86999989
   14.30805588  124.60099792    4.90999985    2.82999992
   14.31138897  132.67599487    4.90999985    2.84999990
   14.31472206  124.58000183    4.90999985    2.84999990
   14.32083321  124.58000183    4.90999985    2.84999990
   14.32499981  131.19999695    4.90999985    2.86999989
   14.32805538  115.48200226    4.90999985    2.84999990
   14.33138847  126.42700195    4.90999985    2.84999990
   14.33416653  115.11199951    4.90999985    2.82999992
   14.33500004  126.93699646    4.90999985    2.84999990
   14.33833313  120.86399841    4.90999985    2.84999990
   14.34138870  112.14600372    4.90999985    2.84999990
   14.34472179  124.24600220    4.90999985    2.84999990
   14.34805489  119.91000366    4.90999985    2.84999990
   14.35111141  127.86000061    4.90999985    2.82999992
   14.35444450  121.89700317    4.90999985    2.86999989
   14.35777855  123.64099884    4.90999985    2.82999992
   14.36361122  123.64099884    4.90999985    2.84999990
   14.36777782  121.23300171    4.90999985    2.86999989
   14.37111092  121.90799713    4.90999985    2.84999990
   14.37416649  131.00700378    4.90999985    2.84999990
   14.37750053  128.56100464    4.90999985    2.86999989
   14.38083363  125.19100189    4.90999985    2.84999990
   14.38388920  126.79599762    4.90999985    2.84999990
   14.38722229  119.81500244    4.90999985    2.86999989
   14.39027786  132.80599976    4.90999985    2.84999990
   14.39361095  123.80599976    4.90999985    2.86999989
   14.39694405  131.01699829    4.90999985    2.86999989
   14.39999962  124.20999908    4.90999985    2.84999990
   14.40083313  124.89600372    4.90999985    2.84999990
   14.40638828  124.89600372    4.90999985    2.84999990
   14.41055489  114.64299774    4.90999985    2.82999992
   14.41388893  119.76499939    4.90999985    2.86999989
   14.41694450  123.99800110    4.90999985    2.84999990
   14.42027855  134.69999695    4.90999985    2.86999989
   14.42361164  133.06500244    4.90999985    2.86999989
   14.42666721  122.92199707    4.90999985    2.84999990
   14.43000031  131.16400146    4.90999985    2.86999989
   14.43333340  131.18899536    4.90999985    2.86999989
   14.43416691  137.06100464    4.90999985    2.86999989
   14.43666649  136.93299866    4.90999985    2.86999989
   14.44000053  125.71700287    4.90999985    2.86999989
   14.44333363  138.65499878    4.90999985    2.86999989
   14.44944477  138.65499878    4.90999985    2.84999990
   14.45333290  122.98600006    4.90999985    2.86999989
   14.45666695  125.75700378    4.90999985    2.84999990
   14.46000004  130.43499756    4.90999985    2.84999990
   14.46305561  133.42900085    4.90999985    2.82999992
   14.46638870  137.48800659    4.90999985    2.82999992
   14.46749973  139.14799500    4.90999985    2.84999990
   14.46999931  128.66700745    4.90999985    2.84999990
   14.47333336  136.86399841    4.90999985    2.82999992
   14.47666645  133.41900635    4.90999985    2.82999992
   14.47972202  136.36399841    4.90999985    2.82999992
   14.48305511  140.36000061    4.90999985    2.82999992
   14.48611164  123.33000183    4.90999985    2.86999989
   14.49222279  123.33000183    4.90999985    2.82999992
   14.49638939  114.76499939    4.90999985    2.86999989
   14.49944496  118.12799835    4.90999985    2.86999989
   14.50083351  117.04699707    4.90999985    2.89000010
   14.50305557  113.01699829    4.90999985    2.86999989
   14.50638866  113.45099640    4.90999985    2.86999989
   14.50972176  116.38999939    4.90999985    2.86999989
   14.51277733  117.13899994    4.90999985    2.86999989
   14.51611137  121.29499817    4.90999985    2.86999989
   14.51916599  123.76999664    4.90999985    2.86999989
   14.52250004  129.25799561    4.90999985    2.86999989
   14.52583313  132.54499817    4.90999985    2.84999990
   14.52888870  129.22900391    4.90999985    2.86999989
   14.53500080  129.22900391    4.90999985    2.86999989
   14.53916740  126.13200378    4.90999985    2.82999992
   14.54250050  119.01899719    4.90999985    2.86999989
   14.54555607  122.57399750    4.90999985    2.89000010
   14.54888916  119.93599701    4.90999985    2.86999989
   14.55194473  119.46499634    4.90999985    2.86999989
   14.55527782  119.66000366    4.90999985    2.86999989
   14.55861092  120.02300262    4.90999985    2.86999989
   14.56166649  118.63600159    4.90999985    2.86999989
   14.56500053  120.14499664    4.90999985    2.86999989
   14.56750011  125.22299957    4.90999985    2.86999989
   14.56861115  118.56999969    4.90999985    2.86999989
   14.57194424  110.70200348    4.90999985    2.86999989
   14.57777786  110.70200348    4.90999985    2.86999989
   14.58194447  113.96600342    4.90999985    2.84999990
   14.58527756  124.73999786    4.90999985    2.84999990
   14.58833313  120.56600189    4.90999985    2.84999990
   14.59166622  124.57399750    4.90999985    2.86999989
   14.59499931  108.73799896    4.90999985    2.86999989
   14.59805489  111.34300232    4.90999985    2.84999990
   14.60083389  123.04199982    4.90999985    2.84999990
   14.60166740  119.95200348    4.90999985    2.84999990
   14.60500050  114.63700104    4.90999985    2.84999990
   14.60833359  107.69499969    4.90999985    2.86999989
   14.61138916  113.73400116    4.90999985    2.86999989
   14.61472225  118.17600250    4.90999985    2.86999989
   14.62083340  118.17600250    4.90999985    2.84999990
   14.62472248  108.33499908    4.90999985    2.86999989
   14.62805557  120.14199829    4.90999985    2.86999989
   14.63138866  118.85099792    4.90999985    2.84999990
   14.63416672  120.19799805    4.90999985    2.84999990
   14.63472176  116.12000275    4.90999985    2.86999989
   14.63805580  124.69599915    4.90999985    2.84999990
   14.64138889  125.45400238    4.90999985    2.82999992
   14.64444447  131.88800049    4.90999985    2.80999994
   14.64777756  139.31199646    4.90999985    2.76999998
   14.65083313  130.19299316    4.90999985    2.73000002
   14.65416622  119.81099701    4.90999985    2.64000010
   14.65749931  116.26599884    4.90999985    2.71000004
   14.66361046  116.26599884    4.90999985    2.64000010
   14.66777802  124.28600311    4.90999985    2.78999996
   14.67083359  119.90899658    4.90999985    2.84999990
   14.67416668  129.28199768    4.90999985    2.59999990
   14.67750072  127.04399872    4.90999985    2.71000004
   14.68055630  119.23799896    4.90999985    2.69000006
   14.68388939  115.44200134    4.90999985    2.80999994
   14.68722248  106.85700226    4.90999985    2.78999996
   14.69027805  112.51000214    4.90999985    2.86999989
   14.69361115  110.17199707    4.90999985    2.86999989
   14.69694424  123.36699677    4.90999985    2.82999992
   14.69999981  120.42600250    4.90999985    2.75000000
   14.70083332  115.28099823    4.90999985    2.69000006
   14.70638847  115.28099823    4.90999985    2.50000000
   14.71055508  124.63300323    4.90999985    2.66000009
   14.71388912  123.48500061    4.90999985    2.64000010
   14.71694374  138.88800049    4.90999985    2.69000006
   14.72027779  125.47899628    4.90999985    2.76999998
   14.72333336  156.27099609    4.90999985    2.84999990
   14.72666645  129.86000061    4.90999985    2.73000002
   14.72999954  123.23799896    4.90999985    2.55999994
   14.73305511  113.98400116    4.90999985    2.59999990
   14.73416710  129.88699341    4.90999985    2.61999989
   14.73666668  133.79899597    4.90999985    2.71000004
   14.74000072  129.48199463    4.90999985    2.64000010
   14.74333382  123.36499786    4.90999985    2.67000008
   14.74916649  123.36499786    4.90999985    2.73000002
   14.75333309  109.63099670    4.90999985    2.59999990
   14.75666714  112.97399902    4.90999985    2.64000010
   14.75972176  127.83100128    4.90999985    2.66000009
   14.76305580  135.97399902    4.90999985    2.59999990
   14.76638889  119.94999695    4.90999985    2.64000010
   14.76749992  127.28900146    4.90999985    2.61999989
   14.76972198  120.94699860    4.90999985    2.66000009
   14.77305508  116.89499664    4.90999985    2.78999996
   14.77638817  118.11699677    4.90999985    2.69000006
   14.77944374  134.22300720    4.90999985    2.76999998
   14.78277779  110.69699860    4.90999985    2.69000006
   14.78611183  110.11199951    4.90999985    2.78999996
   14.79222298  110.11199951    4.90999985    2.84999990
   14.79611111  118.58100128    4.90999985    2.80999994
   14.79944515  117.29799652    4.90999985    2.84999990
   14.80083370   99.27330017    4.90999985    2.86999989
   14.80305576  122.15499878    4.90999985    2.84999990
   14.80638885  102.26300049    4.90999985    2.86999989
   14.80972195  122.28900146    4.90999985    2.86999989
   14.81277752  110.44000244    4.90999985    2.86999989
   14.81611156  114.43099976    4.90999985    2.73000002
   14.81944466  111.90399933    4.90999985    2.86999989
   14.82250023  118.83300018    4.90999985    2.86999989
   14.82583332  115.99099731    4.90999985    2.82999992
   14.82888889  112.84300232    4.90999985    2.86999989
   14.83500004  112.84300232    4.90999985    2.86999989
   14.83916664  132.38900757    4.90999985    2.86999989
   14.84222221  122.52300262    4.90999985    2.86999989
   14.84555531  114.65499878    4.90999985    2.86999989
   14.84888840  119.38300323    4.90999985    2.86999989
   14.85194492  108.08100128    4.90999985    2.86999989
   14.85527802  122.53800201    4.90999985    2.89000010
   14.85861111  121.13300323    4.90999985    2.89000010
   14.86166668  117.48999786    4.90999985    2.86999989
   14.86500072  107.92400360    4.90999985    2.89000010
   14.86750031  112.84400177    4.90999985    2.86999989
   14.86861134  113.23600006    4.90999985    2.89000010
   14.87194443  118.89800262    4.90999985    2.86999989
   14.87777805  118.89800262    4.90999985    2.89000010
   14.88194466  117.27100372    4.90999985    2.86999989
   14.88527775  114.35299683    4.90999985    2.89000010
   14.88833332  110.59799957    4.90999985    2.89000010
   14.89166641  117.26000214    4.90999985    2.89000010
   14.89472198  113.56999969    4.90999985    2.89000010
   14.89805508  116.97100067    4.90999985    2.86999989
   14.90083313  104.01300049    4.90999985    2.86999989
   14.90194416  117.93000031    4.90999985    2.86999989
   14.90499973  113.83599854    4.90999985    2.89000010
   14.90833282  116.67199707    4.90999985    2.89000010
   14.91138840  111.91699982    4.90999985    2.89000010
   14.91472149  117.22100067    4.90999985    2.89000010
   14.92055607  117.22100067    4.90999985    2.86999989
   14.92472267  119.67900085    4.90999985    2.86999989
   14.92805576  114.83999634    4.90999985    2.86999989
   14.93111134  113.03199768    4.90999985    2.89000010
   14.93416691  114.36799622    4.90999985    2.86999989
   14.93500042  108.32299805    4.90999985    2.86999989
   14.93805599  121.21499634    4.90999985    2.84999990
   14.94138908  112.33300018    4.90999985    2.89000010
   14.94444466  103.70099640    4.90999985    2.86999989
   14.94777775  106.00499725    4.90999985    2.84999990
   14.95111084  105.37100220    4.90999985    2.84999990
   14.95416641  120.95300293    4.90999985    2.84999990
   14.95749950  113.97100067    4.90999985    2.89000010
   14.96361065  113.97100067    4.90999985    2.89000010
   14.96749973  107.68699646    4.90999985    2.89000010
   14.97083282  110.39399719    4.90999985    2.86999989
   14.97416592  118.17700195    4.90999985    2.86999989
   14.97722149  117.63999939    4.90999985    2.89000010
   14.98055553  112.81500244    4.90999985    2.91000009
   14.98388958  100.23999786    4.90999985    2.89000010
   14.98694515  107.40899658    4.90999985    2.89000010
   14.99027824   99.25479889    4.90999985    2.86999989
   14.99333382  107.25099945    4.90999985    2.89000010
   14.99666691  109.33200073    4.90999985    2.89000010
   15.00000000  107.07099915    4.90999985    2.86999989
   15.00083351  106.40100098    4.90999985    2.86999989
   15.02138901  106.40100098    4.90999985    2.84999990
   15.02555561  105.96399689    4.90999985    2.89000010
   15.02888870  101.81600189    4.90999985    2.86999989
   15.03222179  108.46499634    4.90999985    2.89000010
   15.03416729  107.99099731    4.90999985    2.89000010
   15.03583336  117.31099701    4.90999985    2.89000010
   15.03888893  118.73000336    4.90999985    2.89000010
   15.04222298  103.18099976    4.90999985    2.89000010
   15.04527855  111.80100250    4.90999985    2.89000010
   15.04861164  116.51699829    4.90999985    2.89000010
   15.05194473  115.91200256    4.90999985    2.89000010
   15.05500031  109.54399872    4.90999985    2.89000010
   15.05833340  114.06999969    4.90999985    2.86999989
   15.06416702  114.06999969    4.90999985    2.89000010
   15.06833363  113.05100250    4.90999985    2.89000010
   15.07166672   98.91790009    4.90999985    2.89000010
   15.07499981  115.27400208    4.90999985    2.89000010
   15.07805538  104.29699707    4.90999985    2.86999989
   15.08138847  105.31600189    4.90999985    2.86999989
   15.08444405  100.16400146    4.90999985    2.89000010
   15.08777714   98.53459930    4.90999985    2.89000010
   15.09111118  104.27300262    4.90999985    2.91000009
   15.09416676  102.23400116    4.90999985    2.89000010
   15.09749985   97.62689972    4.90999985    2.89000010
   15.10083389   98.07330322    4.90999985    2.89000010
   15.10111141  108.46199799    4.90999985    2.89000010
   15.10722256  108.46199799    4.90999985    2.89000010
   15.11111164  106.30999756    4.90999985    2.89000010
   15.11444473  110.20300293    4.90999985    2.89000010
   15.11777782  118.43699646    4.90999985    2.89000010
   15.12083340  108.91699982    4.90999985    2.89000010
   15.12416649  115.49400330    4.90999985    2.86999989
   15.12750053  102.61799622    4.90999985    2.89000010
   15.13055611  108.71800232    4.90999985    2.89000010
   15.13388920  106.44000244    4.90999985    2.89000010
   15.13444424  106.91300201    4.90999985    2.86999989
   15.13749981  106.56700134    4.90999985    2.86999989
   15.14083290  110.37599945    4.90999985    2.82999992
   15.14388847   96.62139893    4.90999985    2.89000010
   15.14999962   96.62139893    4.90999985    2.89000010
   15.15416622  114.27500153    4.90999985    2.86999989
   15.15722179  101.20099640    4.90999985    2.89000010
   15.16055489  109.49099731    4.90999985    2.89000010
   15.16388893   98.57119751    4.90999985    2.89000010
   15.16694450   96.58439636    4.90999985    2.89000010
   15.16777802  108.40100098    4.90999985    2.86999989
   15.17055607  101.23899841    4.90999985    2.89000010
   15.17388916  106.83100128    4.90999985    2.89000010
   15.17694473  107.47699738    4.90999985    2.91000009
   15.18027782  108.88099670    4.90999985    2.91000009
   15.18361092  109.67600250    4.90999985    2.91000009
   15.18666649  106.02400208    4.90999985    2.89000010
   15.19277763  106.02400208    4.90999985    2.91000009
   15.19694424   98.76439667    4.90999985    2.89000010
   15.20027733  103.02500153    4.90999985    2.86999989
   15.20138836  105.25099945    4.90999985    2.89000010
   15.20361137   93.09549713    4.90999985    2.86999989
   15.20694447   94.90609741    4.90999985    2.89000010
   15.21000004  104.77999878    4.90999985    2.89000010
   15.21333313  111.02300262    4.90999985    2.91000009
   15.21666622  111.33799744    4.90999985    2.89000010
   15.21972179  114.51799774    4.90999985    2.91000009
   15.22305489   98.93789673    4.90999985    2.91000009
   15.22638798  105.66400146    4.90999985    2.89000010
   15.22944355  104.92299652    4.90999985    2.89000010
   15.23555565  104.92299652    4.90999985    2.89000010
   15.23972225   99.78639984    4.90999985    2.89000010
   15.24305534  111.29399872    4.90999985    2.89000010
   15.24638939  104.15299988    4.90999985    2.91000009
   15.24944496   95.69129944    4.90999985    2.91000009
   15.25277805  111.28900146    4.90999985    2.91000009
   15.25583363  104.03500366    4.90999985    2.89000010
   15.25916672  101.42900085    4.90999985    2.89000010
   15.26249981  106.06600189    4.90999985    2.89000010
   15.26555538   98.57980347    4.90999985    2.91000009
   15.26805496  105.82199860    4.90999985    2.89000010
   15.26916599  102.84400177    4.90999985    2.89000010
   15.27250004  103.05300140    4.90999985    2.89000010
   15.27861118  103.05300140    4.90999985    2.89000010
   15.28249931  114.35700226    4.90999985    2.84999990
   15.28583336  121.36799622    4.90999985    2.89000010
   15.28916740  126.05799866    4.90999985    2.86999989
   15.29222298  104.35299683    4.90999985    2.86999989
   15.29555607  127.87500000    4.90999985    2.84999990
   15.29888916  105.63400269    4.90999985    2.75000000
   15.30138874  102.54199982    4.90999985    2.75000000
   15.30222225  123.76399994    4.90999985    2.67000008
   15.30555534  109.17800140    4.90999985    2.80999994
   15.30861092  106.84799957    4.90999985    2.84999990
   15.31194496  104.00599670    4.90999985    2.91000009
   15.31527805  113.88200378    4.90999985    2.91000009
   15.32138920  113.88200378    4.90999985    2.89000010
   15.32555580  109.11000061    4.90999985    2.91000009
   15.32861137  111.08300018    4.90999985    2.91000009
   15.33194447  106.27899933    4.90999985    2.91000009
   15.33472157  109.49600220    4.90999985    2.89000010
   15.33555508  107.11900330    4.90999985    2.89000010
   15.33888817   99.31099701    4.90999985    2.89000010
   15.34194374  100.75299835    4.90999985    2.89000010
   15.34527779  108.07900238    4.90999985    2.86999989
   15.34861088  114.27899933    4.90999985    2.89000010
   15.35166740  108.97100067    4.90999985    2.89000010
   15.35500050  113.05599976    4.90999985    2.82999992
   15.35833359  107.79499817    4.90999985    2.89000010
   15.36416721  107.79499817    4.90999985    2.89000010
   15.36833382  105.27899933    4.90999985    2.91000009
   15.37166691  110.83000183    4.90999985    2.89000010
   15.37472248  115.27600098    4.90999985    2.89000010
   15.37805557  102.38099670    4.90999985    2.89000010
   15.38138866  101.40699768    4.90999985    2.91000009
   15.38444424   97.24420166    4.90999985    2.91000009
   15.38777733  111.89199829    4.90999985    2.91000009
   15.39083290  102.98400116    4.90999985    2.91000009
   15.39416695  114.98000336    4.90999985    2.89000010
   15.39750004  112.52899933    4.90999985    2.91000009
   15.40055561  108.39099884    4.90999985    2.89000010
   15.40138817  112.27100372    4.90999985    2.91000009
   15.40694427  112.27100372    4.90999985    2.91000009
   15.41111088  110.21700287    4.90999985    2.89000010
   15.41444397  111.64600372    4.90999985    2.89000010
   15.41750050  109.40699768    4.90999985    2.91000009
   15.42083359  105.98000336    4.90999985    2.91000009
   15.42416668  107.03600311    4.90999985    2.91000009
   15.42722225  100.04100037    4.90999985    2.91000009
   15.43055630  103.58399963    4.90999985    2.89000010
   15.43388939  109.13700104    4.90999985    2.86999989
   15.43472195  101.25099945    4.90999985    2.91000009
   15.43722248  101.57800293    4.90999985    2.91000009
   15.44055557  109.41100311    4.90999985    2.91000009
   15.44388866  117.54599762    4.90999985    2.91000009
   15.44999981  117.54599762    4.90999985    2.89000010
   15.45388889  101.73500061    4.90999985    2.91000009
   15.45722198  101.53199768    4.90999985    2.91000009
   15.46055508  105.05799866    4.90999985    2.89000010
   15.46361065  107.86599731    4.90999985    2.91000009
   15.46694374  102.50000000    4.90999985    2.91000009
   15.46805477  100.78500366    4.90999985    2.89000010
   15.47055531  114.50499725    4.90999985    2.91000009
   15.47388840  101.70899963    4.90999985    2.91000009
   15.47722149  107.99500275    4.90999985    2.91000009
   15.48027706  106.01899719    4.90999985    2.91000009
   15.48361111  109.93900299    4.90999985    2.91000009
   15.48666668   98.87830353    4.90999985    2.91000009
   15.49277782   98.87830353    4.90999985    2.89000010
   15.49694443  110.07900238    4.90999985    2.91000009
   15.50000000  103.08599854    4.90999985    2.91000009
   15.50138855  109.88700104    4.90999985    2.91000009
   15.50361156  114.44999695    4.90999985    2.91000009
   15.50694466  104.66300201    4.90999985    2.91000009
   15.51027775  115.84100342    4.90999985    2.89000010
   15.51333332  114.75800323    4.90999985    2.89000010
   15.51666641  111.80500031    4.90999985    2.78999996
   15.51999950  107.90499878    4.90999985    2.78999996
   15.52305508   99.53430176    4.90999985    2.91000009
   15.52638817  105.54100037    4.90999985    2.91000009
   15.52972221  108.38300323    4.90999985    2.89000010
   15.53555584  108.38300323    4.90999985    2.91000009
   15.53972244  100.29900360    4.90999985    2.89000010
   15.54305553  101.71800232    4.90999985    2.89000010
   15.54611111  109.35700226    4.90999985    2.91000009
   15.54944515  100.66500092    4.90999985    2.91000009
   15.55249977  101.01200104    4.90999985    2.91000009
   15.55583382  107.13800049    4.90999985    2.89000010
   15.55916691  103.70700073    4.90999985    2.89000010
   15.56222248   95.75710297    4.90999985    2.91000009
   15.56555557  108.72499847    4.90999985    2.89000010
   15.56805515  110.73500061    4.90999985    2.91000009
   15.56916618  103.75299835    4.90999985    2.91000009
   15.57250023  104.65899658    4.90999985    2.91000009
   15.57833290  104.65899658    4.90999985    2.89000010
   15.58249950  108.27700043    4.90999985    2.91000009
   15.58583260  111.78299713    4.90999985    2.84999990
   15.58888817  114.27700043    4.90999985    2.84999990
   15.59222221  114.54100037    4.90999985    2.82999992
   15.59555531  104.99400330    4.90999985    2.86999989
   15.59861088  107.93299866    4.90999985    2.89000010
   15.60138893  108.31800079    4.90999985    2.91000009
   15.60222244  115.99299622    4.90999985    2.91000009
   15.60555553  108.55599976    4.90999985    2.89000010
   15.60888958  109.05899811    4.90999985    2.89000010
   15.61194515   93.82810211    4.90999985    2.89000010
   15.61527824  108.72699738    4.90999985    2.89000010
   15.62138939  108.72699738    4.90999985    2.86999989
   15.62527752  111.62500000    4.90999985    2.89000010
   15.62861156  107.53900146    4.90999985    2.84999990
   15.63194466   95.76300049    4.90999985    2.84999990
   15.63472176  105.62999725    4.90999985    2.89000010
   15.63527775   97.28659821    4.90999985    2.91000009
   15.63861084  102.05899811    4.90999985    2.91000009
   15.64194393  102.56500244    4.90999985    2.89000010
   15.64499950  112.37599945    4.90999985    2.89000010
   15.64833355  111.44400024    4.90999985    2.91000009
   15.65138817  106.34500122    4.90999985    2.91000009
   15.65472221  109.32700348    4.90999985    2.86999989
   15.65805531  103.00199890    4.90999985    2.86999989
   15.66416645  103.00199890    4.90999985    2.89000010
   15.66833401  108.36000061    4.90999985    2.91000009
   15.67138958  108.58899689    4.90999985    2.89000010
   15.67472267  103.45500183    4.90999985    2.91000009
   15.67805576  104.14600372    4.90999985    2.89000010
   15.68111134  101.25000000    4.90999985    2.91000009
   15.68444443  103.83200073    4.90999985    2.86999989
   15.68777752   98.46749878    4.90999985    2.91000009
   15.69083309  108.37400055    4.90999985    2.89000010
   15.69416714   98.32340240    4.90999985    2.86999989
   15.69722271  105.92400360    4.90999985    2.84999990
   15.70055580  108.39299774    4.90999985    2.84999990
   15.70138836  102.81999969    4.90999985    2.89000010
   15.70694447  102.81999969    4.90999985    2.89000010
   15.71111107  100.69200134    4.90999985    2.89000010
   15.71444416  111.04100037    4.90999985    2.89000010
   15.71749973   96.92269897    4.90999985    2.89000010
   15.72083282  109.48899841    4.90999985    2.89000010
   15.72388840  108.53299713    4.90999985    2.91000009
   15.72722149  107.88899994    4.90999985    2.86999989
   15.73055553  110.57399750    4.90999985    2.86999989
   15.73361111  102.30799866    4.90999985    2.89000010
   15.73472214   96.16200256    4.90999985    2.84999990
   15.73722267  107.13600159    4.90999985    2.89000010
   15.74055576  107.70099640    4.90999985    2.91000009
   15.74388885  105.49900055    4.90999985    2.89000010
   15.74972248  105.49900055    4.90999985    2.89000010
   15.75388908  100.92900085    4.90999985    2.80999994
   15.75722218  107.63099670    4.90999985    2.89000010
   15.76027775   98.10829926    4.90999985    2.80999994
   15.76361084  103.48100281    4.90999985    2.86999989
   15.76694393   96.28260040    4.90999985    2.91000009
   15.76805496  106.30300140    4.90999985    2.89000010
   15.77027798  105.16500092    4.90999985    2.91000009
   15.77361107  107.63300323    4.90999985    2.91000009
   15.77694416  104.48699951    4.90999985    2.89000010
   15.77999973  108.04699707    4.90999985    2.91000009
   15.78333378  105.93800354    4.90999985    2.91000009
   15.78666687  108.09899902    4.90999985    2.91000009
   15.79277802  108.09899902    4.90999985    2.91000009
   15.79666710  111.04000092    4.90999985    2.86999989
   15.80000019   99.73269653    4.90999985    2.91000009
   15.80138874  110.49099731    4.90999985    2.91000009
   15.80361176  112.87400055    4.90999985    2.89000010
   15.80694485  107.47899628    4.90999985    2.89000010
   15.81027794  101.98200226    4.90999985    2.89000010
   15.81333351  107.98000336    4.90999985    2.86999989
   15.81666660  115.14399719    4.90999985    2.91000009
   15.81999969  100.77999878    4.90999985    2.91000009
   15.82305527  102.05999756    4.90999985    2.89000010
   15.82638836  100.13099670    4.90999985    2.89000010
   15.82944393   99.14530182    4.90999985    2.89000010
   15.83555508   99.14530182    4.90999985    2.89000010
   15.83972168  109.20300293    4.90999985    2.91000009
   15.84277725  115.43099976    4.90999985    2.78999996
   15.84611034  110.23899841    4.90999985    2.86999989
   15.84944439  109.49700165    4.90999985    2.89000010
   15.85249996  102.11499786    4.90999985    2.89000010
   15.85583401  107.30999756    4.90999985    2.91000009
   15.85916710  105.53299713    4.90999985    2.86999989
   15.86222267  107.80100250    4.90999985    2.89000010
   15.86555576  105.01499939    4.90999985    2.89000010
   15.86805534  105.83899689    4.90999985    2.89000010
   15.86888885  103.34899902    4.90999985    2.89000010
   15.87222195  105.45099640    4.90999985    2.89000010
   15.87833309  105.45099640    4.90999985    2.89000010
   15.88249969  105.97599792    4.90999985    2.91000009
   15.88583279  105.30799866    4.90999985    2.91000009
   15.88888836  112.39299774    4.90999985    2.89000010
   15.89222240  101.69100189    4.90999985    2.89000010
   15.89527798   99.68900299    4.90999985    2.91000009
   15.89861107  107.56600189    4.90999985    2.89000010
   15.90138817  110.88700104    4.90999985    2.89000010
   15.90222168  109.19799805    4.90999985    2.91000009
   15.90555477  104.19499969    4.90999985    2.89000010
   15.90888882  110.51699829    4.90999985    2.86999989
   15.91194439  104.00800323    4.90999985    2.89000010
   15.91527748  102.30899811    4.90999985    2.89000010
   15.92111111  102.30899811    4.90999985    2.89000010
   15.92527771   96.18699646    4.90999985    2.89000010
   15.92861176  105.23899841    4.90999985    2.89000010
   15.93166733   94.11730194    4.90999985    2.89000010
   15.93472195   89.66770172    4.90999985    2.89000010
   15.93527794   92.15969849    4.90999985    2.89000010
   15.93861103  105.61499786    4.90999985    2.89000010
   15.94194412   99.62319946    4.90999985    2.91000009
   15.94499969  105.38899994    4.90999985    2.91000009
   15.94833374  101.25299835    4.90999985    2.89000010
   15.95166683  105.11199951    4.90999985    2.91000009
   15.95472240  104.82099915    4.90999985    2.89000010
   15.95805550  101.30799866    4.90999985    2.91000009
   15.96416664  101.30799866    4.90999985    2.84999990
   15.96805477  107.80100250    4.90999985    2.89000010
   15.97138882  110.82700348    4.90999985    2.91000009
   15.97472191  107.16000366    4.90999985    2.91000009
   15.97777748  114.26000214    4.90999985    2.89000010
   15.98111057  112.82800293    4.90999985    2.91000009
   15.98444462  108.90599823    4.90999985    2.89000010
   15.98750019   96.15640259    4.90999985    2.91000009
   15.99083328   96.94450378    4.90999985    2.89000010
   15.99388885  101.67500305    4.90999985    2.89000010
   15.99722290  107.58000183    4.90999985    2.91000009
   16.00055504  100.20400238    4.90999985    2.91000009
   16.00138855  100.43299866    4.90999985    2.91000009
   16.00694466  100.43299866    4.90999985    2.89000010
   16.01111031  103.14099884    4.90999985    2.89000010
   16.01416588  103.77400208    4.90999985    2.91000009
   16.01749992   99.07060242    4.90999985    2.89000010
   16.03499985  100.49700165    4.90999985    2.89000010
   16.03750038   99.08760071    4.90999985    2.91000009
   16.04083252  100.53099823    4.90999985    2.89000010
   16.04388809  102.40200043    4.90999985    2.91000009
   16.04999924  102.40200043    4.90999985    2.91000009
   16.05416679  107.58699799    4.90999985    2.91000009
   16.05722237  110.19300079    4.90999985    2.91000009
   16.06055450  101.66100311    4.90999985    2.91000009
   16.06361008  104.15599823    4.90999985    2.91000009
   16.06694603  102.20899963    4.90999985    2.91000009
   16.06833458  103.98999786    4.90999985    2.91000009
   16.07055664   97.06610107    4.90999985    2.91000009
   16.07361221   99.23020172    4.90999985    2.91000009
   16.07694626   92.84989929    4.90999985    2.89000010
   16.08027840   90.44100189    4.90999985    2.89000010
   16.08333397   98.82510376    4.90999985    2.91000009
   16.08666801  103.31099701    4.90999985    2.91000009
   16.09277916  103.31099701    4.90999985    2.89000010
   16.09694481   92.09400177    4.90999985    2.91000009
   16.10027885  100.61900330    4.90999985    2.91000009
   16.10166740  102.70400238    4.90999985    2.91000009
   16.10388947   92.46810150    4.90999985    2.89000010
   16.10694504   93.97200012    4.90999985    2.91000009
   16.11027908   88.66159821    4.90999985    2.89000010
   16.11361122  101.62100220    4.90999985    2.91000009
   16.11666679  101.47000122    4.90999985    2.91000009
   16.12000084   99.37460327    4.90999985    2.91000009
   16.12305641   99.80370331    4.90999985    2.89000010
   16.12638855   96.77719879    4.90999985    2.91000009
   16.12972260   92.91439819    4.90999985    2.91000009
   16.13555527   92.91439819    4.90999985    2.91000009
   16.13972282  105.62300110    4.90999985    2.89000010
   16.14305496  103.86199951    4.90999985    2.91000009
   16.14611053  100.60399628    4.90999985    2.91000009
   16.14944458  104.76699829    4.90999985    2.91000009
   16.15250015   99.19950104    4.90999985    2.91000009
   16.15583229  107.61900330    4.90999985    2.89000010
   16.15916634  102.26799774    4.90999985    2.91000009
   16.16222191  102.15200043    4.90999985    2.91000009
   16.16555595   99.00700378    4.90999985    2.89000010
   16.16833305   94.76730347    4.90999985    2.89000010
   16.16916656   96.24729919    4.90999985    2.89000010
   16.17222214  106.12000275    4.90999985    2.89000010
   16.17833328  106.12000275    4.90999985    2.89000010
   16.18249893  101.41899872    4.90999985    2.91000009
   16.18583298   87.79609680    4.90999985    2.89000010
   16.18888855  109.57900238    4.90999985    2.89000010
   16.19222069  107.37599945    4.90999985    2.91000009
   16.19555473  107.67600250    4.90999985    2.91000009
   16.19861031  112.11499786    4.90999985    2.89000010
   16.20166779  104.85600281    4.90999985    2.89000010
   16.20250130  108.95800018    4.90999985    2.89000010
   16.20555687  109.43900299    4.90999985    2.89000010
   16.20888901  103.13300323    4.90999985    2.91000009
   16.21222305   97.47389984    4.90999985    2.91000009
   16.21527863   99.33129883    4.90999985    2.91000009
   16.22138977   99.33129883    4.90999985    2.89000010
   16.22527885  102.78600311    4.90999985    2.91000009
   16.22861099  109.37200165    4.90999985    2.89000010
   16.23194504  108.16100311    4.90999985    2.89000010
   16.23500061  111.40200043    4.90999985    2.91000009
   16.23555565  104.97499847    4.90999985    2.91000009
   16.23861122  101.55400085    4.90999985    2.91000009
   16.24194527  111.12599945    4.90999985    2.89000010
   16.24500084  113.16200256    4.90999985    2.91000009
   16.24833298  113.40699768    4.90999985    2.91000009
   16.25166702  108.89499664    4.90999985    2.89000010
   16.25472260  117.06400299    4.90999985    2.91000009
   16.25805473  111.00000000    4.90999985    2.89000010
   16.26416588  111.00000000    4.90999985    2.91000009
   16.26833344  103.91500092    4.90999985    2.91000009
   16.26888847   96.16000366    4.90999985    2.91000009
   16.27194405  101.75000000    4.90999985    2.91000009
   16.27527809  106.74900055    4.90999985    2.91000009
   16.27833366  103.95400238    4.90999985    2.91000009
   16.28166580  101.42600250    4.90999985    2.91000009
   16.28499985  105.42299652    4.90999985    2.91000009
   16.28805542  103.37200165    4.90999985    2.91000009
   16.29138756  109.46700287    4.90999985    2.91000009
   16.29472160  109.21399689    4.90999985    2.91000009
   16.29777718  111.13600159    4.90999985    2.91000009
   16.30111122  105.09100342    4.90999985    2.91000009
   16.30166626  109.28099823    4.90999985    2.89000010
   16.30694389  109.28099823    4.90999985    2.89000010
   16.31110954  105.12100220    4.90999985    2.91000009
   16.31444359  110.73600006    4.90999985    2.91000009
   16.31750107  108.58899689    4.90999985    2.91000009
   16.32083511   98.78469849    4.90999985    2.89000010
   16.32389069  105.48100281    4.90999985    2.89000010
   16.32722282  105.89099884    4.90999985    2.91000009
   16.33055687  106.00199890    4.90999985    2.91000009
   16.33361244  101.90399933    4.90999985    2.91000009
   16.33500099  116.78399658    4.90999985    2.89000010
   16.33750153  101.20999908    4.90999985    2.91000009
   16.34055710   94.51550293    4.90999985    2.89000010
   16.34388924  114.93599701    4.90999985    2.91000009
   16.34972191  114.93599701    4.90999985    2.91000009
   16.35388947  103.40299988    4.90999985    2.91000009
   16.35722351   96.58480072    4.90999985    2.91000009
   16.36027908  102.39900208    4.90999985    2.91000009
   16.36361122   94.80979919    4.90999985    2.91000009
   16.36694527  102.53500366    4.90999985    2.91000009
   16.36833382  111.39199829    4.90999985    2.91000009
   16.37055588   95.85939789    4.90999985    2.91000009
   16.37361145  103.21800232    4.90999985    2.89000010
   16.37694550   98.33209991    4.90999985    2.91000009
   16.38027763  106.48899841    4.90999985    2.91000009
   16.38333321  105.77799988    4.90999985    2.91000009
   16.38666725  100.67099762    4.90999985    2.91000009
   16.39277840  100.67099762    4.90999985    2.91000009
   16.39666748  113.88300323    4.90999985    2.91000009
   16.39999962  100.47499847    4.90999985    2.91000009
   16.40166664  108.06800079    4.90999985    2.91000009
   16.40361023  106.22000122    4.90999985    2.91000009
   16.40666580  103.19499969    4.90999985    2.91000009
   16.40999985  105.63600159    4.90999985    2.91000009
   16.41333389  101.04699707    4.90999985    2.91000009
   16.41638756  100.84799957    4.90999985    2.89000010
   16.41972160  106.25700378    4.90999985    2.91000009
   16.42277718  103.09500122    4.90999985    2.91000009
   16.42611122  104.62200165    4.90999985    2.91000009
   16.42944336  108.69899750    4.90999985    2.91000009
   16.43555450  108.69899750    4.90999985    2.91000009
   16.43972206  102.60399628    4.90999985    2.91000009
   16.44305420   96.93190002    4.90999985    2.91000009
   16.44610977   95.83679962    4.90999985    2.89000010
   16.44944382  102.58000183    4.90999985    2.86999989
   16.45250130   96.74449921    4.90999985    2.89000010
   16.45583344   94.60420227    4.90999985    2.91000009
   16.45916748  102.03199768    4.90999985    2.91000009
   16.46222305   96.22940063    4.90999985    2.91000009
   16.46555710  102.37599945    4.90999985    2.91000009
   16.46833420   99.89869690    4.90999985    2.91000009
   16.46916771   97.87650299    4.90999985    2.91000009
   16.47222328  100.08200073    4.90999985    2.91000009
   16.47833443  100.08200073    4.90999985    2.91000009
   16.48250008  106.61000061    4.90999985    2.91000009
   16.48583412  103.48799896    4.90999985    2.89000010
   16.48888969  109.48799896    4.90999985    2.91000009
   16.49222183  109.73600006    4.90999985    2.91000009
   16.49527740  101.24299622    4.90999985    2.91000009
   16.49861145   97.14009857    4.90999985    2.91000009
   16.50166702  102.35299683    4.90999985    2.91000009
   16.50222206  101.39800262    4.90999985    2.91000009
   16.50527763  101.84799957    4.90999985    2.91000009
   16.50861168   99.24859619    4.90999985    2.89000010
   16.51194382   96.62460327    4.90999985    2.89000010
   16.51499939  101.54000092    4.90999985    2.91000009
   16.52111053  101.54000092    4.90999985    2.89000010
   16.52527809  100.33799744    4.90999985    2.89000010
   16.52861023   98.20099640    4.90999985    2.91000009
   16.53166580  100.86699677    4.90999985    2.91000009
   16.53499985  100.08599854    4.90999985    2.91000009
   16.53555489  101.60500336    4.90999985    2.91000009
   16.53861046  102.72399902    4.90999985    2.91000009
   16.54194450  102.50900269    4.90999985    2.91000009
   16.54527664  102.26200104    4.90999985    2.91000009
   16.54833221  101.81500244    4.90999985    2.89000010
   16.55166626  104.54100037    4.90999985    2.91000009
   16.55472183  102.31999969    4.90999985    2.91000009
   16.55805397  104.31199646    4.90999985    2.91000009
   16.56416512  104.31199646    4.90999985    2.91000009
   16.56805611  106.06999969    4.90999985    2.89000010
   16.56861115  106.98400116    4.90999985    2.91000009
   16.57194519  102.20300293    4.90999985    2.89000010
   16.57527924  104.05799866    4.90999985    2.91000009
   16.57833481  102.59600067    4.90999985    2.89000010
   16.58166695   97.69349670    4.90999985    2.91000009
   16.58500099  102.91300201    4.90999985    2.91000009
   16.58805656  108.31500244    4.90999985    2.91000009
   16.59138870   99.55329895    4.90999985    2.91000009
   16.59444427   99.01100159    4.90999985    2.91000009
   16.59777832  105.87999725    4.90999985    2.91000009
   16.60111237  102.84700012    4.90999985    2.89000010
   16.60194397  108.72200012    4.90999985    2.91000009
   16.60694504  108.72200012    4.90999985    2.89000010
   16.61111069   94.28199768    4.90999985    2.89000010
   16.61416626  100.74299622    4.90999985    2.89000010
   16.61750031  101.29599762    4.90999985    2.89000010
   16.62083435  101.85700226    4.90999985    2.91000009
   16.62388992   94.48419952    4.90999985    2.89000010
   16.62722206  107.12500000    4.90999985    2.91000009
   16.63055611  109.33799744    4.90999985    2.91000009
   16.63361168  103.19499969    4.90999985    2.89000010
   16.63527679  108.85199738    4.90999985    2.91000009
   16.63722229  103.42099762    4.90999985    2.91000009
   16.64055634  106.42299652    4.90999985    2.89000010
   16.64361191  101.34600067    4.90999985    2.91000009
   16.64972115  101.34600067    4.90999985    2.91000009
   16.65388870  111.63899994    4.90999985    2.91000009
   16.65722275  108.18199921    4.90999985    2.91000009
   16.66027832  107.87500000    4.90999985    2.89000010
   16.66361046  109.78099823    4.90999985    2.89000010
   16.66666603  106.52200317    4.90999985    2.89000010
   16.66860962  109.83499908    4.90999985    2.86999989
   16.67027664  102.53500366    4.90999985    2.91000009
   16.67361069  116.03900146    4.90999985    2.89000010
   16.67666626  106.88899994    4.90999985    2.91000009
   16.68000031  116.18299866    4.90999985    2.89000010
   16.68333244  112.18299866    4.90999985    2.89000010
   16.68638802  105.54900360    4.90999985    2.89000010
   16.69249916  105.54900360    4.90999985    2.89000010
   16.69666672  101.46399689    4.90999985    2.91000009
   16.70000076  106.91100311    4.90999985    2.91000009
   16.70194435  105.45999908    4.90999985    2.89000010
   16.70361137   93.53050232    4.90999985    2.91000009
   16.70694542  101.26799774    4.90999985    2.89000010
   16.71000099  102.38899994    4.90999985    2.89000010
   16.71333504  100.19300079    4.90999985    2.91000009
   16.71666718  105.31900024    4.90999985    2.91000009
   16.71972275  104.23899841    4.90999985    2.91000009
   16.72305679  100.32900238    4.90999985    2.91000009
   16.72611237  111.25299835    4.90999985    2.91000009
   16.72944450  110.01999664    4.90999985    2.91000009
   16.73555565  110.01999664    4.90999985    2.89000010
   16.73944473  114.50900269    4.90999985    2.89000010
   16.74277878  101.39299774    4.90999985    2.91000009
   16.74611092  106.08699799    4.90999985    2.91000009
   16.74916649  101.05999756    4.90999985    2.89000010
   16.75250053  102.38500214    4.90999985    2.89000010
   16.75583267  109.72899628    4.90999985    2.91000009
   16.75888824  108.17099762    4.90999985    2.91000009
   16.76222229  105.78199768    4.90999985    2.89000010
   16.76527786  107.14299774    4.90999985    2.89000010
   16.76861000  103.38099670    4.90999985    2.89000010
   16.76916695  103.87000275    4.90999985    2.89000010
   16.77249908  104.87400055    4.90999985    2.89000010
   16.77833366  104.87400055    4.90999985    2.91000009
   16.78249931  105.47399902    4.90999985    2.91000009
   16.78555489  106.60600281    4.90999985    2.89000010
   16.78888893  105.25700378    4.90999985    2.89000010
   16.79222107  101.77400208    4.90999985    2.89000010
   16.79527664   94.84999847    4.90999985    2.86999989
   16.79861069  104.91000366    4.90999985    2.89000010
   16.80166626  106.00299835    4.90999985    2.89000010
   16.80249977  110.74500275    4.90999985    2.89000010
   16.80555534  100.44200134    4.90999985    2.91000009
   16.80861092  107.56800079    4.90999985    2.89000010
   16.81194305  101.88200378    4.90999985    2.89000010
   16.81499863  109.20800018    4.90999985    2.89000010
   16.82111168  109.20800018    4.90999985    2.89000010
   16.82527924   99.49970245    4.90999985    2.91000009
   16.82861137  111.10700226    4.90999985    2.91000009
   16.83166695  109.88999939    4.90999985    2.91000009
   16.83500099  106.44699860    4.90999985    2.89000010
   16.83583450  103.94100189    4.90999985    2.91000009
   16.83861160  110.97799683    4.90999985    2.89000010
   16.84166718  107.76699829    4.90999985    2.91000009
   16.84500122  116.80999756    4.90999985    2.89000010
   16.84833336  107.25199890    4.90999985    2.91000009
   16.85138893  116.04399872    4.90999985    2.89000010
   16.85472298  110.03299713    4.90999985    2.89000010
   16.85777855  108.59799957    4.90999985    2.91000009
   16.86388969  108.59799957    4.90999985    2.91000009
   16.86805534  109.61299896    4.90999985    2.89000010
   16.86916733  112.80799866    4.90999985    2.91000009
   16.87194443  108.65100098    4.90999985    2.89000010
   16.87500000  118.85600281    4.90999985    2.91000009
   16.87833405  112.45099640    4.90999985    2.89000010
   16.88166618  111.98400116    4.90999985    2.89000010
   16.88472176  112.41300201    4.90999985    2.89000010
   16.88805580  112.08999634    4.90999985    2.89000010
   16.89111137  114.68399811    4.90999985    2.89000010
   16.89444351  112.48999786    4.90999985    2.89000010
   16.89777756  115.43599701    4.90999985    2.91000009
   16.90083313  119.45500183    4.90999985    2.82999992
   16.90250015  110.57599640    4.90999985    2.75000000
   16.90694427  110.57599640    4.90999985    2.89000010
   16.91083336  106.18599701    4.90999985    2.89000010
   16.91416550  116.70999908    4.90999985    2.91000009
   16.91749954  106.54599762    4.90999985    2.89000010
   16.92055511  109.79499817    4.90999985    2.89000010
   16.92388916  108.03399658    4.90999985    2.89000010
   16.92722130  112.21600342    4.90999985    2.89000010
   16.93027687  108.62200165    4.90999985    2.89000010
   16.93361092  111.76899719    4.90999985    2.91000009
   16.93583298  102.52899933    4.90999985    2.91000009
   16.93722153  103.59100342    4.90999985    2.89000010
   16.94027710  108.49800110    4.90999985    2.89000010
   16.94361115  108.00599670    4.90999985    2.86999989
   16.94972038  108.00599670    4.90999985    2.89000010
   16.95388985  103.42400360    4.90999985    2.89000010
   16.95694542  104.34999847    4.90999985    2.89000010
   16.96027946  107.92700195    4.90999985    2.89000010
   16.96361160  117.11399841    4.90999985    2.89000010
   16.96666718  108.13600159    4.90999985    2.89000010
   16.96916771  114.96199799    4.90999985    2.89000010
   16.97055626  117.76499939    4.90999985    2.91000009
   16.97361183  112.35199738    4.90999985    2.89000010
   16.97694588  108.83599854    4.90999985    2.89000010
   16.98027802  112.23000336    4.90999985    2.89000010
   16.98333359  114.25399780    4.90999985    2.89000010
   16.98666763  100.51499939    4.90999985    2.89000010
   16.99250031  100.51499939    4.90999985    2.91000009
   16.99666786  115.28900146    4.90999985    2.89000010
   17.00000000  113.15499878    4.90999985    2.86999989
   17.00250053  100.91300201    4.90999985    2.89000010
   17.00361061  110.71399689    4.90999985    2.91000009
   17.00666618  106.51699829    4.90999985    2.91000009
   17.01000023  110.05699921    4.90999985    2.91000009
   17.01333427  112.90499878    4.90999985    2.89000010
   17.01638794  113.26599884    4.90999985    2.91000009
   17.01972198  114.83899689    4.90999985    2.91000009
   17.02277756  100.48699951    4.90999985    2.91000009
   17.02611160  116.18599701    4.90999985    2.89000010
   17.02944374  110.44100189    4.90999985    2.89000010
   17.03527641  110.44100189    4.90999985    2.91000009
   17.05388832  115.60500336    4.90999985    2.89000010
   17.05694389  114.50199890    4.90999985    2.89000010
   17.06027794  116.61399841    4.90999985    2.89000010
   17.06333351  111.14900208    4.90999985    2.89000010
   17.06666756  114.17800140    4.90999985    2.89000010
   17.07000160  107.85099792    4.90999985    2.91000009
   17.07305717  118.65399933    4.90999985    2.91000009
   17.07861137  118.65399933    4.90999985    2.91000009
   17.08250046  110.36900330    4.90999985    2.89000010
   17.08583450  108.87899780    4.90999985    2.91000009
   17.08694458  108.06999969    4.90999985    2.89000010
   17.08944511  110.43800354    4.90999985    2.91000009
   17.09277916  106.05100250    4.90999985    2.89000010
   17.09583473  107.50199890    4.90999985    2.89000010
   17.09916687  109.31800079    4.90999985    2.91000009
   17.10250092  103.41200256    4.90999985    2.89000010
   17.10555649  102.26599884    4.90999985    2.89000010
   17.10888863  114.11599731    4.90999985    2.89000010
   17.11222267  112.26499939    4.90999985    2.91000009
   17.11527824  110.55400085    4.90999985    2.89000010
   17.12138939  110.55400085    4.90999985    2.91000009
   17.12555504   81.30789948    4.90999985    2.89000010
   17.12861061  109.75800323    4.90999985    2.89000010
   17.13194466  108.32399750    4.90999985    2.91000009
   17.13500023  113.31900024    4.90999985    2.91000009
   17.13833237  104.53600311    4.90999985    2.89000010
   17.14166641  116.02200317    4.90999985    2.91000009
   17.14472198  112.16899872    4.90999985    2.89000010
   17.14805603  107.91400146    4.90999985    2.91000009
   17.15138817  111.57599640    4.90999985    2.91000009
   17.15361023  111.80899811    4.90999985    2.89000010
   17.15472221  111.89900208    4.90999985    2.89000010
   17.15805435  109.87599945    4.90999985    2.91000009
   17.16416550  109.87599945    4.90999985    2.89000010
   17.16833305  110.61299896    4.90999985    2.89000010
   17.17138863  108.10199738    4.90999985    2.91000009
   17.17472076  111.96600342    4.90999985    2.91000009
   17.17805481  106.12000275    4.90999985    2.91000009
   17.18111038  112.98999786    4.90999985    2.91000009
   17.18444443  109.25399780    4.90999985    2.91000009
   17.18694305  111.38099670    4.90999985    2.91000009
   17.18805504  105.12699890    4.90999985    2.89000010
   17.19138718  106.86000061    4.90999985    2.89000010
   17.19444275  102.25399780    4.90999985    2.89000010
   17.19777679  110.70300293    4.90999985    2.89000010
   17.20111275  103.50099945    4.90999985    2.89000010
   17.20694542  103.50099945    4.90999985    2.91000009
   17.21111107  107.87599945    4.90999985    2.89000010
   17.21444511  114.81500244    4.90999985    2.91000009
   17.21750069  106.15799713    4.90999985    2.89000010
   17.22027779  110.94699860    4.90999985    2.89000010
   17.22111130  109.11199951    4.90999985    2.89000010
   17.22444534  113.75700378    4.90999985    2.89000010
   17.22777748  114.73400116    4.90999985    2.89000010
   17.23083305  106.13800049    4.90999985    2.89000010
   17.23416710  110.75499725    4.90999985    2.89000010
   17.23722267  106.18399811    4.90999985    2.89000010
   17.24055672  111.99400330    4.90999985    2.89000010
   17.24388885  115.36900330    4.90999985    2.89000010
   17.25000000  115.36900330    4.90999985    2.91000009
   17.25388908  107.78299713    4.90999985    2.89000010
   17.25722313  107.79699707    4.90999985    2.89000010
   17.26055527  109.07399750    4.90999985    2.89000010
   17.26361084  112.92800140    4.90999985    2.89000010
   17.26694489  112.39499664    4.90999985    2.89000010
   17.27000046  109.67500305    4.90999985    2.89000010
   17.27333260  101.26200104    4.90999985    2.89000010
   17.27666664  109.52600098    4.90999985    2.89000010
   17.27972221  104.68900299    4.90999985    2.89000010
   17.28305435  112.24600220    4.90999985    2.89000010
   17.28638840  106.50099945    4.90999985    2.89000010
   17.28694344  108.94499969    4.90999985    2.89000010
   17.29277802  108.94499969    4.90999985    2.89000010
   17.29694366  106.89499664    4.90999985    2.89000010
   17.29999924  100.18800354    4.90999985    2.89000010
   17.30333328  108.59899902    4.90999985    2.89000010
   17.30666542  107.55000305    4.90999985    2.89000010
   17.30972099  101.88800049    4.90999985    2.89000010
   17.31305504  102.73200226    4.90999985    2.89000010
   17.31611061  108.18199921    4.90999985    2.89000010
   17.31944466  109.18599701    4.90999985    2.89000010
   17.32027817  107.60299683    4.90999985    2.91000009
   17.32305717  108.59100342    4.90999985    2.89000010
   17.32638931  103.54799652    4.90999985    2.91000009
   17.32972336  110.16500092    4.90999985    2.89000010
   17.33555603  110.16500092    4.90999985    2.91000009
   17.33972359  100.73899841    4.90999985    2.89000010
   17.34277916  104.74600220    4.90999985    2.86999989
   17.34611130  109.32399750    4.90999985    2.89000010
   17.34944534  104.76100159    4.90999985    2.89000010
   17.35250092  102.65799713    4.90999985    2.89000010
   17.35361099  114.45800018    4.90999985    2.89000010
   17.35611153  106.87000275    4.90999985    2.89000010
   17.35944557  104.67400360    4.90999985    2.89000010
   17.36277771  106.98200226    4.90999985    2.89000010
   17.36583328  103.21900177    4.90999985    2.91000009
   17.36916733  103.68399811    4.90999985    2.89000010
   17.37222290  104.76200104    4.90999985    2.89000010
   17.37833405  104.76200104    4.90999985    2.89000010
   17.38249969  100.94699860    4.90999985    2.89000010
   17.38583374  103.65799713    4.90999985    2.91000009
   17.38694382  106.52999878    4.90999985    2.89000010
   17.38916588  107.55999756    4.90999985    2.89000010
   17.39249992  109.90000153    4.90999985    2.89000010
   17.39583397  106.20700073    4.90999985    2.89000010
   17.39888954  105.89399719    4.90999985    2.89000010
   17.40222168  108.53399658    4.90999985    2.89000010
   17.40527725  108.78600311    4.90999985    2.89000010
   17.40861130  108.18099976    4.90999985    2.86999989
   17.41194344  107.17800140    4.90999985    2.89000010
   17.41499901  107.72100067    4.90999985    2.86999989
   17.42138863  107.72100067    4.90999985    2.89000010
   17.42527771  110.65799713    4.90999985    2.89000010
   17.42860985  111.31500244    4.90999985    2.89000010
   17.43194389  117.20400238    4.90999985    2.89000010
   17.43499947  107.60500336    4.90999985    2.89000010
   17.43833160  108.25800323    4.90999985    2.86999989
   17.44138718  112.35800171    4.90999985    2.89000010
   17.44472122  115.74099731    4.90999985    2.89000010
   17.44805527  111.99900055    4.90999985    2.91000009
   17.45111275  105.76699829    4.90999985    2.86999989
   17.45361137  107.16699982    4.90999985    2.91000009
   17.45472336  108.15200043    4.90999985    2.89000010
   17.45805550  108.24700165    4.90999985    2.91000009
   17.46416664  108.24700165    4.90999985    2.89000010
   17.46833420  102.75900269    4.90999985    2.89000010
   17.47138977  109.92600250    4.90999985    2.89000010
   17.47472191  109.18499756    4.90999985    2.89000010
   17.47805595  114.53500366    4.90999985    2.89000010
   17.48111153  111.49299622    4.90999985    2.89000010
   17.48444557  111.16200256    4.90999985    2.91000009
   17.48694420  113.08799744    4.90999985    2.89000010
   17.48805618  108.00399780    4.90999985    2.89000010
   17.49138832  120.48100281    4.90999985    2.89000010
   17.49472237  109.55300140    4.90999985    2.89000010
   17.49777794  117.83599854    4.90999985    2.91000009
   17.50111198  113.63600159    4.90999985    2.91000009
   17.50694466  113.63600159    4.90999985    2.89000010
   17.51111031  104.00199890    4.90999985    2.89000010
   17.51416588  114.94499969    4.90999985    2.91000009
   17.51749992  115.16300201    4.90999985    2.89000010
   17.52027702  115.01799774    4.90999985    2.91000009
   17.52111053  113.12999725    4.90999985    2.91000009
   17.52444458  113.98899841    4.90999985    2.89000010
   17.52777672  105.73999786    4.90999985    2.89000010
   17.53083229  110.58799744    4.90999985    2.89000010
   17.53416634  115.43900299    4.90999985    2.89000010
   17.53750038  109.97799683    4.90999985    2.89000010
   17.54055595  111.58999634    4.90999985    2.89000010
   17.54388809  114.67099762    4.90999985    2.89000010
   17.54972076  114.67099762    4.90999985    2.86999989
   17.55388832  105.61399841    4.90999985    2.89000010
   17.55722237  108.77600098    4.90999985    2.89000010
   17.56027794  114.62200165    4.90999985    2.91000009
   17.56361008   99.55159760    4.90999985    2.89000010
   17.56694603  112.00399780    4.90999985    2.89000010
   17.57000160  107.60199738    4.90999985    2.89000010
   17.57333374  108.74700165    4.90999985    2.89000010
   17.57666779  111.44000244    4.90999985    2.89000010
   17.57972336  114.19699860    4.90999985    2.89000010
   17.58305550  119.06999969    4.90999985    2.91000009
   17.58611107  103.36900330    4.90999985    2.89000010
   17.58694458  116.24600220    4.90999985    2.89000010
   17.59250069  116.24600220    4.90999985    2.86999989
   17.59666824  117.56600189    4.90999985    2.89000010
   17.60000038  114.18800354    4.90999985    2.89000010
   17.60333443  113.75399780    4.90999985    2.89000010
   17.60639000  108.52200317    4.90999985    2.89000010
   17.60972214  102.37599945    4.90999985    2.89000010
   17.61277771  105.65000153    4.90999985    2.89000010
   17.61611176  106.25599670    4.90999985    2.89000010
   17.61944389  119.29799652    4.90999985    2.89000010
   17.62027740  110.64700317    4.90999985    2.89000010
   17.62277794  109.66100311    4.90999985    2.89000010
   17.62611198  108.45700073    4.90999985    2.86999989
   17.62944412  105.50000000    4.90999985    2.89000010
   17.63555527  105.50000000    4.90999985    2.89000010
   17.63972282  107.12899780    4.90999985    2.86999989
   17.64277840  108.07499695    4.90999985    2.86999989
   17.64611053  110.40499878    4.90999985    2.89000010
   17.64916611  112.26899719    4.90999985    2.89000010
   17.65250015  110.36199951    4.90999985    2.89000010
   17.65361023  106.38099670    4.90999985    2.86999989
   17.65611076  116.57299805    4.90999985    2.86999989
   17.65944481  108.84600067    4.90999985    2.86999989
   17.66277695  118.86799622    4.90999985    2.86999989
   17.66583252  117.46299744    4.90999985    2.89000010
   17.66916656  107.91400146    4.90999985    2.86999989
   17.67249870  101.83899689    4.90999985    2.86999989
   17.67833328  101.83899689    4.90999985    2.89000010
   17.68249893  108.43099976    4.90999985    2.89000010
   17.68555450  105.06500244    4.90999985    2.86999989
   17.68694305  109.99099731    4.90999985    2.89000010
   17.68916512  110.23100281    4.90999985    2.89000010
   17.69249916  111.25499725    4.90999985    2.86999989
   17.69583321  107.62000275    4.90999985    2.86999989
   17.69888878  116.08499908    4.90999985    2.86999989
   17.70222282  110.87100220    4.90999985    2.89000010
   17.70555687  120.88500214    4.90999985    2.86999989
   17.70861244  113.13800049    4.90999985    2.86999989
   17.71194458  113.21900177    4.90999985    2.86999989
   17.71500015  117.68499756    4.90999985    2.86999989
   17.72111130  117.68499756    4.90999985    2.86999989
   17.72527885  107.38999939    4.90999985    2.89000010
   17.72861099  111.31900024    4.90999985    2.86999989
   17.73166656  110.56600189    4.90999985    2.86999989
   17.73500061  108.04499817    4.90999985    2.86999989
   17.73833275  110.87699890    4.90999985    2.86999989
   17.74138832  107.41500092    4.90999985    2.86999989
   17.74472237  108.61299896    4.90999985    2.86999989
   17.74777794  110.91600037    4.90999985    2.89000010
   17.75111198  105.52899933    4.90999985    2.86999989
   17.75361061  101.35900116    4.90999985    2.86999989
   17.75499916  113.51000214    4.90999985    2.89000010
   17.75805473  109.15100098    4.90999985    2.86999989
   17.76388931  109.15100098    4.90999985    2.86999989
   17.76805496   98.16960144    4.90999985    2.86999989
   17.77138901  104.59899902    4.90999985    2.86999989
   17.77472115  105.78500366    4.90999985    2.86999989
   17.77777672  112.04000092    4.90999985    2.89000010
   17.78111076  106.46099854    4.90999985    2.86999989
   17.78416634   77.50789642    4.90999985    2.86999989
   17.78694344   99.80950165    4.90999985    2.89000010
   17.78805542  110.46199799    4.90999985    2.89000010
   17.79111099  109.78099823    4.90999985    2.89000010
   17.79444313  110.06600189    4.90999985    2.89000010
   17.79749870  105.69799805    4.90999985    2.89000010
   17.80083275  108.24400330    4.90999985    2.86999989
   17.80694389  108.24400330    4.90999985    2.86999989
   17.81110954  113.88899994    4.90999985    2.86999989
   17.81416512   94.54419708    4.90999985    2.86999989
   17.81750107  102.46900177    4.90999985    2.86999989
   17.82027817  115.52100372    4.90999985    2.89000010
   17.82111168  106.26399994    4.90999985    2.86999989
   17.82416725  101.00499725    4.90999985    2.86999989
   17.82750130   90.24849701    4.90999985    2.86999989
   17.83055687   97.81929779    4.90999985    2.94000006
   17.83388901  106.17600250    0.07000000    0.75000000
   17.83722305  102.65899658    0.05000000    0.40000001
   17.84027863  106.66300201    0.03000000    0.11000000
   17.84361267  107.70400238    0.03000000    0.03000000
   17.84972191  107.70400238    0.03000000    0.03000000
   17.85388947  106.47499847    0.03000000    0.03000000
   17.85694504  111.24199677    0.03000000    0.03000000
   17.86027908  110.85199738    0.03000000    0.03000000
   17.86361122  113.50599670    0.03000000    0.03000000
   17.86666679  109.01499939    0.03000000    0.03000000
   17.87000084  117.61499786    0.03000000    0.03000000
   17.87333298  111.84799957    0.03000000    0.03000000
   17.87638855  106.19799805    0.03000000    0.03000000
   17.87972260  111.60900116    0.03000000    0.03000000
   17.88277817  103.25099945    0.03000000    0.03000000
   17.88611031  108.01899719    0.03000000    0.03000000
   17.88694382  109.55400085    0.03000000    0.03000000
   17.89249992  109.55400085    0.03000000    0.03000000
   17.89666748  104.60399628    0.03000000    0.03000000
   17.89999962  115.21499634    0.03000000    0.03000000
   17.90305519  108.02400208    0.03000000    0.03000000
   17.90638924  100.13600159    0.03000000    0.03000000
   17.90972137  102.40799713    0.03000000    0.03000000
   17.91277695  108.38700104    0.03000000    0.03000000
   17.91611099  110.31900024    0.03000000    0.03000000
   17.91944313  106.79299927    0.03000000    0.03000000
   17.92027664  105.28500366    0.03000000    0.03000000
   17.92305565   95.34940338    0.03000000    0.03000000
   17.92611122  103.50199890    0.03000000    0.03000000
   17.92944336   98.84960175    0.03000000    0.03000000
   17.93527603   98.84960175    0.03000000    0.03000000
   17.93944359  108.55400085    0.03000000    0.03000000
   17.94277763  111.17199707    0.03000000    0.03000000
   17.94610977  108.69899750    0.03000000    0.03000000
   17.94916534  109.87599945    0.03000000    0.03000000
   17.95250130  110.95099640    0.03000000    0.03000000
   17.95361137  101.99199677    0.03000000    0.03000000
   17.95611191  108.16200256    0.03000000    0.03000000
   17.95916748   96.82720184    0.03000000    0.03000000
   17.96250153   94.10630035    0.03000000    0.03000000
   17.96555710  107.64199829    0.03000000    0.03000000
   17.96888924   71.80599976    0.03000000    0.03000000
   17.97222328   77.58149719    0.03000000    0.03000000
   17.97833443   77.58149719    0.03000000    0.03000000
   17.98250008   82.56459808    0.03000000    0.03000000
   17.98555565  113.09700012    0.03000000    0.03000000
   17.98694420  101.09899902    0.03000000    0.03000000
   17.98944473  106.96299744    0.03000000    0.03000000
   17.99250031  106.40100098    0.03000000    0.03000000
   17.99583435  110.25000000    0.03000000    0.03000000
   17.99888992  113.12100220    0.03000000    0.03000000
   18.00222206  102.52999878    0.03000000    0.03000000
   18.00555611  105.39900208    0.03000000    0.03000000
   18.00861168   97.89109802    0.03000000    0.03000000
   18.01194382  104.19999695    0.03000000    0.03000000
   18.01527786  101.69699860    0.03000000    0.03000000
   18.02111053  101.69699860    0.03000000    0.03000000
   18.02527809  101.46099854    0.03000000    0.03000000
   18.02833366  110.01999664    0.03000000    0.03000000
   18.03166580  109.63200378    0.03000000    0.03000000
   18.03499985   99.55460358    0.03000000    0.03000000
   18.03805542  108.88899994    0.03000000    0.03000000
   18.04138756  114.26799774    0.03000000    0.03000000
   18.04472160  109.22699738    0.03000000    0.03000000
   18.04777718  111.40200043    0.03000000    0.03000000
   18.05111122  107.15200043    0.03000000    0.03000000
   18.05360985  105.36399841    0.03000000    0.03000000
   18.07416725  105.36399841    0.03000000    0.03000000
   18.07833481   95.96579742    0.03000000    0.03000000
   18.08166695  106.16100311    0.03000000    0.03000000
   18.08472252  104.50299835    0.03000000    0.03000000
   18.08694458  102.39299774    0.03000000    0.03000000
   18.08861160  105.75599670    0.03000000    0.03000000
   18.09194565  105.46099854    0.03000000    0.03000000
   18.09500122  110.16799927    0.03000000    0.03000000
   18.09833336  113.66400146    0.03000000    0.03000000
   18.10138893  106.10099792    0.03000000    0.03000000
   18.10472298  109.16400146    0.03000000    0.03000000
   18.10805511  105.77700043    0.03000000    0.03000000
   18.11111069  110.67800140    0.03000000    0.03000000
   18.11694527  110.67800140    0.03000000    0.03000000
   18.12111092  111.29100037    0.03000000    0.03000000
   18.12444496  111.32900238    0.03000000    0.03000000
   18.12750053  102.86599731    0.03000000    0.03000000
   18.13083267  106.45600128    0.03000000    0.03000000
   18.13416672  101.41899872    0.03000000    0.03000000
   18.13722229   73.16880035    0.03000000    0.03000000
   18.14055634  101.84300232    0.03000000    0.03000000
   18.14361191  102.85800171    0.03000000    0.03000000
   18.14694405  103.51000214    0.03000000    0.03000000
   18.15027809  103.57299805    0.03000000    0.03000000
   18.15333366  102.30000305    0.03000000    0.03000000
   18.15388870  101.19300079    0.03000000    0.03000000
   18.15972137  101.19300079    0.03000000    0.03000000
   18.16388893  109.48100281    0.03000000    0.03000000
   18.16722107  113.29000092    0.03000000    0.03000000
   18.17055511  105.42199707    0.03000000    0.03000000
   18.17361069  110.75800323    0.03000000    0.03000000
   18.17694473  105.96600342    0.03000000    0.03000000
   18.18000031  107.43199921    0.03000000    0.03000000
   18.18333244  112.18900299    0.03000000    0.03000000
   18.18666649  105.68699646    0.03000000    0.03000000
   18.18722153  114.31800079    0.03000000    0.03000000
   18.19027710  110.50599670    0.03000000    0.03000000
   18.19361115  101.23799896    0.03000000    0.03000000
   18.19666672  115.48999786    0.03000000    0.03000000
   18.20277786  115.48999786    0.03000000    0.03000000
   18.20694542  104.91300201    0.03000000    0.03000000
   18.21000099  111.50299835    0.03000000    0.03000000
   18.21333504  105.60900116    0.03000000    0.03000000
   18.21638870  108.08699799    0.03000000    0.03000000
   18.21972275  104.98600006    0.03000000    0.03000000
   18.22055626  103.57099915    0.03000000    0.03000000
   18.22333336   94.00879669    0.03000000    0.03000000
   18.22666740  108.12999725    0.03000000    0.03000000
   18.22972298  108.79000092    0.03000000    0.03000000
   18.23305511   99.84230042    0.03000000    0.03000000
   18.23611069  110.57299805    0.03000000    0.03000000
   18.23944473  102.72799683    0.03000000    0.03000000
   18.24555588  102.72799683    0.03000000    0.03000000
   18.24972153  104.88099670    0.03000000    0.03000000
   18.25277710  107.13300323    0.03000000    0.03000000
   18.25388908  104.01899719    0.03000000    0.03000000
   18.25666618  106.97899628    0.03000000    0.03000000
   18.26000023  105.53299713    0.03000000    0.03000000
   18.26305580  108.08399963    0.03000000    0.03000000
   18.26638794  107.66300201    0.03000000    0.03000000
   18.26944351  106.76499939    0.03000000    0.03000000
   18.27277756  106.05899811    0.03000000    0.03000000
   18.27611160  109.71299744    0.03000000    0.03000000
   18.27916718  112.32900238    0.03000000    0.03000000
   18.28249931  111.68299866    0.03000000    0.03000000
   18.28833199  111.68299866    0.03000000    0.03000000
   18.29249954   95.96170044    0.03000000    0.03000000
   18.29583359   95.40650177    0.03000000    0.03000000
   18.29888916  115.48300171    0.03000000    0.03000000
   18.30222130  102.23999786    0.03000000    0.03000000
   18.30555534  104.01499939    0.03000000    0.03000000
   18.30861092  108.94699860    0.03000000    0.03000000
   18.31194305  104.91000366    0.03000000    0.03000000
   18.31499863  105.21800232    0.03000000    0.03000000
   18.31833458  106.29399872    0.03000000    0.03000000
   18.32055664  111.65599823    0.03000000    0.03000000
   18.32194519  101.41999817    0.03000000    0.03000000
   18.32527924  110.27700043    0.03000000    0.03000000
   18.33111191  110.27700043    0.03000000    0.03000000
   18.33527756  106.33000183    0.03000000    0.03000000
   18.33861160  103.75499725    0.03000000    0.03000000
   18.34194565  116.09799957    0.03000000    0.03000000
   18.34500122  108.85199738    0.03000000    0.03000000
   18.34833336  117.27700043    0.03000000    0.03000000
   18.35138893  107.41000366    0.03000000    0.03000000
   18.35388947  111.72399902    0.03000000    0.03000000
   18.35527802  110.70099640    0.03000000    0.03000000
   18.35861206  115.51999664    0.03000000    0.03000000
   18.36166763  106.44000244    0.03000000    0.03000000
   18.36499977  109.19899750    0.03000000    0.03000000
   18.36805534  106.29699707    0.03000000    0.03000000
   18.37416649  106.29699707    0.03000000    0.03000000
   18.37833405   95.76560211    0.03000000    0.03000000
   18.38138962  103.92400360    0.03000000    0.03000000
   18.38472176  109.44300079    0.03000000    0.03000000
   18.38722229  104.33899689    0.03000000    0.03000000
   18.38833237  103.34600067    0.03000000    0.03000000
   18.39166641  105.16400146    0.03000000    0.03000000
   18.39472198  103.80799866    0.03000000    0.03000000
   18.39805603   72.41369629    0.03000000    0.03000000
   18.40111160  105.72100067    0.03000000    0.03000000
   18.40444374  108.80999756    0.03000000    0.03000000
   18.40777779   98.54090118    0.03000000    0.03000000
   18.41083336  105.28500366    0.03000000    0.03000000
   18.41694450  105.28500366    0.03000000    0.03000000
   18.42111015  109.85700226    0.03000000    0.03000000
   18.42416573  106.40299988    0.03000000    0.03000000
   18.42749977   97.22209930    0.03000000    0.03000000
   18.43083191   96.38439941    0.03000000    0.03000000
   18.43388748   96.46610260    0.03000000    0.03000000
   18.43722153  107.31900024    0.03000000    0.03000000
   18.44027710  102.75599670    0.03000000    0.03000000
   18.44361115  104.69100189    0.03000000    0.03000000
   18.44694328  103.16100311    0.03000000    0.03000000
   18.45000076  105.12999725    0.03000000    0.03000000
   18.45333481  101.66899872    0.03000000    0.03000000
   18.45388985  106.55799866    0.03000000    0.03000000
   18.45972252  106.55799866    0.03000000    0.03000000
   18.46389008  101.27899933    0.03000000    0.03000000
   18.46722221  107.06600189    0.03000000    0.03000000
   18.47027779  111.81800079    0.03000000    0.03000000
   18.47361183  108.25900269    0.03000000    0.03000000
   18.47666740  115.72699738    0.03000000    0.03000000
   18.48000145  108.36000061    0.03000000    0.03000000
   18.48333359  112.83599854    0.03000000    0.03000000
   18.48638916  103.48400116    0.03000000    0.03000000
   18.48722267  104.82499695    0.03000000    0.03000000
   18.48999977  108.43399811    0.03000000    0.03000000
   18.49333382  106.68499756    0.03000000    0.03000000
   18.49638939   98.32180023    0.03000000    0.03000000
   18.50250053   98.32180023    0.03000000    0.03000000
   18.50666618  109.29399872    0.03000000    0.03000000
   18.51000023  102.26399994    0.03000000    0.03000000
   18.51305580  107.10900116    0.03000000    0.03000000
   18.51638794  104.56500244    0.03000000    0.03000000
   18.51972198  108.28900146    0.03000000    0.03000000
   18.52055550  109.54799652    0.03000000    0.03000000
   18.52333260   96.07879639    0.03000000    0.03000000
   18.52666664  101.06600189    0.03000000    0.03000000
   18.52972221  107.99900055    0.03000000    0.03000000
   18.53305435   97.45500183    0.03000000    0.03000000
   18.53638840  106.61799622    0.03000000    0.03000000
   18.53944397   98.13680267    0.03000000    0.03000000
   18.54555511   98.13680267    0.03000000    0.03000000
   18.54944420   94.75450134    0.03000000    0.03000000
   18.55277634  101.87599945    0.03000000    0.03000000
   18.55388832  106.69999695    0.03000000    0.03000000
   18.55638885  102.90000153    0.03000000    0.03000000
   18.55972099   99.83670044    0.03000000    0.03000000
   18.56277657  106.83599854    0.03000000    0.03000000
   18.56611061  108.63300323    0.03000000    0.03000000
   18.56944466  109.30500031    0.03000000    0.03000000
   18.57250023  113.92700195    0.03000000    0.03000000
   18.57583427  108.53199768    0.03000000    0.03000000
   18.57888985  109.59200287    0.03000000    0.03000000
   18.58222389  111.02999878    0.03000000    0.03000000
   18.58833313  111.02999878    0.03000000    0.03000000
   18.59250069  109.44100189    0.03000000    0.03000000
   18.59555626  107.43800354    0.03000000    0.03000000
   18.59889030  104.62899780    0.03000000    0.03000000
   18.60222244   88.21990204    0.03000000    0.03000000
   18.60527802  107.62699890    0.03000000    0.03000000
   18.60861206  108.90200043    0.03000000    0.03000000
   18.61166763  113.58899689    0.03000000    0.03000000
   18.61499977  106.37500000    0.03000000    0.03000000
   18.61833382  103.75199890    0.03000000    0.03000000
   18.62055588  109.57199860    0.03000000    0.03000000
   18.62194443  111.80799866    0.03000000    0.03000000
   18.62527847  104.16699982    0.03000000    0.03000000
   18.63111115  104.16699982    0.03000000    0.03000000
   18.63527679  100.99900055    0.03000000    0.03000000
   18.63861084  106.06500244    0.03000000    0.03000000
   18.64166641   97.39409637    0.03000000    0.03000000
   18.64500046  105.48600006    0.03000000    0.03000000
   18.64805603  102.89900208    0.03000000    0.03000000
   18.65138817  106.57700348    0.03000000    0.03000000
   18.65388870  113.69799805    0.03000000    0.03000000
   18.65499878  108.14800262    0.03000000    0.03000000
   18.65833282  103.03299713    0.03000000    0.03000000
   18.66138840  104.75199890    0.03000000    0.03000000
   18.66472244  122.39399719    0.03000000    0.03000000
   18.66805458  115.40299988    0.03000000    0.03000000
   18.67388916  115.40299988    0.03000000    0.03000000
   18.67805481  105.60500336    0.03000000    0.03000000
   18.68138885  107.26000214    0.03000000    0.03000000
   18.68444443   -1.00000000    0.03000000    0.03000000
   18.68805504   -1.00000000    0.03000000    0.03000000
   18.69111061   -1.00000000    0.03000000    0.03000000
   18.69444275   -1.00000000    0.03000000    0.03000000
   18.69777679   -1.00000000    0.03000000    0.03000000
   18.70083427  110.01899719    0.03000000    0.03000000
   18.70416832   89.35540009    0.03000000    0.03000000
   18.70722389  152.00599670    0.03000000    0.03000000
   18.71083450   80.93930054    0.03000000    0.03000000
   18.78305435  105.30400085    0.03000000    0.03000000
   18.78610992  105.90499878    0.03000000    0.03000000
   18.78944397  105.37200165    0.03000000    0.03000000
   18.79277802  107.37300110    0.03000000    0.03000000
   18.79583359  112.94400024    0.03000000    0.03000000
   18.79916573  106.22000122    0.03000000    0.03000000
   18.80333328  106.22000122    0.03000000    0.03000000
   18.80805397  101.42199707    0.03000000    0.03000000
   18.81110954  112.61499786    0.03000000    0.03000000
   18.81444359  106.07800293    0.03000000    0.03000000
   18.81638718  102.21499634    0.03000000    0.03000000
   18.81805611   98.90019989    0.03000000    0.03000000
   18.82139015  104.46800232    0.03000000    0.03000000
   18.82472229  101.82399750    0.03000000    0.03000000
   18.82805634   93.44529724    0.03000000    0.03000000
   18.83139038  105.59400177    0.03000000    0.03000000
   18.83472252  118.05200195    0.03000000    0.03000000
   18.83777809  103.46099854    0.03000000    0.03000000
   18.84111214  105.20999908    0.03000000    0.03000000
   18.84611130  105.20999908    0.03000000    0.03000000
   18.85027885  109.18099976    0.03000000    0.03000000
   18.85361099  106.46800232    0.03000000    0.03000000
   18.85666656  106.67099762    0.03000000    0.03000000
   18.86000061   95.67710114    0.03000000    0.03000000
   18.86333466  103.43299866    0.03000000    0.03000000
   18.86638832  104.21600342    0.03000000    0.03000000
   18.86972237   95.59829712    0.03000000    0.03000000
   18.87277794  100.31500244    0.03000000    0.03000000
   18.87611198   84.51760101    0.03000000    0.03000000
   18.87944412   82.60359955    0.03000000    0.03000000
   18.88249969  104.40000153    0.03000000    0.03000000
   18.88305473   99.41059875    0.03000000    0.03000000
   18.88888931   99.41059875    0.03000000    0.03000000
   18.89305496  104.96099854    0.03000000    0.03000000
   18.89638901  110.56900024    0.03000000    0.03000000
   18.89944458  114.61499786    0.03000000    0.03000000
   18.90277672  105.48999786    0.03000000    0.03000000
   18.90611076  110.20099640    0.03000000    0.03000000
   18.90916634  106.48799896    0.03000000    0.03000000
   18.91250038  109.13700104    0.03000000    0.03000000
   18.91583252  103.84400177    0.03000000    0.03000000
   18.91638756   99.76989746    0.03000000    0.03000000
   18.91944313  107.72899628    0.03000000    0.03000000
   18.92277718  119.65899658    0.03000000    0.03000000
   18.92583275  108.36599731    0.03000000    0.03000000
   18.93194389  108.36599731    0.03000000    0.03000000
   18.93583298  111.36900330    0.03000000    0.03000000
   18.93916512  109.75199890    0.03000000    0.03000000
   18.94249916  111.67700195    0.03000000    0.03000000
   18.94555473  110.09999847    0.03000000    0.03000000
   18.94888878  110.64700317    0.03000000    0.03000000
   18.94972038  111.22399902    0.03000000    0.03000000
   18.95250130  105.39199829    0.03000000    0.03000000
   18.95583344  111.01399994    0.03000000    0.03000000
   18.95888901  110.98999786    0.03000000    0.03000000
   18.96222305   97.55780029    0.03000000    0.03000000
   18.96527863  100.75099945    0.03000000    0.03000000
   18.96861076  106.46900177    0.03000000    0.03000000
   18.97472191  106.46900177    0.03000000    0.03000000
   18.97916794  106.45700073    0.03000000    0.03000000
   18.98250008  109.57199860    0.03000000    0.03000000
   18.98305511  103.61299896    0.03000000    0.03000000
   18.98611069  112.50599670    0.03000000    0.03000000
   18.98944473  110.66300201    0.03000000    0.03000000
   18.99250031  111.52799988    0.03000000    0.03000000
   18.99583435  107.89499664    0.03000000    0.03000000
   18.99888992  104.23100281    0.03000000    0.03000000
   19.00222206  112.77400208    0.03000000    0.03000000
   19.00555611  110.50700378    0.03000000    0.03000000
   19.00861168   97.90550232    0.03000000    0.03000000
   19.01194382  112.42199707    0.03000000    0.03000000
   19.01749992  112.42199707    0.03000000    0.03000000
   19.02166557   81.00859833    0.03000000    0.03000000
   19.02499962  101.05000305    0.03000000    0.03000000
   19.02805519  101.63200378    0.03000000    0.03000000
   19.03138924  110.65799713    0.03000000    0.03000000
   19.03444481  118.93499756    0.03000000    0.03000000
   19.03777695  127.72799683    0.03000000    0.03000000
   19.04111099  129.96400452    0.03000000    0.03000000
   19.04416656  118.06900024    0.03000000    0.03000000
   19.04749870  119.02999878    0.03000000    0.03000000
   19.04972076  125.13099670    0.03000000    0.03000000
   19.05111122  137.30599976    0.03000000    0.03000000
   19.05444336  130.78700256    0.03000000    0.03000000
   19.06027794  130.78700256    0.03000000    0.03000000
   19.06444359  148.47399902    0.03000000    0.03000000
   19.06777954   91.70690155    0.03000000    0.03000000
   19.07083511  138.69400024    0.03000000    0.03000000
   19.07416725  171.59300232    0.03000000    0.03000000
   19.07750130  176.72500610    0.03000000    0.03000000
   19.08083344  228.21499634    0.03000000    0.03000000
   19.08305550  208.86399841    0.03000000    0.03000000
   19.08444595  212.98599243    0.03000000    0.03000000
   19.08777809  263.03799438    0.03000000    0.03000000
   19.09083366  316.85101318    0.03000000    0.03000000
   19.09305573  326.09698486    0.03000000    0.03000000
   19.09416771  388.42300415    0.03000000    0.03000000
   19.09555626  371.23199463    0.03000000    0.03000000
   19.09694481  458.87500000    0.03000000    0.03000000
   19.09833336  385.18798828    0.03000000    0.03000000
   19.09972191  253.13999939    0.03000000    0.03000000
   19.10111237  133.65299988    0.03000000    0.03000000
   19.10138893   91.70690155    0.03000000    0.03000000
   19.10138893  138.69400024    0.03000000    0.03000000
   19.10138893  171.59300232    0.03000000    0.03000000
   19.10166740  176.72500610    0.03000000    0.03000000
   19.10166740  228.21499634    0.03000000    0.03000000
   19.10166740  212.98599243    0.03000000    0.03000000
   19.10194397  263.03799438    0.03000000    0.03000000
   19.10194397  316.85101318    0.03000000    0.03000000
   19.10194397  148.47399902    0.03000000    0.03000000
   19.10250092   80.12870026    0.03000000    0.03000000
   19.10583305   69.10320282    0.03000000    0.03000000
   19.10916710   41.39149857    0.03000000    0.03000000
   19.11222267   -1.00000000    0.03000000    0.03000000
   19.11555672   -1.00000000    0.03000000    0.03000000
   19.12194443   -1.00000000    0.03000000    0.03000000
   19.12611198   -1.00000000    0.03000000    0.03000000
   19.12944412   -1.00000000    0.03000000    0.03000000
   19.13249969   -1.00000000    0.03000000    0.03000000
   19.13611031   -1.00000000    0.03000000    0.03000000
   19.13944435   -1.00000000    0.03000000    0.03000000
   19.14277840   -1.00000000    0.03000000    0.03000000
   19.14583397   -1.00000000    0.03000000    0.03000000
   19.14916611   -1.00000000    0.03000000    0.03000000
   19.15250015   -1.00000000    0.03000000    0.03000000
   19.15555573   -1.00000000    0.03000000    0.03000000
   19.15888786   -1.00000000    0.03000000    0.03000000
   19.16888809   -1.00000000    0.03000000    0.03000000
   19.17222214   -1.00000000    0.03000000    0.03000000
   19.17527771   -1.00000000    0.03000000    0.03000000
   19.17860985   -1.00000000    0.03000000    0.03000000
   19.18166542   -1.00000000    0.03000000    0.03000000
   19.18499947   -1.00000000    0.03000000    0.03000000
   19.18833160   -1.00000000    0.03000000    0.03000000
   19.19138718   -1.00000000    0.03000000    0.03000000
   19.19472122   -1.00000000    0.03000000    0.03000000
   19.19805527   -1.00000000    0.03000000    0.03000000
   19.20111275   -1.00000000    0.03000000    0.03000000
   19.23805618   -1.00000000   -1.00000000   -1.00000000
   19.25805473   -1.00000000   -1.00000000   -1.00000000
