    HOUR (UT)   FLARE FACTOR    SKY TESTER    SUN TESTER
   11.63111115   -1.00000000   -1.00000000   -1.00000000
   11.66666698   94.13030243    1.33000004    1.89999998
   11.67000008   92.69999695    1.33000004    1.91999996
   11.67305565   99.91139984    1.30999994    1.91999996
   11.67638874   96.68659973    1.30999994    1.91999996
   11.67972279   97.23000336    1.30999994    1.91999996
   11.68277836   88.76180267    1.30999994    1.91999996
   11.68694496   88.76180267    1.30999994    1.94000006
   11.69111156   91.43160248    1.28999996    1.94000006
   11.69444466  100.25000000    1.28999996    1.94000006
   11.69750023   95.62190247    1.28999996    1.94000006
   11.69999981   92.39689636    1.26999998    1.94000006
   11.70111084   96.51979828    1.28999996    1.94000006
   11.70444393   93.16629791    1.26999998    1.94000006
   11.70777798   90.30699921    1.26999998    1.96000004
   11.71083355   88.45939636    1.26999998    1.94000006
   11.71416664   90.41429901    1.26999998    1.96000004
   11.71749973   87.65550232    1.25000000    1.96000004
   11.72083282   89.22380066    1.25000000    1.96000004
   11.72416592   89.44090271    1.25000000    1.98000002
   11.72972202   89.44090271    1.23000002    1.96000004
   11.73388958   90.76689911    1.23000002    1.96000004
   11.73722267   89.37480164    1.23000002    1.96000004
   11.74055576   93.06739807    1.23000002    1.96000004
   11.74361134   94.00620270    1.21000004    1.98000002
   11.74694443   99.62190247    1.21000004    1.98000002
   11.75027752   94.10310364    1.21000004    1.98000002
   11.75333309   91.40329742    1.21000004    2.00000000
   11.75666714   91.76020050    1.21000004    2.00000000
   11.75972176   90.00689697    1.19000006    2.00000000
   11.76305580   90.25540161    1.19000006    2.01999998
   11.76638889   87.63349915    1.19000006    2.00000000
   11.76694393   91.29650116    1.19000006    2.01999998
   11.77277756   91.29650116    1.16999996    2.00000000
   11.77694416   88.57250214    1.16999996    2.01999998
   11.77999973   86.59570313    1.16999996    2.01999998
   11.78333378   89.91609955    1.16999996    2.01999998
   11.78638935   92.04940033    1.16999996    2.01999998
   11.78972244   92.48030090    1.16999996    2.03999996
   11.79305553   88.56960297    1.14999998    2.03999996
   11.79611111   91.27690125    1.14999998    2.03999996
   11.79944515   86.58380127    1.14999998    2.05999994
   11.80027771   85.48290253    1.14999998    2.05999994
   11.80305576   85.91210175    1.14999998    2.05999994
   11.80638885   86.20449829    1.14999998    2.05999994
   11.80972195   88.19049835    1.14999998    2.05999994
   11.81555557   88.19049835    1.14999998    2.05999994
   11.81972218   90.02220154    1.13000000    2.05999994
   11.82277775   93.89810181    1.13000000    2.05999994
   11.82611084   87.76419830    1.14999998    2.07999992
   11.82944393   88.40029907    1.14999998    2.05999994
   11.83277798   86.37190247    1.13000000    2.07999992
   11.83361053   87.00830078    1.13000000    2.07999992
   11.83611107   87.99849701    1.11000001    2.07999992
   11.83944416   85.83679962    1.11000001    2.07999992
   11.84277725   84.65160370    1.11000001    2.07999992
   11.84583282   86.80039978    1.11000001    2.07999992
   11.84916592   85.95860291    1.11000001    2.07999992
   11.85222244   80.89119720    1.11000001    2.07999992
   11.85833359   80.89119720    1.09000003    2.09999990
   11.86250019   87.47450256    1.09000003    2.09999990
   11.86583328   86.52570343    1.09000003    2.09999990
   11.86694431   86.89600372    1.09000003    2.09999990
   11.86916637   84.53479767    1.07000005    2.09999990
   11.87250042   87.73179626    1.07000005    2.11999989
   11.87583351   85.19809723    1.07000005    2.11999989
   11.87888908   85.13749695    1.07000005    2.11999989
   11.88222218   85.60720062    1.05999994    2.11999989
   11.88555527   85.10759735    1.07000005    2.11999989
   11.88861084   89.92479706    1.05999994    2.11999989
   11.89194393   85.13140106    1.05999994    2.11999989
   11.89499950   83.83750153    1.05999994    2.13000011
   11.90111065   83.83750153    1.03999996    2.13000011
   11.90527725   89.36239624    1.05999994    2.13000011
   11.90861034   85.95050049    1.03999996    2.13000011
   11.91194439   89.38220215    1.03999996    2.13000011
   11.91499996   86.48490143    1.03999996    2.13000011
   11.91833401   84.14199829    1.03999996    2.13000011
   11.92166710   84.38929749    1.03999996    2.15000010
   11.92472267   89.29329681    1.03999996    2.15000010
   11.92805576   85.00910187    1.01999998    2.15000010
   11.93138885   82.43060303    1.03999996    2.15000010
   11.93361092   82.62329865    1.01999998    2.15000010
   11.93472195   84.16660309    1.01999998    2.15000010
   11.93805599   86.41889954    1.01999998    2.15000010
   11.94416714   86.41889954    1.01999998    2.15000010
   11.94833374   82.61119843    1.01999998    2.15000010
   11.95138836   81.37999725    1.00000000    2.17000008
   11.95472240   82.35569763    1.01999998    2.17000008
   11.95777798   82.64849854    1.00000000    2.17000008
   11.96111107   84.37699890    1.00000000    2.17000008
   11.96444416   81.42769623    1.00000000    2.17000008
   11.96694374   90.01139832    0.98000002    2.17000008
   11.96777725   85.71859741    0.98000002    2.17000008
   11.97111034   88.64810181    0.98000002    2.17000008
   11.97444439   84.65290070    0.98000002    2.17000008
   11.97749996   86.09239960    0.98000002    2.19000006
   11.98083305   92.65229797    0.98000002    2.19000006
   11.98694515   92.65229797    0.95999998    2.19000006
   11.99111176   85.11710358    0.95999998    2.19000006
   11.99416733   84.32009888    0.94000000    2.19000006
   11.99750042   85.37180328    0.94000000    2.21000004
   12.00027752   91.20279694    0.94000000    2.21000004
   12.00138855   87.20570374    0.94000000    2.21000004
   12.00444412   84.43569946    0.94000000    2.21000004
   12.00777817   85.60009766    0.94000000    2.19000006
   12.01083374   90.22250366    0.94000000    2.19000006
   12.01416683   88.87380219    0.94000000    2.19000006
   12.01749992   81.74410248    0.94000000    2.19000006
   12.02083302   87.47049713    0.94000000    2.19000006
   12.02416611   81.01029968    0.94000000    2.19000006
   12.02972221   81.01029968    0.94000000    2.19000006
   12.03388977   86.21549988    0.92000002    2.21000004
   12.03722286   84.97730255    0.92000002    2.21000004
   12.04027843   80.73650360    0.92000002    2.21000004
   12.04361153   81.24839783    0.92000002    2.21000004
   12.04694462   83.42510223    0.89999998    2.21000004
   12.05000019   82.21579742    0.89999998    2.21000004
   12.05333328   81.75599670    0.89999998    2.21000004
   12.05638885   84.09970093    0.89999998    2.21000004
   12.05972195   84.11509705    0.86000001    2.21000004
   12.06305599   83.30560303    0.86000001    2.21000004
   12.06611156   83.03289795    0.86000001    2.21000004
   12.06694412   88.85749817    0.86000001    2.21000004
   12.07277775   88.85749817    0.83999997    2.25000000
   12.07666683   84.29309845    0.83999997    2.25000000
   12.07999992   83.26200104    0.86000001    2.23000002
   12.08333302   80.35749817    0.86000001    2.25000000
   12.08638859   83.20709991    0.86000001    2.25000000
   12.08972168   84.05709839    0.86000001    2.25000000
   12.09305477   81.86090088    0.86000001    2.25000000
   12.09611034   79.09999847    0.86000001    2.25000000
   12.09944439   87.63999939    0.86000001    2.25000000
   12.10027790   83.97460175    0.86000001    2.25000000
   12.10305595   83.82479858    0.86000001    2.25000000
   12.10611153   95.04029846    0.83999997    2.26999998
   12.10944462   85.42739868    0.83999997    2.26999998
   12.11555576   85.42739868    0.83999997    2.26999998
   12.11972237   83.65039825    0.83999997    2.26999998
   12.12277794   84.04969788    0.83999997    2.28999996
   12.12611103   82.00099945    0.81999999    2.26999998
   12.12916660   83.52629852    0.81999999    2.28999996
   12.13249969   80.09580231    0.81999999    2.26999998
   12.13361073   81.38030243    0.81999999    2.26999998
   12.13638878   83.30139923    0.81999999    2.28999996
   12.13944435   82.41290283    0.81999999    2.28999996
   12.14277744   81.20729828    0.80000001    2.28999996
   12.14611053   83.15920258    0.80000001    2.28999996
   12.14916611   80.25420380    0.80000001    2.28999996
   12.15249920   85.31890106    0.81999999    2.28999996
   12.15833282   85.31890106    0.81999999    2.28999996
   12.16249943   82.84739685    0.80000001    2.28999996
   12.16583252   80.71679688    0.80000001    2.28999996
   12.16694450   80.45780182    0.80000001    2.28999996
   12.16944504   83.35710144    0.80000001    2.28999996
   12.17250061   80.93039703    0.75000000    2.30999994
   12.17583370   82.53309631    0.73000002    2.30999994
   12.17916679   80.22370148    0.73000002    2.30999994
   12.18222237   78.85279846    0.70999998    2.30999994
   12.18555546   81.50060272    0.70999998    2.30999994
   12.18888855   82.22360229    0.70999998    2.30999994
   12.19194412   77.28520203    0.70999998    2.32999992
   12.19527817   77.13410187    0.73000002    2.30999994
   12.20111084   77.13410187    0.73000002    2.32999992
   12.20527744   85.17199707    0.70999998    2.30999994
   12.20861053   80.19170380    0.70999998    2.30999994
   12.21166611   80.00740051    0.70999998    2.32999992
   12.21500015   79.02539825    0.69000000    2.32999992
   12.21833324   80.69570160    0.69000000    2.32999992
   12.22138882   81.48419952    0.69000000    2.32999992
   12.22472191   78.34049988    0.69000000    2.30999994
   12.22777748   81.11940002    0.69000000    2.30999994
   12.23111057   75.38610077    0.67000002    2.32999992
   12.23361111   83.04109955    0.67000002    2.32999992
   12.23500061   78.01429749    0.67000002    2.32999992
   12.23805618   81.71150208    0.67000002    2.32999992
   12.24388885   81.71150208    0.67000002    2.32999992
   12.24805546   78.61879730    0.69000000    2.32999992
   12.25138855   78.11810303    0.69000000    2.32999992
   12.25472260   79.10579681    0.69000000    2.32999992
   12.25777817   79.48930359    0.69000000    2.32999992
   12.26111126   81.61219788    0.69000000    2.34999990
   12.26444435   85.23600006    0.69000000    2.34999990
   12.26694393   87.07270050    0.69000000    2.34999990
   12.26805496   86.72360229    0.69000000    2.34999990
   12.27111053   81.27439880    0.69000000    2.34999990
   12.27444458   78.01740265    0.69000000    2.34999990
   12.27777767   78.19930267    0.69000000    2.34999990
   12.28083324   81.45899963    0.69000000    2.34999990
   12.28694534   81.45899963    0.69000000    2.34999990
   12.29083347   80.66159821    0.69000000    2.34999990
   12.29416752   81.53970337    0.69000000    2.36999989
   12.29750061   79.51100159    0.69000000    2.36999989
   12.30027771   78.49069977    0.69000000    2.36999989
   12.30111122   77.82939911    0.69000000    2.36999989
   12.30416679   82.65630341    0.69000000    2.36999989
   12.30749989   82.43499756    0.69000000    2.36999989
   12.31083393   80.50520325    0.69000000    2.36999989
   12.31388950   83.48880005    0.69000000    2.36999989
   12.31722260   78.70729828    0.69000000    2.36999989
   12.32055569   82.56770325    0.69000000    2.36999989
   12.32361126   78.19049835    0.69000000    2.36999989
   12.32972240   78.19049835    0.69000000    2.34999990
   12.33388901   80.51609802    0.69000000    2.34999990
   12.33694458   80.27429962    0.69000000    2.34999990
   12.34027767   77.33650208    0.69000000    2.34999990
   12.34361076   79.87889862    0.69000000    2.34999990
   12.34666634   77.34230042    0.69000000    2.34999990
   12.35000038   78.10050201    0.69000000    2.34999990
   12.35333347   78.97119904    0.70999998    2.36999989
   12.35638905   83.75520325    0.70999998    2.36999989
   12.35972214   79.65329742    0.70999998    2.36999989
   12.36305618   81.12989807    0.70999998    2.36999989
   12.36611176   80.86589813    0.70999998    2.36999989
   12.36694431   84.51670074    0.70999998    2.36999989
   12.37250042   84.51670074    0.70999998    2.36999989
   12.37666702   82.24490356    0.70999998    2.36999989
   12.38000011   81.27739716    0.70999998    2.36999989
   12.38305569   75.96320343    0.70999998    2.36999989
   12.38638878   82.19090271    0.69000000    2.39000010
   12.38972187   79.86060333    0.69000000    2.39000010
   12.39277744   78.42120361    0.69000000    2.39000010
   12.39611053   82.23000336    0.69000000    2.39000010
   12.39944458   80.62830353    0.69000000    2.39000010
   12.40027714   78.17299652    0.69000000    2.39000010
   12.40305519   79.01660156    0.69000000    2.39000010
   12.40611076   80.95800018    0.69000000    2.39000010
   12.40944386   83.93620300    0.63000000    2.39000010
   12.41527748   83.93620300    0.63000000    2.39000010
   12.41944504   80.80780029    0.63000000    2.39000010
   12.42277813   77.95510101    0.63000000    2.39000010
   12.42583370   77.70639801    0.63000000    2.39000010
   12.42916679   79.72940063    0.63000000    2.39000010
   12.43249989   77.32659912    0.63000000    2.39000010
   12.43361092   85.60410309    0.58999997    2.40000010
   12.43611145   76.06099701    0.58999997    2.40000010
   12.43916702   77.88200378    0.58999997    2.40000010
   12.44250011   79.63710022    0.58999997    2.40000010
   12.44583321   84.15229797    0.58999997    2.40000010
   12.44888878   80.70189667    0.56999999    2.40000010
   12.45222187   78.59200287    0.56999999    2.40000010
   12.45833302   78.59200287    0.56999999    2.40000010
   12.46249962   77.49349976    0.58999997    2.40000010
   12.46555519   78.41690063    0.58999997    2.40000010
   12.46694374   78.84470367    0.58999997    2.40000010
   12.46944427   80.71759796    0.58999997    2.40000010
   12.47249985   80.22370148    0.58999997    2.40000010
   12.47583294   80.30190277    0.58999997    2.40000010
   12.47916603   80.29820251    0.58999997    2.40000010
   12.48222160   81.41680145    0.58999997    2.40000010
   12.48555565   84.31620026    0.58999997    2.40000010
   12.48888874   79.70420074    0.58999997    2.40000010
   12.49194431   83.53160095    0.58999997    2.40000010
   12.49527836   79.73280334    0.58999997    2.40000010
   12.50111103   79.73280334    0.61000001    2.42000008
   12.50527763   82.76010132    0.61000001    2.42000008
   12.50833321   81.26999664    0.61000001    2.42000008
   12.51166630   85.11959839    0.61000001    2.42000008
   12.51500034   80.00479889    0.61000001    2.42000008
   12.51805496   75.25910187    0.61000001    2.42000008
   12.52138901   76.66449738    0.63000000    2.42000008
   12.52472210   80.10500336    0.63000000    2.42000008
   12.52777767   78.43740082    0.63000000    2.42000008
   12.53111076   78.31819916    0.63000000    2.42000008
   12.53361130   78.66040039    0.63000000    2.42000008
   12.53472233   78.91929626    0.63000000    2.42000008
   12.53777790   85.40640259    0.63000000    2.42000008
   12.54388905   85.40640259    0.61000001    2.44000006
   12.54805565   77.50309753    0.61000001    2.44000006
   12.55138874   77.48880005    0.61000001    2.44000006
   12.55472279   75.59040070    0.58999997    2.46000004
   12.55805588   78.23419952    0.58999997    2.46000004
   12.56138897   77.47190094    0.58999997    2.46000004
   12.56444454   76.51260376    0.58999997    2.46000004
   12.56694412   81.24759674    0.58999997    2.46000004
   12.56833363   80.98480225    0.56999999    2.46000004
   12.57138920   81.08460236    0.56999999    2.46000004
   12.57472229   79.79679871    0.56999999    2.46000004
   12.57805538   77.66030121    0.56999999    2.46000004
   12.58111095   78.21379852    0.55000001    2.46000004
   12.58666611   78.21379852    0.55000001    2.46000004
   12.59083271   78.50399780    0.55000001    2.46000004
   12.59416676   76.43160248    0.55000001    2.46000004
   12.59722233   77.54219818    0.56999999    2.48000002
   12.60027790   77.83879852    0.56999999    2.48000002
   12.60111141   76.83640289    0.56999999    2.48000002
   12.60416698   77.10189819    0.55000001    2.46000004
   12.60750008   77.47979736    0.55000001    2.48000002
   12.61083412   74.96739960    0.56999999    2.48000002
   12.61388969   74.87079620    0.56999999    2.48000002
   12.61722279   78.04820251    0.56999999    2.48000002
   12.62055588   77.82659912    0.56999999    2.48000002
   12.62361145   78.55359650    0.56999999    2.48000002
   12.62972260   78.55359650    0.56999999    2.48000002
   12.63361073   82.65679932    0.56999999    2.48000002
   12.63694477   80.92330170    0.56999999    2.48000002
   12.64027786   78.86720276    0.55000001    2.48000002
   12.64333344   80.07879639    0.55000001    2.48000002
   12.64666653   80.18370056    0.55000001    2.48000002
   12.64999962   78.66899872    0.58999997    2.48000002
   12.65305519   81.34760284    0.56999999    2.50000000
   12.65638828   77.46520233    0.56999999    2.48000002
   12.65944386   80.52439880    0.56999999    2.48000002
   12.66277695   80.78810120    0.56999999    2.48000002
   12.66611099   77.77050018    0.56999999    2.48000002
   12.66694450   81.32730103    0.56999999    2.48000002
   12.68777752   81.32730103    0.92000002    2.50000000
   12.69194412   76.27670288    0.92000002    2.50000000
   12.69499969   76.26889801    1.09000003    2.50000000
   12.69833374   79.57679749    1.09000003    2.50000000
   12.70027733   77.64469910    1.09000003    2.50000000
   12.70194435   76.05079651    1.09000003    2.50000000
   12.70527744   78.88659668    1.09000003    2.50000000
   12.70833302   77.77590179    1.09000003    2.50000000
   12.71166611   78.77619934    1.09000003    2.50000000
   12.71500015   77.38819885    1.09000003    2.50000000
   12.71805477   79.12950134    1.09000003    2.50000000
   12.72138882   76.64129639    1.16999996    2.50000000
   12.72472191   78.16439819    1.16999996    2.50000000
   12.73055553   78.16439819    1.16999996    2.50000000
   12.73444462   78.55339813    1.60000002    2.50000000
   12.73777771   81.35089874    1.60000002    2.50000000
   12.74111176   80.39140320    1.60000002    2.50000000
   12.74416733   77.85780334    1.60000002    2.50000000
   12.74750042   82.53330231    1.60000002    2.50000000
   12.75083351   80.26049805    0.88000000    2.51999998
   12.75388908   83.59999847    0.88000000    2.51999998
   12.75722218   82.11849976    0.88000000    2.51999998
   12.76027775   81.31580353    0.88000000    2.51999998
   12.76361084   86.41809845    0.88000000    2.51999998
   12.76694393   86.87590027    0.88000000    2.51999998
   12.76749992   81.32289886    0.88000000    2.51999998
   12.77333355   81.32289886    0.86000001    2.50000000
   12.77750015   80.95739746    0.92000002    2.50000000
   12.78055573   95.08709717    4.90999985    2.32999992
   12.78388977  117.46199799    4.90999985    2.30999994
   12.78722286  176.92500305    4.90999985    2.25000000
   12.79027843   -1.00000000    4.90999985    2.03999996
   12.79361153   -1.00000000    4.90999985    2.03999996
   12.79694462   -1.00000000    4.90999985    2.03999996
   12.80000019  125.11199951    4.90999985    1.80999994
   12.80083370   35.14009857    4.90999985    1.80999994
   12.80361176   -1.00000000    4.90999985    1.61000001
   12.80694485   91.27639771    4.90999985    1.39999998
   12.81027794   84.09200287    4.90999985    2.03999996
   12.81611156   84.09200287    4.90999985    2.36999989
   12.82027817   -1.00000000    4.90999985    2.32999992
   12.99472237   79.09539795    2.05999994    2.55999994
   12.99805546   77.48390198    2.05999994    2.55999994
   13.00138855   78.40959930    1.46000004    2.55999994
   13.00444412   78.00969696    0.70999998    2.57999992
   13.00777817   82.64109802    0.51999998    2.57999992
   13.01111126   77.61769867    0.55000001    2.59999990
   13.01527786   77.61769867    0.56999999    2.59999990
   13.01944447   76.02120209    0.70999998    2.57999992
   13.02250004   79.70069885    0.76999998    2.57999992
   13.02583313   79.35530090    0.86000001    2.57999992
   13.02805519   77.51779938    0.94000000    2.57999992
   13.02944374   78.43810272    0.98000002    2.59999990
   13.03277779   79.35179901    1.03999996    2.57999992
   13.03583336   81.77510071    1.21000004    2.57999992
   13.03916740   79.62999725    1.09000003    2.57999992
   13.04250050   78.82890320    1.00000000    2.57999992
   13.04555607   79.45390320    0.80000001    2.57999992
   13.04888916   79.07520294    0.80000001    2.57999992
   13.05222225   75.93350220    0.80000001    2.57999992
   13.05805588   75.93350220    0.75000000    2.57999992
   13.06222248   78.73220062    0.50000000    2.59999990
   13.06527805   78.04650116    0.50000000    2.59999990
   13.06861115   77.83229828    0.50000000    2.59999990
   13.07194424   77.26129913    0.47999999    2.59999990
   13.07499981   79.01159668    0.88000000    2.59999990
   13.07833290   82.27770233    2.19000006    2.61999989
   13.08166695   82.04789734    3.11999989    2.61999989
   13.08472157   80.32849884    3.32999992    2.61999989
   13.08805561   79.05619812    3.41000009    2.51999998
   13.09138870   79.22180176    3.23000002    2.53999996
   13.09444427   78.88829803    3.01999998    2.55999994
   13.09499931   81.51319885    3.01999998    2.55999994
   13.10083389   81.51319885    2.94000006    2.50000000
   13.10500050   80.93710327    2.80999994    2.50000000
   13.10833359   76.02480316    2.39000010    2.55999994
   13.11138916   76.80069733    1.26999998    2.59999990
   13.11472225   80.81980133    0.92000002    2.59999990
   13.11805534   81.16069794    0.63000000    2.59999990
   13.12111092   78.67659760    0.58999997    2.59999990
   13.12444496   78.89810181    0.67000002    2.61999989
   13.12750053   80.44419861    0.75000000    2.59999990
   13.12833309   80.41190338    0.76999998    2.59999990
   13.13138866   79.75289917    0.76999998    2.59999990
   13.13472176   78.15820313    0.76999998    2.59999990
   13.13777733   81.22059631    0.76999998    2.59999990
   13.14361095   81.22059631    0.76999998    2.59999990
   13.14777756   77.01580048    0.76999998    2.59999990
   13.15111065   76.72370148    0.76999998    2.59999990
   13.15444374   76.74720001    0.79000002    2.59999990
   13.15749931   76.57820129    0.79000002    2.59999990
   13.16083336   76.84649658    0.79000002    2.59999990
   13.16166592   78.14890289    0.79000002    2.59999990
   13.16444397   75.10500336    0.79000002    2.59999990
   13.16777802   77.69300079    0.79000002    2.59999990
   13.17083359   79.72769928    0.79000002    2.59999990
   13.17416668   81.14209747    0.46000001    2.61999989
   13.17750072   76.59850311    0.46000001    2.61999989
   13.18055630   80.00340271    0.46000001    2.61999989
   13.18666649   80.00340271    0.44000000    2.64000010
   13.19083309   79.68419647    0.44000000    2.61999989
   13.19388866   76.46949768    0.44000000    2.61999989
   13.19499969   77.74700165    0.44000000    2.61999989
   13.19750023   78.82230377    0.44000000    2.61999989
   13.20083332   81.17639923    0.44000000    2.61999989
   13.20388889   76.86070251    0.44000000    2.61999989
   13.20722198   81.62110138    0.44000000    2.61999989
   13.21055508   83.66840363    0.41999999    2.64000010
   13.21361065   79.12079620    0.41999999    2.64000010
   13.21694374   77.77239990    0.41999999    2.64000010
   13.22027779   79.27120209    0.41999999    2.64000010
   13.22333336   83.35919952    0.41999999    2.64000010
   13.22944355   83.35919952    0.41999999    2.64000010
   13.23361111   76.47570038    0.41999999    2.64000010
   13.23694515   75.74279785    0.41999999    2.61999989
   13.24000072   78.47979736    0.41999999    2.61999989
   13.24333382   77.12049866    0.41999999    2.61999989
   13.24638939   78.79879761    0.41999999    2.61999989
   13.24972248   80.41719818    0.44000000    2.64000010
   13.25305557   81.78610229    0.44000000    2.64000010
   13.25611115   80.59690094    0.44000000    2.64000010
   13.25944424   85.02519989    0.44000000    2.64000010
   13.26166630   79.50939941    0.44000000    2.64000010
   13.26305580   81.00949860    0.44000000    2.64000010
   13.26638889   78.68299866    0.44000000    2.64000010
   13.27222157   78.68299866    0.44000000    2.64000010
   13.27638817   79.66259766    0.44000000    2.64000010
   13.27972221   79.28150177    0.95999998    2.64000010
   13.28277779   79.53910065    0.95999998    2.64000010
   13.28611183   81.76509857    0.95999998    2.64000010
   13.28944492   76.40070343    0.95999998    2.64000010
   13.29250050   76.35150146    0.64999998    2.64000010
   13.29500008   76.95490265    0.44000000    2.64000010
   13.29638958   78.45459747    0.44000000    2.64000010
   13.29972267   80.12779999    0.44000000    2.64000010
   13.30277824   81.29160309    0.44000000    2.64000010
   13.30611134   78.72850037    0.44000000    2.64000010
   13.30944443   82.19490051    0.44000000    2.64000010
   13.31500053   82.19490051    0.44000000    2.64000010
   13.31916618   80.40579987    0.44000000    2.64000010
   13.32250023   79.72059631    0.44000000    2.64000010
   13.32583332   83.67449951    0.44000000    2.64000010
   13.32833290   84.42690277    0.44000000    2.64000010
   13.32944393   78.30100250    0.44000000    2.64000010
   13.33277798   81.80310059    0.44000000    2.64000010
   13.33583260   80.44480133    0.44000000    2.64000010
   13.33916664   79.37039948    0.44000000    2.64000010
   13.34249973   78.01899719    0.44000000    2.64000010
   13.34555531   78.79010010    0.44000000    2.64000010
   13.34888840   76.73269653    0.44000000    2.64000010
   13.35222244   77.60849762    0.41999999    2.64000010
   13.35805607   77.60849762    0.41999999    2.64000010
   13.36222267   79.77629852    0.41999999    2.64000010
   13.36527824   79.32389832    0.41999999    2.64000010
   13.36861134   76.88909912    0.41999999    2.64000010
   13.37194443   77.21430206    0.41999999    2.64000010
   13.37500000   78.42980194    0.41999999    2.64000010
   13.37833309   77.87460327    0.41999999    2.64000010
   13.38138866   75.84010315    0.41999999    2.64000010
   13.38472176   79.15540314    0.41999999    2.64000010
   13.38805580   84.03859711    0.41999999    2.66000009
   13.39111137   79.59549713    0.41999999    2.66000009
   13.39444447   80.51830292    0.41999999    2.66000009
   13.39499950   78.84719849    0.41999999    2.66000009
   13.40083313   78.84719849    0.41999999    2.66000009
   13.40499973   79.14810181    0.46000001    2.66000009
   13.40805531   77.97769928    0.44000000    2.66000009
   13.41138840   80.09750366    0.44000000    2.64000010
   13.41472149   76.70780182    0.44000000    2.66000009
   13.41777802   76.00489807    0.44000000    2.66000009
   13.42111111   76.93509674    0.44000000    2.66000009
   13.42444515   80.55400085    0.44000000    2.66000009
   13.42750072   81.10440063    0.44000000    2.66000009
   13.42833328   80.93170166    0.44000000    2.66000009
   13.43111134   77.50810242    0.44000000    2.66000009
   13.43444443   78.79139709    0.44000000    2.66000009
   13.43750000   78.10949707    0.44000000    2.67000008
   13.44361115   78.10949707    0.44000000    2.67000008
   13.44777775   76.91670227    0.44000000    2.67000008
   13.45111084   78.47889709    0.46000001    2.66000009
   13.45416641   79.55410004    0.44000000    2.66000009
   13.45749950   76.87989807    0.44000000    2.66000009
   13.46083355   74.64749908    0.44000000    2.66000009
   13.46166611   76.02960205    0.44000000    2.66000009
   13.46444416   79.64939880    0.44000000    2.66000009
   13.46777725   79.39089966    0.44000000    2.66000009
   13.47083282   77.37429810    0.44000000    2.66000009
   13.47416592   75.70400238    0.44000000    2.66000009
   13.47749996   77.25129700    0.44000000    2.66000009
   13.48055553   75.87789917    0.44000000    2.66000009
   13.48638916   75.87789917    0.44000000    2.66000009
   13.49055576   75.31369781    0.44000000    2.66000009
   13.49388885   73.67569733    0.46000001    2.67000008
   13.49499989   76.06109619    0.46000001    2.67000008
   13.49750042   76.50209808    0.46000001    2.67000008
   13.50083351   78.78170013    0.46000001    2.67000008
   13.50388908   76.49060059    0.46000001    2.67000008
   13.50722218   76.80329895    0.46000001    2.67000008
   13.51055527   79.75659943    0.46000001    2.67000008
   13.51361084   74.48799896    0.46000001    2.67000008
   13.51694393   80.08679962    0.44000000    2.66000009
   13.52027798   79.99230194    0.44000000    2.66000009
   13.52333355   76.99009705    0.44000000    2.66000009
   13.52944374   76.99009705    0.44000000    2.66000009
   13.53361130   76.74510193    0.44000000    2.66000009
   13.53666687   78.64510345    0.44000000    2.66000009
   13.54000092   76.24469757    0.44000000    2.66000009
   13.54305553   77.76779938    0.44000000    2.67000008
   13.54638958   77.13999939    0.44000000    2.67000008
   13.54972267   74.53829956    0.44000000    2.67000008
   13.55277824   78.85089874    0.44000000    2.67000008
   13.55611134   80.16750336    0.44000000    2.67000008
   13.55944443   77.29419708    0.44000000    2.67000008
   13.56166649   79.27189636    0.44000000    2.67000008
   13.56305599   78.07039642    0.44000000    2.67000008
   13.56638908   80.59200287    0.44000000    2.67000008
   13.57222176   80.59200287    0.44000000    2.67000008
   13.57638836   76.75090027    0.44000000    2.67000008
   13.57944393   78.66290283    0.44000000    2.67000008
   13.58277798   80.77279663    0.44000000    2.67000008
   13.58611107   81.14620209    0.44000000    2.67000008
   13.58944416   77.65889740    0.44000000    2.67000008
   13.59249973   80.86180115    0.44000000    2.67000008
   13.59499931   76.65270233    0.41999999    2.67000008
   13.59611034   78.33969879    0.41999999    2.67000008
   13.59944439   76.78919983    0.41999999    2.67000008
   13.60277843   79.03199768    0.41999999    2.67000008
   13.60583401   76.88950348    0.41999999    2.67000008
   13.60916710   82.76319885    0.41999999    2.67000008
   13.61500072   82.76319885    0.41999999    2.67000008
   13.61916637   76.39969635    0.41999999    2.67000008
   13.62250042   77.65139771    0.41999999    2.67000008
   13.62555599   76.85769653    0.41999999    2.67000008
   13.62833309   79.30429840    0.41999999    2.67000008
   13.62916660   76.67449951    0.41999999    2.67000008
   13.63249969   76.79949951    0.41999999    2.67000008
   13.63555527   80.16280365    0.41999999    2.67000008
   13.63888836   78.58760071    0.41999999    2.67000008
   13.64222240   74.76670074    0.41999999    2.67000008
   13.64527798   77.33799744    0.41999999    2.67000008
   13.64861107   81.44429779    0.41999999    2.67000008
   13.65194416   75.43640137    0.41999999    2.67000008
   13.65777779   75.43640137    0.41999999    2.67000008
   13.66194439   77.79129791    0.41999999    2.67000008
   13.66527748   80.67659760    0.41999999    2.67000008
   13.66861153   76.89710236    0.44000000    2.69000006
   13.67166710   82.23609924    0.51999998    2.69000006
   13.67500019   78.35949707    0.51999998    2.69000006
   13.67833328   76.90019989    0.51999998    2.69000006
   13.68138885   76.75360107    0.51999998    2.67000008
   13.68472195   80.42099762    0.51999998    2.67000008
   13.68805599   78.95600128    0.51999998    2.67000008
   13.69138908   77.03479767    0.51999998    2.67000008
   13.69444466   77.28330231    0.51999998    2.67000008
   13.69527817   77.00409698    0.51999998    2.67000008
   13.70083332   77.00409698    0.56999999    2.69000006
   13.70499992   79.82050323    0.56999999    2.69000006
   13.70805550   77.19080353    0.56999999    2.67000008
   13.71138859   76.61840057    0.56999999    2.67000008
   13.71444416   76.91120148    0.56999999    2.69000006
   13.71777725   78.20529938    0.55000001    2.69000006
   13.72111034   77.98300171    0.51999998    2.67000008
   13.72416592   77.07039642    0.50000000    2.69000006
   13.72749996   77.27169800    0.47999999    2.69000006
   13.72861099   79.56300354    0.46000001    2.69000006
   13.73111057   82.37200165    0.46000001    2.69000006
   13.73444462   83.15190125    0.46000001    2.69000006
   13.73777771   80.08180237    0.46000001    2.69000006
   13.74361134   80.08180237    0.40000001    2.69000006
   13.74777794   85.06950378    0.40000001    2.69000006
   13.75083351   82.66459656    0.40000001    2.69000006
   13.75416660   80.27850342    0.40000001    2.69000006
   13.75749969   82.75769806    0.40000001    2.69000006
   13.76055527   75.53459930    0.40000001    2.69000006
   13.76194477   75.05190277    0.40000001    2.69000006
   13.76416683   78.63349915    0.40000001    2.69000006
   13.76749992   79.54419708    0.40000001    2.69000006
   13.77055550   73.67379761    0.40000001    2.69000006
   13.77388859   76.31250000    0.38000000    2.69000006
   13.77722168   77.57610321    0.38000000    2.69000006
   13.78027725   79.34889984    0.38000000    2.69000006
   13.78638935   79.34889984    0.34000000    2.71000004
   13.79055595   77.00219727    0.30000001    2.71000004
   13.79388905   79.91300201    0.30000001    2.71000004
   13.79527855   77.89450073    0.30000001    2.71000004
   13.79750061   75.90209961    0.30000001    2.71000004
   13.80083370   76.93979645    0.30000001    2.71000004
   13.80416679   75.02989960    0.30000001    2.71000004
   13.80722237   75.51640320    0.30000001    2.71000004
   13.81055546   77.74449921    0.30000001    2.71000004
   13.81388950   79.77159882    0.30000001    2.71000004
   13.81694412   78.50279999    0.28000000    2.69000006
   13.82027817   78.36319733    0.25999999    2.69000006
   13.82361126   76.14089966    0.25999999    2.69000006
   13.82916641   76.14089966    0.25999999    2.69000006
   13.83333302   74.18070221    0.25999999    2.69000006
   13.83666611   77.36380005    0.25999999    2.71000004
   13.84000015   75.94370270    0.25999999    2.71000004
   13.84305477   77.01129913    0.25999999    2.71000004
   13.84638882   79.61879730    0.25999999    2.71000004
   13.84972191   76.64459991    0.25999999    2.71000004
   13.85277843   77.86199951    0.25999999    2.71000004
   13.85611153   80.82710266    0.25999999    2.71000004
   13.85944462   80.87480164    0.25999999    2.71000004
   13.86194515   76.76119995    0.28000000    2.71000004
   13.86305618   76.25939941    0.28000000    2.71000004
   13.86638927   77.30159760    0.25000000    2.71000004
   13.87222195   77.30159760    0.20999999    2.71000004
   13.87611103   75.64559937    0.20999999    2.71000004
   13.87944412   74.71130371    0.20999999    2.69000006
   13.88277817   80.46019745    0.20999999    2.69000006
   13.88583279   74.62940216    0.20999999    2.69000006
   13.88916683   75.90200043    0.19000000    2.71000004
   13.89249992   75.47219849    0.19000000    2.71000004
   13.89527798   76.17980194    0.19000000    2.71000004
   13.89611053   75.83630371    0.19000000    2.71000004
   13.89944458   82.95590210    0.19000000    2.71000004
   13.90277767   77.57769775    0.19000000    2.71000004
   13.90583324   81.49389648    0.17000000    2.71000004
   13.90916634   76.87950134    0.17000000    2.71000004
   13.91499996   76.87950134    0.15000001    2.71000004
   13.91916656   80.63259888    0.15000001    2.71000004
   13.92222214   78.44139862    0.15000001    2.71000004
   13.92555618   76.65229797    0.15000001    2.71000004
   13.92861176   80.34860229    0.15000001    2.71000004
   13.92916679   78.49890137    0.15000001    2.71000004
   13.93249989   79.21289825    0.13000000    2.71000004
   13.93583298   74.54519653    0.13000000    2.71000004
   13.93888855   78.11070251    0.13000000    2.71000004
   13.94222260   77.95539856    0.13000000    2.71000004
   13.94527817   79.88939667    0.13000000    2.71000004
   13.94861126   79.98590088    0.13000000    2.71000004
   13.95194435   77.04879761    0.13000000    2.71000004
   13.95777798   77.04879761    0.13000000    2.71000004
   13.96194458   77.77449799    0.15000001    2.71000004
   13.96527767   77.71199799    0.15000001    2.71000004
   13.96833324   77.96910095    0.13000000    2.71000004
   13.97166634   79.25260162    0.13000000    2.71000004
   13.97499943   77.42739868    0.13000000    2.71000004
   13.97805500   77.14810181    0.13000000    2.71000004
   13.98138809   77.52909851    0.11000000    2.71000004
   13.98472214   77.00650024    0.11000000    2.71000004
   13.98777771   77.58180237    0.11000000    2.71000004
   13.99111176   78.76629639    0.11000000    2.71000004
   13.99444485   74.37699890    0.11000000    2.71000004
   13.99527836   80.53630066    0.11000000    2.71000004
   14.01583290   80.53630066    0.07000000    2.71000004
   14.01999950   78.19940186    0.07000000    2.71000004
   14.02333355   77.57279968    0.07000000    2.71000004
   14.02666664   79.87950134    0.07000000    2.71000004
   14.02861118   75.07730103    0.07000000    2.71000004
   14.03027725   77.04329681    0.05000000    2.71000004
   14.03361130   77.05500031    0.05000000    2.71000004
   14.03694534   74.70729828    0.05000000    2.71000004
   14.04027843   78.65440369    0.05000000    2.71000004
   14.04333401   75.63020325    0.05000000    2.71000004
   14.04666710   77.73590088    0.05000000    2.71000004
   14.05000019   74.82399750    0.05000000    2.71000004
   14.05305576   80.11470032    0.05000000    2.71000004
   14.05861092   80.11470032    0.05000000    2.71000004
   14.06277752   76.06929779    0.05000000    2.73000002
   14.06611156   81.85320282    0.03000000    2.71000004
   14.06916618   77.71499634    0.03000000    2.73000002
   14.07250023   75.77850342    0.03000000    2.73000002
   14.07583332   76.59980011    0.03000000    2.73000002
   14.07888889   76.32440186    0.03000000    2.73000002
   14.08222198   75.85289764    0.05000000    2.73000002
   14.08527756   76.76850128    0.03000000    2.73000002
   14.08861065   76.09989929    0.03000000    2.73000002
   14.09194374   76.23509979    0.03000000    2.73000002
   14.09527779   76.94309998    0.38000000    2.73000002
   14.09555531   76.31670380    0.38000000    2.73000002
   14.10138893   76.31670380    0.40000001    2.73000002
   14.10555553   77.35099792    0.40000001    2.73000002
   14.10888958   77.57299805    0.40000001    2.75000000
   14.11222267   75.93009949    0.40000001    2.73000002
   14.11527824   80.67630005    0.40000001    2.73000002
   14.11861134   76.04709625    0.41999999    2.73000002
   14.12194443   76.56809998    0.41999999    2.73000002
   14.12500000   77.15110016    0.40000001    2.73000002
   14.12833309   75.48439789    0.40000001    2.75000000
   14.12888908   77.90560150    0.40000001    2.73000002
   14.13222218   74.79049683    0.40000001    2.73000002
   14.13527775   77.76869965    0.40000001    2.73000002
   14.13861084   73.58029938    0.40000001    2.73000002
   14.14444447   73.58029938    0.40000001    2.75000000
   14.14861107   76.95970154    0.40000001    2.73000002
   14.15166664   78.07659912    0.38000000    2.73000002
   14.15499973   74.18340302    0.38000000    2.73000002
   14.15805531   75.09279633    0.40000001    2.73000002
   14.16138840   79.04989624    0.40000001    2.75000000
   14.16222191   74.34200287    0.40000001    2.73000002
   14.16527748   82.22160339    0.41999999    2.75000000
   14.16833401   73.25240326    0.40000001    2.73000002
   14.17166710   79.71720123    0.40000001    2.73000002
   14.17472267   74.18099976    0.40000001    2.75000000
   14.17805576   77.38569641    0.40000001    2.75000000
   14.18138885   77.95700073    0.40000001    2.75000000
   14.18722248   77.95700073    0.40000001    2.73000002
   14.19138908   78.38860321    0.40000001    2.73000002
   14.19472218   75.15529633    0.40000001    2.73000002
   14.19555569   74.55069733    0.40000001    2.73000002
   14.19833374   73.79270172    0.40000001    2.73000002
   14.20138836   78.48729706    0.40000001    2.73000002
   14.20472240   77.53610229    0.40000001    2.75000000
   14.20805550   77.33580017    0.40000001    2.75000000
   14.21111107   81.84880066    0.40000001    2.75000000
   14.21444416   78.09439850    0.40000001    2.75000000
   14.21777725   78.00650024    0.40000001    2.75000000
   14.22083282   75.43289948    0.40000001    2.75000000
   14.22416592   77.63529968    0.40000001    2.75000000
   14.22999954   77.63529968    0.40000001    2.75000000
   14.23416710   73.66529846    0.40000001    2.73000002
   14.23750019   74.06359863    0.50000000    2.73000002
   14.24055576   74.91369629    0.50000000    2.73000002
   14.24388885   77.53330231    0.52999997    2.73000002
   14.24722290   75.82550049    0.52999997    2.73000002
   14.25027752   74.85250092    0.52999997    2.73000002
   14.25361156   77.08719635    0.52999997    2.73000002
   14.25694466   78.68930054    0.52999997    2.73000002
   14.26000023   75.48400116    0.52999997    2.73000002
   14.26222229   75.49839783    0.52999997    2.73000002
   14.26388931   75.82340240    0.52999997    2.73000002
   14.26722240   77.27549744    0.51999998    2.73000002
   14.27277756   77.27549744    0.51999998    2.73000002
   14.27694416   76.30999756    0.51999998    2.73000002
   14.28027725   76.76029968    0.51999998    2.73000002
   14.28333378   74.53099823    0.40000001    2.75000000
   14.28666687   74.82510376    0.36000001    2.75000000
   14.29000092   75.51959991    0.36000001    2.75000000
   14.29333401   75.79579926    0.36000001    2.75000000
   14.29555607   78.71540070    0.36000001    2.75000000
   14.29694462   78.79540253    0.36000001    2.75000000
   14.30000019   76.50240326    0.36000001    2.75000000
   14.30333328   76.28230286    0.36000001    2.75000000
   14.30666733   74.98380280    0.36000001    2.75000000
   14.30972195   75.23509979    0.36000001    2.75000000
   14.31583309   75.23509979    0.36000001    2.75000000
   14.31999969   79.21790314    0.36000001    2.75000000
   14.32305527   76.17259979    0.36000001    2.75000000
   14.32638836   79.83969879    0.36000001    2.75000000
   14.32888889   75.13379669    0.36000001    2.75000000
   14.33027744   79.76049805    0.36000001    2.75000000
   14.33333302   75.50959778    0.36000001    2.75000000
   14.33666611   76.19000244    0.36000001    2.75000000
   14.34000015   74.72429657    0.36000001    2.75000000
   14.34305477   74.67910004    0.36000001    2.75000000
   14.34638882   76.81430054    0.36000001    2.75000000
   14.34972191   77.17019653    0.38000000    2.75000000
   14.35305595   76.77369690    0.38000000    2.75000000
   14.35861111   76.77369690    0.38000000    2.75000000
   14.36277771   74.87740326    0.38000000    2.75000000
   14.36611176   78.75379944    0.38000000    2.75000000
   14.36916637   76.63359833    0.38000000    2.75000000
   14.37250042   77.11129761    0.38000000    2.75000000
   14.37583351   80.05200195    0.38000000    2.75000000
   14.37888908   74.91329956    0.46000001    2.75000000
   14.38222218   78.35949707    0.46000001    2.75000000
   14.38555527   75.87719727    0.46000001    2.75000000
   14.38861084   79.50900269    0.46000001    2.75000000
   14.39194393   80.00869751    0.46000001    2.75000000
   14.39527798   74.01719666    0.46000001    2.75000000
   14.39583302   79.74520111    0.46000001    2.75000000
   14.40138817   79.74520111    0.47999999    2.75000000
   14.40555477   78.50810242    0.47999999    2.75000000
   14.40888882   75.74590302    0.47999999    2.75000000
   14.41194439   77.56520081    0.47999999    2.75000000
   14.41527748   78.93180084    0.47999999    2.75000000
   14.41861153   75.89140320    0.47999999    2.75000000
   14.42166710   78.93979645    0.47999999    2.75000000
   14.42500019   76.18270111    0.47999999    2.75000000
   14.42833328   77.63300323    0.47999999    2.75000000
   14.42916679   74.96880341    0.47999999    2.75000000
   14.43194485   73.11090088    0.47999999    2.75000000
   14.43500042   76.17759705    0.40000001    2.75000000
   14.43833351   74.25710297    0.40000001    2.75000000
   14.44416714   74.25710297    0.40000001    2.75000000
   14.44833374   77.07039642    0.40000001    2.75000000
   14.45166683   75.60870361    0.40000001    2.75000000
   14.45499992   77.37300110    0.40000001    2.75000000
   14.45805550   75.54389954    0.40000001    2.75000000
   14.46138859   74.45780182    0.40000001    2.75000000
   14.46249962   76.46859741    0.40000001    2.75000000
   14.46500015   75.07879639    0.40000001    2.75000000
   14.46833324   75.68949890    0.40000001    2.75000000
   14.47166634   73.19499969    0.40000001    2.75000000
   14.47472191   75.76020050    0.40000001    2.75000000
   14.47805500   74.73480225    0.40000001    2.75000000
   14.48138809   74.65090179    0.40000001    2.75000000
   14.48722267   74.65090179    0.40000001    2.75000000
   14.49138927   74.95980072    0.40000001    2.75000000
   14.49444485   76.92350006    0.40000001    2.75000000
   14.49583340   76.87380219    0.40000001    2.75000000
   14.49833393   74.33409882    0.40000001    2.75000000
   14.50138855   76.53939819    0.40000001    2.75000000
   14.50472260   80.66950226    0.40000001    2.75000000
   14.50805569   73.98850250    0.40000001    2.75000000
   14.51111126   78.13659668    0.40000001    2.75000000
   14.51444435   72.85669708    0.40000001    2.75000000
   14.51777744   75.37470245    0.40000001    2.75000000
   14.52083302   78.24019623    0.40000001    2.75000000
   14.52416611   75.50980377    0.40000001    2.75000000
   14.52999973   75.50980377    0.40000001    2.75000000
   14.53416729   77.94490051    0.40000001    2.75000000
   14.53722286   75.00679779    0.40000001    2.75000000
   14.54055595   75.43360138    0.40000001    2.75000000
   14.54388905   74.09899902    0.40000001    2.75000000
   14.54694462   81.77300262    0.40000001    2.75000000
   14.55027771   82.62680054    0.40000001    2.75000000
   14.55361176   77.79090118    0.40000001    2.75000000
   14.55666733   81.01820374    0.40000001    2.75000000
   14.56000042   76.09909821    0.40000001    2.75000000
   14.56250000   76.46170044    0.40000001    2.75000000
   14.56388950   79.75659943    0.40000001    2.75000000
   14.56694412   76.90110016    0.40000001    2.76999998
   14.57277775   76.90110016    0.38000000    2.76999998
   14.57694435   76.55930328    0.38000000    2.75000000
   14.58027744   75.49600220    0.38000000    2.75000000
   14.58333302   75.06250000    0.38000000    2.75000000
   14.58666611   75.29049683    0.38000000    2.75000000
   14.59000015   75.98179626    0.40000001    2.76999998
   14.59305477   74.51180267    0.40000001    2.76999998
   14.59583282   76.08489990    0.40000001    2.76999998
   14.59666634   75.42089844    0.40000001    2.76999998
   14.60000038   74.91809845    0.40000001    2.76999998
   14.60333347   77.54260254    0.40000001    2.76999998
   14.60638905   74.75689697    0.40000001    2.76999998
   14.60972214   77.44290161    0.40000001    2.76999998
   14.61555576   77.44290161    0.40000001    2.76999998
   14.61972237   78.35859680    0.40000001    2.76999998
   14.62305546   75.26709747    0.40000001    2.76999998
   14.62638855   74.54799652    0.40000001    2.76999998
   14.62916660   75.21089935    0.40000001    2.76999998
   14.63000011   80.22550201    0.40000001    2.76999998
   14.63305569   75.57759857    0.40000001    2.76999998
   14.63638878   76.82209778    0.38000000    2.76999998
   14.63944435   71.79759979    0.38000000    2.76999998
   14.64277744   76.25440216    0.38000000    2.76999998
   14.64611053   73.45729828    0.38000000    2.76999998
   14.64944458   74.27670288    0.38000000    2.76999998
   14.65249920   74.83979797    0.38000000    2.76999998
   14.65861034   74.83979797    0.38000000    2.76999998
   14.66277695   76.60569763    0.38000000    2.76999998
   14.66583252   80.28949738    0.38000000    2.76999998
   14.66916656   77.38310242    0.38000000    2.76999998
   14.67250061   74.73930359    0.38000000    2.76999998
   14.67555618   73.56289673    0.38000000    2.76999998
   14.67888927   76.32740021    0.38000000    2.76999998
   14.68222237   77.07499695    0.38000000    2.76999998
   14.68527794   78.32369995    0.38000000    2.76999998
   14.68861103   77.75810242    0.38000000    2.76999998
   14.69194412   76.87049866    0.38000000    2.76999998
   14.69499969   79.10759735    0.38000000    2.76999998
   14.69583321   77.02839661    0.38000000    2.76999998
   14.70138836   77.02839661    0.38000000    2.76999998
   14.70555496   75.24579620    0.38000000    2.76999998
   14.70861053   75.71520233    0.40000001    2.76999998
   14.71194458   74.86820221    0.40000001    2.76999998
   14.71527767   75.89820099    0.40000001    2.76999998
   14.71833324   75.84470367    0.40000001    2.76999998
   14.72166634   77.39769745    0.40000001    2.76999998
   14.72472191   74.57769775    0.40000001    2.76999998
   14.72805500   74.00589752    0.40000001    2.76999998
   14.72916603   73.97080231    0.40000001    2.76999998
   14.73194408   75.84279633    0.40000001    2.76999998
   14.73500061   76.24659729    0.40000001    2.76999998
   14.73833370   75.21990204    0.40000001    2.78999996
   14.74416733   75.21990204    0.40000001    2.78999996
   14.74833393   85.80750275    0.40000001    2.78999996
   14.75166702   76.73220062    0.40000001    2.78999996
   14.75472260   75.79660034    0.40000001    2.78999996
   14.75805569   75.10929871    0.40000001    2.78999996
   14.76138878   77.68280029    0.40000001    2.76999998
   14.76249981   75.76509857    0.40000001    2.76999998
   14.76500034   74.87920380    0.40000001    2.76999998
   14.76833344   74.54550171    0.36000001    2.78999996
   14.77138901   80.19570160    0.36000001    2.78999996
   14.77472210   79.13510132    0.40000001    2.78999996
   14.77777767   74.43229675    0.40000001    2.78999996
   14.78111076   79.68800354    0.40000001    2.78999996
   14.78694534   79.68800354    0.38000000    2.78999996
   14.79111195   78.09159851    0.38000000    2.78999996
   14.79444504   78.86609650    0.40000001    2.78999996
   14.79583359   81.64689636    0.40000001    2.78999996
   14.79805565   81.68250275    0.40000001    2.78999996
   14.80111122   82.81950378    0.40000001    2.78999996
   14.80444431   79.00199890    0.40000001    2.78999996
   14.80777836   82.82060242    0.40000001    2.78999996
   14.81083393   76.91979980    0.40000001    2.78999996
   14.81416702   85.33439636    0.40000001    2.78999996
   14.81750011   78.23120117    0.40000001    2.78999996
   14.82055569   77.89230347    0.40000001    2.78999996
   14.82388878   77.47889709    0.40000001    2.78999996
   14.82999992   77.47889709    0.40000001    2.78999996
   14.83416653   74.75240326    0.40000001    2.78999996
   14.83722210   75.62390137    0.40000001    2.78999996
   14.84055519   75.40599823    0.40000001    2.78999996
   14.84361076   77.53199768    0.40000001    2.78999996
   14.84694386   74.95290375    0.41999999    2.78999996
   14.85027790   75.72599792    0.41999999    2.78999996
   14.85333347   75.57360077    0.41999999    2.78999996
   14.85666752   75.44339752    0.41999999    2.78999996
   14.86000061   75.94000244    0.41999999    2.78999996
   14.86250019   77.97409821    0.41999999    2.78999996
   14.86361122   73.61889648    0.41999999    2.78999996
   14.86666679   74.24669647    0.41999999    2.78999996
   14.87277794   74.24669647    0.41999999    2.78999996
   14.87694454   77.41829681    0.44000000    2.78999996
   14.88000011   75.18650055    0.44000000    2.78999996
   14.88333321   75.15899658    0.44000000    2.78999996
   14.88666630   74.20069885    0.44000000    2.78999996
   14.88972187   77.88569641    0.44000000    2.78999996
   14.89305496   76.29060364    0.41999999    2.78999996
   14.89583302   76.49579620    0.41999999    2.78999996
   14.89666653   75.23609924    0.41999999    2.78999996
   14.89972210   75.42769623    0.41999999    2.78999996
   14.90305519   74.94190216    0.41999999    2.78999996
   14.90638828   76.11060333    0.40000001    2.78999996
   14.90944386   73.76100159    0.40000001    2.78999996
   14.91555500   73.76100159    0.40000001    2.78999996
   14.91972256   73.85070038    0.40000001    2.78999996
   14.92305565   75.25589752    0.40000001    2.78999996
   14.92611122   77.33450317    0.40000001    2.78999996
   14.92916679   75.39959717    0.40000001    2.78999996
   14.93000031   75.77069855    0.40000001    2.78999996
   14.93305588   75.96800232    0.40000001    2.78999996
   14.93638897   78.28199768    0.40000001    2.78999996
   14.93972206   77.14219666    0.40000001    2.78999996
   14.94277763   73.68520355    0.40000001    2.78999996
   14.94611073   78.56939697    0.38000000    2.78999996
   14.94944477   81.95919800    0.38000000    2.78999996
   14.95249939   77.03919983    0.36000001    2.78999996
   14.95833302   77.03919983    0.36000001    2.78999996
   14.96249962   77.07279968    0.36000001    2.78999996
   14.96583271   76.43589783    0.36000001    2.78999996
   14.96888828   76.80960083    0.36000001    2.78999996
   14.97222137   71.80030060    0.36000001    2.78999996
   14.97555542   76.14080048    0.36000001    2.78999996
   14.97861099   76.04799652    0.36000001    2.78999996
   14.98194408   78.69419861    0.36000001    2.78999996
   14.98527813   74.29889679    0.36000001    2.78999996
   14.98833370   74.35849762    0.36000001    2.78999996
   14.99166679   76.20539856    0.36000001    2.78999996
   14.99472237   78.77660370    0.36000001    2.78999996
   14.99583340   74.26879883    0.36000001    2.78999996
   15.00111103   74.26879883    0.36000001    2.78999996
   15.00527763   76.55159760    0.36000001    2.78999996
   15.00861073   76.76730347    0.36000001    2.78999996
   15.01194477   83.85420227    0.36000001    2.78999996
   15.02944374   74.78990173    0.36000001    2.78999996
   15.03194427   79.03250122    0.36000001    2.78999996
   15.03500080   76.53630066    0.36000001    2.78999996
   15.03833389   75.25050354    0.38000000    2.78999996
   15.04416752   75.25050354    0.38000000    2.78999996
   15.04833412   79.15149689    0.38000000    2.78999996
   15.05166721   76.74949646    0.38000000    2.78999996
   15.05500031   79.15940094    0.38000000    2.78999996
   15.05805588   75.81749725    0.38000000    2.78999996
   15.06138897   80.70790100    0.38000000    2.78999996
   15.06277752   79.02510071    0.38000000    2.78999996
   15.06527805   77.81950378    0.38000000    2.78999996
   15.06833363   78.02380371    0.40000001    2.78999996
   15.07166672   73.89769745    0.40000001    2.78999996
   15.07499981   76.31400299    0.40000001    2.78999996
   15.07805538   78.01660156    0.40000001    2.78999996
   15.08138847   73.23639679    0.40000001    2.78999996
   15.08722210   73.23639679    0.40000001    2.78999996
   15.09138870   75.44969940    0.40000001    2.78999996
   15.09472179   78.46350098    0.40000001    2.78999996
   15.09611034   76.35299683    0.40000001    2.78999996
   15.20027733   -1.00000000   -1.00000000   -1.00000000
   15.31722260   -1.00000000   -1.00000000   -1.00000000
   15.55805588   -1.00000000   -1.00000000   -1.00000000
   15.59388828   79.60019684    0.46000001    2.80999994
   15.59722233   79.37120056    0.44000000    2.80999994
   15.60027790   79.06960297    0.52999997    2.80999994
   15.60361195   79.17359924    0.47999999    2.82999992
   15.60694504   74.53839874    0.41999999    2.80999994
   15.61000061   82.77950287    0.41999999    2.80999994
   15.61416721   82.77950287    0.50000000    2.80999994
   15.61833382   79.47579956    0.38000000    2.80999994
   15.62166691   81.38950348    0.36000001    2.80999994
   15.62472248   81.16699982    0.36000001    2.80999994
   15.62722206   82.84290314    0.38000000    2.80999994
   15.62833309   84.16799927    0.38000000    2.80999994
   15.63166714   84.35269928    0.38000000    2.80999994
   15.63500023   80.05799866    0.38000000    2.80999994
   15.63805580   79.19319916    0.40000001    2.80999994
   15.64138889   76.31259918    0.44000000    2.80999994
   15.64472198   78.84049988    0.41999999    2.82999992
   15.64777756   77.73509979    0.41999999    2.80999994
   15.65138817   80.09490204    0.41999999    2.80999994
   15.65722179   80.09490204    0.38000000    2.80999994
   15.66194439   79.70449829    0.38000000    2.80999994
   15.66499996   77.07530212    0.38000000    2.80999994
   15.66833401   75.68910217    0.36000001    2.80999994
   15.67166710   78.16780090    0.36000001    2.80999994
   15.67472267   77.91660309    0.36000001    2.80999994
   15.67805576   79.90599823    0.36000001    2.80999994
   15.68138885   80.23100281    0.38000000    2.80999994
   15.68444443   80.25930023    0.36000001    2.80999994
   15.68777752   82.17659760    0.36000001    2.80999994
   15.69083309   77.93379974    0.38000000    2.80999994
   15.69388866   85.34140015    0.38000000    2.80999994
   15.69444466   80.86309814    0.38000000    2.80999994
   15.69999981   80.86309814    0.38000000    2.80999994
   15.70416641   83.25990295    0.38000000    2.80999994
   15.70722198   83.97899628    0.40000001    2.82999992
   15.77555561   80.14659882    0.44000000    2.80999994
   15.77888870   81.69730377    0.41999999    2.80999994
   15.78222179   80.75150299    0.44000000    2.80999994
   15.78555584   82.97250366    0.44000000    2.80999994
   15.78861141   81.35469818    0.44000000    2.80999994
   15.79194450   75.16230011    0.44000000    2.80999994
   15.79611111   75.16230011    0.41999999    2.82999992
   15.80027771   79.00969696    0.41999999    2.80999994
   15.80333328   79.04460144    0.41999999    2.80999994
   15.80666733   79.69940186    0.41999999    2.80999994
   15.80888939   76.86940002    0.44000000    2.82999992
   15.81027794   76.58239746    0.41999999    2.82999992
   15.81361103   79.64990234    0.44000000    2.82999992
   15.81666660   78.43859863    0.44000000    2.82999992
   15.81999969   77.86789703    0.46000001    2.82999992
   15.82333374   76.56150055    0.44000000    2.82999992
   15.82638836   76.11180115    0.44000000    2.80999994
   15.82972240   78.88739777    0.44000000    2.80999994
   15.83277798   80.43219757    0.46000001    2.80999994
   15.83888817   80.43219757    0.47999999    2.82999992
   15.84305477   74.11810303    0.46000001    2.82999992
   15.97055531   79.93109894    0.47999999    2.80999994
   15.97388840   77.42839813    0.46000001    2.82999992
   15.97722149   75.96939850    0.44000000    2.80999994
   15.98027706   81.22789764    0.47999999    2.82999992
   15.98361111   81.01789856    0.46000001    2.82999992
   15.98694515   78.24330139    0.46000001    2.82999992
   15.99111176   78.24330139    0.47999999    2.82999992
   15.99499989   78.44219971    0.44000000    2.82999992
   15.99833393   77.85569763    0.44000000    2.82999992
   16.00166702   78.50700378    0.41999999    2.82999992
   16.00388908   80.82309723    0.41999999    2.82999992
   16.00527763   77.87840271    0.41999999    2.80999994
   16.00861168   79.27339935    0.40000001    2.82999992
   16.01166725   80.73999786    0.40000001    2.82999992
   16.01499939   78.22260284    0.41999999    2.82999992
   16.01805496   79.09670258    0.41999999    2.82999992
   16.02138901   76.01779938    0.44000000    2.82999992
   16.02472115   76.12319946    0.41999999    2.82999992
   16.02777672   76.02059937    0.50000000    2.82999992
   16.03388786   76.02059937    0.47999999    2.82999992
   16.03805542   79.65799713    0.46000001    2.82999992
   16.04111099   75.23500061    0.47999999    2.82999992
   16.04444313   76.08229828    0.47999999    2.82999992
   16.04777718   80.11109924    0.51999998    2.80999994
   16.05083275   76.07099915    0.46000001    2.82999992
   16.05416679   78.88809967    0.44000000    2.82999992
   16.05722237   75.11470032    0.41999999    2.82999992
   16.06055450   77.44080353    0.44000000    2.82999992
   16.06388855   80.99210358    0.44000000    2.82999992
   16.06694603   80.19869995    0.46000001    2.82999992
   16.07027817   86.89980316    0.44000000    2.82999992
   16.07083511   85.95079803    0.44000000    2.82999992
   16.07666779   85.95079803    0.41999999    2.82999992
   16.08083344   79.87940216    0.40000001    2.82999992
   16.08416748   75.84239960    0.41999999    2.82999992
   16.08722305   73.30139923    0.46000001    2.82999992
   16.09055710   77.62090302    0.50000000    2.82999992
   16.09361267   76.45449829    0.44000000    2.82999992
   16.09694481   77.23370361    0.38000000    2.82999992
   16.10027885   77.74819946    0.36000001    2.80999994
   16.10333443   80.28060150    0.36000001    2.80999994
   16.10416794   75.66739655    0.38000000    2.82999992
   16.10722351   75.10739899    0.36000001    2.80999994
   16.11027908   75.29679871    0.38000000    2.82999992
   16.11361122   76.83820343    0.38000000    2.82999992
   16.11944389   76.83820343    0.38000000    2.82999992
   16.12361145   78.14479828    0.38000000    2.82999992
   16.12694550   74.00679779    0.36000001    2.82999992
   16.13000107   76.13400269    0.36000001    2.82999992
   16.13333321   75.53630066    0.36000001    2.82999992
   16.13666725   74.74690247    0.36000001    2.82999992
   16.13750076   78.61380005    0.36000001    2.82999992
   16.14027786   74.33170319    0.38000000    2.80999994
   16.14333344   75.11250305    0.38000000    2.80999994
   16.14666748   76.47589874    0.38000000    2.80999994
   16.14999962   79.15200043    0.38000000    2.80999994
   16.15305519   76.69529724    0.38000000    2.82999992
   16.15638924   77.23149872    0.38000000    2.80999994
   16.16222191   77.23149872    0.38000000    2.82999992
   16.16638756   77.93759918    0.38000000    2.82999992
   16.16972160   75.44560242    0.38000000    2.82999992
   16.17083359   72.83809662    0.40000001    2.82999992
   16.17361069   73.39150238    0.36000001    2.82999992
   16.17666626   70.10510254    0.36000001    2.80999994
   16.18000031   76.43389893    0.36000001    2.82999992
   16.18333244   73.10990143    0.38000000    2.82999992
   16.18638802   78.08260345    0.36000001    2.82999992
   16.18972206   73.31320190    0.36000001    2.82999992
   16.19277763   74.60060120    0.36000001    2.82999992
   16.19610977   72.64920044    0.36000001    2.82999992
   16.19944382   74.93769836    0.34000000    2.82999992
   16.20527840   74.93769836    0.36000001    2.82999992
   16.20944595   72.56469727    0.36000001    2.82999992
   16.21250153   73.46829987    0.34000000    2.82999992
   16.21583366   75.70059967    0.34000000    2.82999992
   16.21916771   75.06569672    0.34000000    2.82999992
   16.22222328   76.11380005    0.34000000    2.82999992
   16.22555542   75.51029968    0.34000000    2.80999994
   16.22861099   78.67739868    0.34000000    2.82999992
   16.23194504   76.10579681    0.34000000    2.82999992
   16.23527718   73.74859619    0.34000000    2.82999992
   16.23750114   72.20800018    0.34000000    2.82999992
   16.23888969   73.81739807    0.34000000    2.82999992
   16.24194527   73.65019989    0.34000000    2.82999992
   16.24805641   73.65019989    0.34000000    2.82999992
   16.25222206   75.62570190    0.36000001    2.82999992
   16.25555611   80.50039673    0.38000000    2.82999992
   16.25861168   77.86360168    0.38000000    2.82999992
   16.26194382   78.11119843    0.38000000    2.82999992
   16.26499939   75.78489685    0.36000001    2.80999994
   16.26833344   75.82499695    0.36000001    2.82999992
   16.27083397   74.59670258    0.36000001    2.82999992
   16.27222252   77.87519836    0.38000000    2.82999992
   16.27527809   73.20449829    0.36000001    2.80999994
   16.27861023   77.07669830    0.38000000    2.82999992
   16.28194427   74.25170135    0.36000001    2.80999994
   16.28499985   74.29319763    0.38000000    2.80999994
   16.29083252   74.29319763    0.40000001    2.82999992
   16.29500008   71.96230316    0.41999999    2.82999992
   16.29833221   75.11430359    0.40000001    2.82999992
   16.30138779   76.27559662    0.38000000    2.82999992
   16.30416679   74.27829742    0.38000000    2.82999992
   16.30527687   80.04199982    0.38000000    2.82999992
   16.30833244   76.64379883    0.38000000    2.82999992
   16.31166649   72.34140015    0.40000001    2.82999992
   16.31499863   75.06199646    0.40000001    2.80999994
   16.31805611   77.93090057    0.38000000    2.82999992
   16.32139015   73.39009857    0.38000000    2.82999992
   16.32472229   76.03160095    0.40000001    2.82999992
   16.32777786   71.63430023    0.40000001    2.82999992
   16.33361244   71.63430023    0.41999999    2.82999992
   16.33777809   74.64209747    0.41999999    2.82999992
   16.34111214   75.02120209    0.44000000    2.82999992
   16.34444427   73.68209839    0.46000001    2.82999992
   16.34749985   78.76750183    0.46000001    2.82999992
   16.35083389   76.67949677    0.46000001    2.80999994
   16.35388947   77.82559967    0.50000000    2.82999992
   16.35722351   75.53040314    0.52999997    2.82999992
   16.36055565   76.57730103    0.52999997    2.82999992
   16.36361122   74.74919891    0.56999999    2.82999992
   16.36694527   74.87719727    0.55000001    2.82999992
   16.37027740   76.05000305    0.58999997    2.82999992
   16.37083435   73.90499878    0.61000001    2.82999992
   16.37666702   73.90499878    0.58999997    2.80999994
   16.38083267   77.18009949    0.61000001    2.82999992
   16.38388824   76.45600128    0.55000001    2.82999992
   16.38722229   78.78160095    0.55000001    2.82999992
   16.39027786   78.08930206    0.56999999    2.82999992
   16.39361191   78.18520355    0.58999997    2.80999994
   16.39694405   76.62310028    0.56999999    2.82999992
   16.39999962   77.21630096    0.55000001    2.82999992
   16.40333366   75.94339752    0.56999999    2.82999992
   16.40416718   82.51719666    0.56999999    2.82999992
   16.40694427   76.39109802    0.56999999    2.82999992
   16.40999985   77.77429962    0.56999999    2.82999992
   16.41333389   75.95310211    0.56999999    2.82999992
   16.41944313   75.95310211    0.58999997    2.80999994
   16.42361069   74.32820129    0.56999999    2.82999992
   16.42666626   73.13829803    0.56999999    2.82999992
   16.43000031   74.90309906    0.55000001    2.80999994
   16.43333244   74.27359772    0.58999997    2.80999994
   16.43666649   72.27880096    0.58999997    2.80999994
   16.43750000   72.40110016    0.58999997    2.80999994
   16.44027710   74.65249634    0.58999997    2.80999994
   16.44333267   73.81680298    0.58999997    2.80999994
   16.44666672   72.80039978    0.58999997    2.82999992
   16.45000076   73.43450165    0.58999997    2.80999994
   16.45305634   73.26640320    0.58999997    2.82999992
   16.45639038   74.22779846    0.61000001    2.80999994
   16.46222305   74.22779846    0.63000000    2.80999994
   16.46638870   76.82710266    0.63000000    2.80999994
   16.46972275   74.53569794    0.63000000    2.80999994
   16.47083473   75.77799988    0.63000000    2.82999992
   16.47333336   72.64189911    0.64999998    2.80999994
   16.47638893   78.19380188    0.64999998    2.82999992
   16.47972298   76.79540253    0.63000000    2.82999992
   16.48305511   77.81469727    0.61000001    2.82999992
   16.48611069   75.63490295    0.63000000    2.80999994
   16.48944473   76.58280182    0.63000000    2.80999994
   16.49277878   75.46170044    0.64999998    2.80999994
   16.49583435   78.75910187    0.67000002    2.82999992
   16.49916649   76.90399933    0.69000000    2.80999994
   16.50499916   76.90399933    0.70999998    2.82999992
   16.50916672   73.12770081    0.69000000    2.82999992
   16.51250076   72.65589905    0.73000002    2.80999994
   16.51583290   73.73200226    0.75000000    2.80999994
   16.51888847   72.78269958    0.73000002    2.80999994
   16.52222252   72.87349701    0.76999998    2.80999994
   16.52527809   77.38099670    0.76999998    2.82999992
   16.52861023   75.01480103    0.76999998    2.80999994
   16.53194427   75.54779816    0.79000002    2.80999994
   16.53499985   77.89710236    0.79000002    2.80999994
   16.53750038   75.63059998    0.79000002    2.80999994
   16.53888893   74.47119904    0.75000000    2.80999994
   16.54194450   75.27480316    0.75000000    2.80999994
   16.54805565   75.27480316    0.76999998    2.82999992
   16.55222130   76.90029907    0.76999998    2.82999992
   16.55527687   72.50309753    0.76999998    2.80999994
   16.55861092   76.41169739    0.75000000    2.80999994
   16.56166649   74.40519714    0.75000000    2.82999992
   16.56499863   73.31800079    0.75000000    2.80999994
   16.56833458   73.39350128    0.75000000    2.80999994
   16.57083511   73.25640106    0.76999998    2.80999994
   16.57194519   74.93759918    0.76999998    2.80999994
   16.57500076   75.89350128    0.76999998    2.80999994
   16.57833481   75.34850311    0.83999997    2.82999992
   16.58166695   75.90200043    0.86000001    2.80999994
   16.58472252   73.58850098    0.88000000    2.80999994
   16.59083366   73.58850098    0.94000000    2.80999994
   16.59500122   75.41470337    1.00000000    2.80999994
   16.59805679   71.02159882    1.00000000    2.80999994
   16.60138893   72.18930054    1.00000000    2.80999994
   16.60416794   71.76709747    1.00000000    2.80999994
   16.60527802   74.63030243    1.01999998    2.80999994
   16.60833359   73.80300140    1.01999998    2.80999994
   16.61166763   76.73560333    1.07000005    2.80999994
   16.61499977   77.16190338    1.09000003    2.80999994
   16.61805534   75.25250244    1.07000005    2.82999992
   16.62138939   76.73320007    1.00000000    2.80999994
   16.62472153   76.52739716    0.98000002    2.82999992
   16.62777710   76.89279938    0.95999998    2.80999994
   16.63361168   76.89279938    0.86000001    2.80999994
   16.63777733   77.49130249    0.80000001    2.80999994
   16.64111137   73.92109680    0.83999997    2.80999994
   16.64416695   72.45369720    0.83999997    2.82999992
   16.64749908   73.46469879    0.83999997    2.82999992
   16.65083313   73.95890045    0.86000001    2.82999992
   16.65388870   73.48819733    0.80000001    2.82999992
   16.65722275   71.95480347    0.81999999    2.82999992
   16.66027832   73.90950012    0.80000001    2.80999994
   16.66361046   72.73190308    0.79000002    2.80999994
   16.66694450   74.58840179    0.75000000    2.80999994
   16.67000008   72.13729858    0.69000000    2.82999992
   16.67083359   75.03849792    0.69000000    2.82999992
   16.67638779   75.03849792    0.63000000    2.82999992
   16.68055534   73.32399750    0.67000002    2.80999994
   16.68388748   74.02259827    0.70999998    2.82999992
   16.68722153   76.68299866    0.70999998    2.82999992
   16.69027710   76.32369995    0.70999998    2.82999992
   16.69361115   73.88569641    0.73000002    2.82999992
   16.69666672   79.81430054    0.75000000    2.80999994
   16.70000076   78.35079956    0.75000000    2.82999992
   16.70333481   75.80509949    0.75000000    2.82999992
   16.70416832   74.84919739    0.75000000    2.82999992
   16.70694542   73.84929657    0.80000001    2.80999994
   16.71027946   72.20510101    0.86000001    2.82999992
   16.71333504   74.38030243    0.86000001    2.80999994
   16.71944427   74.38030243    0.86000001    2.82999992
   16.72361183   73.64579773    0.86000001    2.82999992
   16.72666740   76.68479919    0.86000001    2.82999992
   16.73000145   77.61540222    0.86000001    2.82999992
   16.73305511   76.55709839    0.92000002    2.80999994
   16.73638916   75.88099670    0.94000000    2.82999992
   16.73750114   73.69950104    0.94000000    2.82999992
   16.73999977   73.67819977    0.95999998    2.80999994
   16.74333382   74.70410156    0.95999998    2.80999994
   16.74638939   77.60079956    0.95999998    2.82999992
   16.74972153   78.75839996    0.94000000    2.82999992
   16.75277710   74.97380066    0.95999998    2.82999992
   16.75611115   81.09079742    0.94000000    2.80999994
   16.76222229   81.09079742    0.94000000    2.80999994
   16.76638794   76.65029907    0.94000000    2.82999992
   16.76972198   77.23519897    0.95999998    2.80999994
   16.77083397   74.48709869    0.95999998    2.80999994
   16.77333260   74.46330261    1.01999998    2.82999992
   16.77666664   73.76339722    1.03999996    2.80999994
   16.77972221   79.05549622    0.98000002    2.80999994
   16.78305435   77.33799744    1.00000000    2.80999994
   16.78610992   73.70490265    1.03999996    2.82999992
   16.78944397   77.68830109    1.05999994    2.82999992
   16.79277802   75.37030029    1.05999994    2.82999992
   16.79583359   74.44210052    1.05999994    2.80999994
   16.79916573   74.44239807    1.09000003    2.80999994
   16.80499840   74.44239807    1.07000005    2.80999994
   16.80916595   77.30639648    1.03999996    2.80999994
   16.81250000   82.20339966    0.95999998    2.80999994
   16.81555557   75.68879700    0.94000000    2.80999994
   16.81888962   75.55799866    0.92000002    2.82999992
   16.82222366   77.63569641    0.89999998    2.80999994
   16.82527924   76.33029938    0.92000002    2.82999992
   16.82861137   74.14070129    0.89999998    2.82999992
   16.83194542   74.63259888    0.89999998    2.82999992
   16.83500099   72.64140320    0.88000000    2.80999994
   16.83750153   78.35859680    0.89999998    2.80999994
   16.83861160   72.69259644    0.89999998    2.80999994
   16.84194565   72.50430298    0.88000000    2.80999994
   16.84777832   72.50430298    0.92000002    2.80999994
   16.85194397   72.55100250    0.92000002    2.80999994
   16.85527802   73.66059875    0.92000002    2.82999992
   16.85861206   73.08249664    0.92000002    2.82999992
   16.86166763   73.76830292    0.92000002    2.82999992
   16.86499977   74.86460114    0.92000002    2.82999992
   16.86833382   75.53639984    0.94000000    2.80999994
   16.87083435   73.89450073    0.94000000    2.80999994
   16.87194443   74.31539917    0.94000000    2.80999994
   16.87527847   74.51090240    0.94000000    2.80999994
   16.87833405   73.50620270    0.94000000    2.80999994
   16.88166618   73.40899658    0.94000000    2.80999994
   16.88500023   73.53659821    0.92000002    2.80999994
   16.89083290   73.53659821    0.92000002    2.80999994
   16.89500046   76.47599792    0.98000002    2.80999994
   16.89805603   79.33920288    0.98000002    2.80999994
   16.90138817   75.74099731    0.98000002    2.80999994
   16.90416718   72.89830017    0.98000002    2.80999994
   16.90499878   78.04859924    0.98000002    2.80999994
   16.90833282   80.26979828    0.92000002    2.82999992
   16.91138840   74.94200134    0.92000002    2.82999992
   16.91472244   75.58599854    0.79000002    2.80999994
   16.91805458   75.68219757    0.75000000    2.82999992
   16.92111015   76.82299805    0.79000002    2.80999994
   16.92444420   75.81649780    0.79000002    2.80999994
   16.92749977   76.75569916    0.81999999    2.80999994
   16.93361092   76.75569916    0.95999998    2.80999994
   16.93777657   72.35489655    0.92000002    2.80999994
   16.94083214   72.28119659    0.92000002    2.80999994
   16.94416618   73.71790314    0.86000001    2.80999994
   16.94749832   77.79290009    0.86000001    2.80999994
   16.95055580   75.16349792    0.81999999    2.80999994
   16.95388985   74.90730286    0.81999999    2.80999994
   16.95722389   75.93049622    0.81999999    2.80999994
   16.96027946   76.20649719    0.81999999    2.82999992
   16.96361160   74.40059662    0.81999999    2.82999992
   16.96666718   75.45529938    0.73000002    2.82999992
   16.97000122   76.96130371    0.73000002    2.82999992
   16.97083473   72.85669708    0.73000002    2.82999992
   16.99166679   72.85669708    0.86000001    2.82999992
   16.99583435   74.09120178    0.86000001    2.82999992
   16.99916649   78.18460083    0.86000001    2.82999992
   17.00222206   75.58280182    1.01999998    2.80999994
   17.00416756   76.34619904    0.95999998    2.82999992
   17.00611115   74.20390320    0.86000001    2.82999992
   17.00944519   74.33650208    0.83999997    2.82999992
   17.01250076   72.92089844    0.86000001    2.82999992
   17.01583290   74.01770020    0.75000000    2.80999994
   17.01916695   74.83350372    0.70999998    2.80999994
   17.02222252   74.56759644    0.70999998    2.80999994
   17.02555466   73.15689850    0.70999998    2.80999994
   17.02888870   73.51270294    0.70999998    2.80999994
   17.03444481   73.51270294    0.75000000    2.82999992
   17.03861046   80.11820221    0.75000000    2.82999992
   17.04194450   76.53199768    0.75000000    2.82999992
   17.04500008   76.42099762    0.73000002    2.80999994
   17.04833221   68.23670197    0.73000002    2.80999994
   17.05166626   79.92759705    0.73000002    2.80999994
   17.05472183   74.49289703    0.75000000    2.80999994
   17.05805397   73.29280090    0.75000000    2.80999994
   17.06138802   77.14270020    0.75000000    2.80999994
   17.06472206   74.87999725    0.75000000    2.80999994
   17.06777954   74.84249878    0.79000002    2.82999992
   17.07083511   76.56359863    0.83999997    2.80999994
   17.07166672   73.59470367    0.86000001    2.82999992
   17.07722282   73.59470367    0.88000000    2.82999992
   17.08139038   74.80139923    0.88000000    2.82999992
   17.08444595   70.88179779    0.83999997    2.82999992
   17.08777809   73.12059784    0.83999997    2.82999992
   17.09111214   71.00039673    0.83999997    2.82999992
   17.09444427   75.36460114    0.83999997    2.82999992
   17.09749985   74.78900146    0.81999999    2.82999992
   17.10083389   74.59539795    0.79000002    2.80999994
   17.10388947   70.45459747    0.81999999    2.80999994
   17.10444450   69.82980347    0.83999997    2.80999994
   17.10777855   73.54769897    0.86000001    2.80999994
   17.11111069   76.55000305    0.86000001    2.80999994
   17.11444473   73.15529633    0.88000000    2.80999994
   17.12000084   73.15529633    0.88000000    2.80999994
   17.12416649   73.61260223    0.88000000    2.80999994
   17.12750053   75.69869995    0.92000002    2.82999992
   17.13055611   70.17289734    0.95999998    2.80999994
   17.13388824   73.04799652    1.00000000    2.80999994
   17.13722229   75.91139984    1.00000000    2.80999994
   17.13777733   70.10109711    1.00000000    2.80999994
   17.14083290   77.21749878    1.00000000    2.80999994
   17.14416695   75.62640381    1.00000000    2.80999994
   17.14749908   75.43029785    1.00000000    2.80999994
   17.15055466   74.09300232    1.01999998    2.80999994
   17.15388870   76.93319702    1.05999994    2.80999994
   17.15694427   75.68620300    1.05999994    2.80999994
   17.16277695   75.68620300    1.05999994    2.80999994
   17.16694450   77.24819946    1.05999994    2.80999994
   17.17027664   77.03379822    1.05999994    2.80999994
   17.17111015   75.80359650    1.05999994    2.80999994
   17.17388916   76.83509827    1.05999994    2.80999994
   17.17722130   76.98609924    1.05999994    2.80999994
   17.18055534   79.00710297    1.05999994    2.80999994
   17.18361092   76.92179871    1.05999994    2.80999994
   17.18694305   75.03739929    1.05999994    2.80999994
   17.19027710   75.40930176    1.05999994    2.80999994
   17.19333267   79.84600067    1.05999994    2.80999994
   17.19666672   74.51799774    1.05999994    2.80999994
   17.20000076   76.16649628    1.05999994    2.80999994
   17.20583344   76.16649628    1.13000000    2.80999994
   17.21000099   73.98059845    1.13000000    2.80999994
   17.21305656   73.78279877    1.13000000    2.80999994
   17.21638870   75.96800232    1.11000001    2.80999994
   17.21944427   74.50509644    1.11000001    2.80999994
   17.22277832   74.48380280    1.11000001    2.80999994
   17.22611237   73.11049652    1.11000001    2.80999994
   17.22916794   79.97769928    1.16999996    2.80999994
   17.23250008   79.39890289    1.16999996    2.80999994
   17.23583412   76.11329651    1.16999996    2.80999994
   17.23805618   74.45929718    1.16999996    2.80999994
   17.23944473   76.72930145    1.16999996    2.80999994
   17.24277878   74.16999817    1.16999996    2.80999994
   17.24861145   74.16999817    1.16999996    2.80999994
   17.25277710   75.63980103    1.16999996    2.80999994
   17.25611115   77.15319824    1.16999996    2.80999994
   17.25916672   79.08860016    1.13000000    2.80999994
   17.26250076   78.06279755    1.13000000    2.80999994
   17.26555634   77.02890015    1.13000000    2.80999994
   17.26888847   78.99649811    1.13000000    2.80999994
   17.27138901   76.70279694    1.13000000    2.80999994
   17.27249908   74.47879791    1.13000000    2.80999994
   17.27583313   73.69740295    1.13000000    2.80999994
   17.27916718   75.93309784    1.13000000    2.80999994
   17.28222275   77.47709656    1.13000000    2.80999994
   17.28555489   75.27380371    0.86000001    2.82999992
   17.29138756   75.27380371    0.70999998    2.80999994
   17.29555511   74.54589844    0.70999998    2.80999994
   17.29888916   74.44760132    0.70999998    2.80999994
   17.30194283   76.27500153    0.70999998    2.80999994
   17.30472183   75.82009888    0.70999998    2.80999994
   17.30555534   76.77349854    0.70999998    2.80999994
   17.30888748   81.36289978    0.69000000    2.80999994
   17.31222153   78.65409851    0.69000000    2.80999994
   17.31527710   78.93750000    0.69000000    2.80999994
   17.31861115   75.58190155    0.69000000    2.80999994
   17.32194519   74.60330200    0.69000000    2.80999994
   17.32500076   75.16889954    0.69000000    2.80999994
   17.32833481   78.56829834    0.69000000    2.80999994
   17.33416748   78.56829834    0.69000000    2.80999994
   17.33833313   76.40460205    0.69000000    2.80999994
   17.34166718   76.35530090    0.69000000    2.80999994
   17.34500122   79.52880096    0.69000000    2.80999994
   17.34805679   75.47969818    0.69000000    2.80999994
   17.35138893   73.72409821    0.69000000    2.80999994
   17.35444450   75.04959869    0.69000000    2.80999994
   17.35777855   77.40930176    0.69000000    2.80999994
   17.36111069   78.28140259    0.69000000    2.80999994
   17.36416626   75.69429779    0.69000000    2.80999994
   17.36750031   73.89910126    0.69000000    2.80999994
   17.37083435   77.17610168    0.69000000    2.80999994
   17.37138939   74.73619843    0.69000000    2.80999994
   17.37722206   74.73619843    0.70999998    2.80999994
   17.38138962   76.82319641    0.70999998    2.80999994
   17.38444519   78.08499908    0.70999998    2.80999994
   17.38777733   79.14199829    0.83999997    2.80999994
   17.39083290   76.41919708    0.83999997    2.80999994
   17.39416695   78.91089630    0.83999997    2.80999994
   17.39749908   76.22109985    0.83999997    2.80999994
   17.40055466   71.92099762    0.94000000    2.80999994
   17.40388870   74.72419739    0.94000000    2.80999994
   17.40472221   73.23570251    0.94000000    2.80999994
   17.40749931   77.90570068    0.94000000    2.80999994
   17.41083336   77.82610321    0.94000000    2.80999994
   17.41416550   75.27079773    0.94000000    2.80999994
   17.42000008   75.27079773    1.07000005    2.80999994
   17.42416573   76.50689697    1.07000005    2.80999994
   17.42722130   -1.00000000    1.07000005    2.80999994
   17.43055534   -1.00000000    1.07000005    2.80999994
   17.43388748   75.12830353    1.14999998    2.80999994
   17.43694305   76.86519623    1.14999998    2.80999994
   17.43805504   80.88430023    1.14999998    2.80999994
   17.44083214   75.53389740    1.14999998    2.80999994
   17.44388771   75.41480255    1.14999998    2.80999994
   17.44722176   73.95290375    1.51999998    2.80999994
   17.45055580   75.12409973    1.51999998    2.80999994
   17.45361137   75.01689911    1.51999998    2.80999994
   17.45694542   70.02140045    1.51999998    2.80999994
   17.46277809   70.02140045    1.51999998    2.80999994
   17.46694565   73.25650024    1.51999998    2.80999994
   17.47027779   74.43540192    1.51999998    2.80999994
   17.47138977   75.65640259    1.51999998    2.80999994
   17.47361183   75.77639771    1.51999998    2.80999994
   17.47694588   74.44029999    1.51999998    2.80999994
   17.48027802   70.22810364    1.51999998    2.80999994
   17.48361206   76.57540131    1.51999998    2.80999994
   17.48666763   76.26080322    1.51999998    2.80999994
   17.48999977   76.73329926    1.76999998    2.80999994
   17.49333382   73.71009827    1.76999998    2.80999994
   17.49638939   75.73320007    1.76999998    2.80999994
   17.49972153   77.18550110    1.76999998    2.80999994
   17.50555611   77.18550110    1.91999996    2.80999994
   17.50972176   75.56359863    1.41999996    2.80999994
   17.51305580   74.11219788    1.01999998    2.80999994
   17.51638794   72.60289764    0.98000002    2.80999994
   17.51944351   75.66049957    1.07000005    2.80999994
   17.52277756   77.30139923    1.11000001    2.80999994
   17.52611160   74.56320190    1.13000000    2.80999994
   17.52916718   74.24829865    1.11000001    2.80999994
   17.53249931   78.63580322    1.11000001    2.80999994
   17.53555489   80.12339783    1.03999996    2.80999994
   17.53805542   79.59149933    1.19000006    2.82999992
   17.53916550   74.36029816    1.19000006    2.82999992
   17.54249954   75.77410126    1.41999996    2.80999994
   17.54861069   75.77410126    1.41999996    2.80999994
   17.55249977   75.84279633    1.46000004    2.80999994
   17.55583191   78.45140076    2.11999989    2.78999996
   17.55916595   73.13430023    2.11999989    2.78999996
   17.56222153   74.77400208    2.11999989    2.78999996
   17.56555557   76.40019989    2.09999990    2.80999994
   17.56888962   75.59020233    2.25000000    2.78999996
   17.57139015   74.61209869    2.07999992    2.80999994
   17.57250023   78.16909790    2.03999996    2.80999994
   17.57583427   74.72010040    1.71000004    2.80999994
   17.57916832   77.84310150    1.71000004    2.80999994
   17.58222389   77.21309662    1.71000004    2.80999994
   17.58555603   74.81510162    1.71000004    2.80999994
   17.59138870   74.81510162    1.71000004    2.80999994
   17.59555626   73.66790009    1.71000004    2.80999994
   17.59861183   75.06580353    1.30999994    2.80999994
   17.60194397   73.59339905    3.01999998    2.78999996
   17.60472298   76.65090179    3.01999998    2.78999996
   17.60555649   75.34670258    3.01999998    2.78999996
   17.60888863   75.15000153    3.01999998    2.78999996
   17.61222267   74.16439819    3.01999998    2.78999996
   17.61527824   73.47630310    3.01999998    2.78999996
   17.61861038   76.14900208    2.98000002    2.78999996
   17.62194443   69.80159760    4.90999985    2.76999998
   17.62500000   76.29570007    4.90999985    2.75000000
   17.62833405   77.78759766    4.90999985    2.75000000
   17.63416672   77.78759766    4.09999990    2.76999998
   17.63833237   75.32779694    4.13999987    2.78999996
   17.64166641   77.78800201    4.13999987    2.78999996
   17.64472198   75.14080048    4.13999987    2.78999996
   17.64805603   76.25219727    4.26000023    2.76999998
   17.65138817   73.51049805    2.61999989    2.78999996
   17.65444374   77.28260040    2.67000008    2.76999998
   17.65777779   74.86119843    2.98000002    2.76999998
   17.66110992   76.73739624    2.73000002    2.78999996
   17.66416550   75.57499695    2.64000010    2.78999996
   17.66749954   74.89409637    2.39000010    2.78999996
   17.67083359   84.96849823    2.21000004    2.78999996
   17.67138863   79.02680206    2.21000004    2.78999996
   17.67694473   79.02680206    1.71000004    2.80999994
   17.68111038   74.44290161    1.55999994    2.80999994
   17.68444443   76.74230194    1.48000002    2.80999994
   17.68777657   78.55950165    1.50000000    2.78999996
   17.69083214   78.24960327    1.64999998    2.78999996
   17.69416618   74.61380005    1.64999998    2.78999996
   17.69749832   75.86769867    1.64999998    2.78999996
   17.70083427   76.62599945    1.64999998    2.78999996
   17.70388985   71.83809662    1.64999998    2.78999996
   17.70472336   76.99960327    1.64999998    2.78999996
   17.70777893   76.38359833    1.63000000    2.78999996
   17.71083450   74.04129791    1.63000000    2.78999996
   17.71416664   72.47290039    1.63000000    2.78999996
   17.72000122   72.47290039    1.50000000    2.80999994
   17.72416687   78.66539764    1.50000000    2.80999994
   17.72722244   79.22640228    1.50000000    2.80999994
   17.73055649   79.84359741    1.50000000    2.80999994
   17.73388863   79.66609955    1.50000000    2.80999994
   17.73694420   75.03659821    1.50000000    2.80999994
   17.73805618   79.48719788    1.50000000    2.80999994
   17.74083328   77.20400238    1.50000000    2.80999994
   17.74388885   79.74400330    1.50000000    2.80999994
   17.74722290   77.49030304    1.50000000    2.80999994
   17.75055504   81.33059692    1.23000002    2.80999994
   17.75361061   75.33730316    1.23000002    2.80999994
   17.75694466   75.59230042    1.23000002    2.80999994
   17.76277733   75.59230042    1.23000002    2.80999994
   17.76694489   74.76529694    1.00000000    2.80999994
   17.77027702   76.91249847    1.11000001    2.80999994
   17.77138901   76.66770172    1.11000001    2.80999994
   17.77388954   76.25289917    1.11000001    2.80999994
   17.77694511   75.31849670    1.11000001    2.80999994
   17.78027725   74.72070313    1.11000001    2.80999994
   17.78361130   82.02970123    1.11000001    2.80999994
   17.78666687   81.38619995    1.11000001    2.80999994
   17.78999901   75.30899811    1.11000001    2.80999994
   17.79333305   73.90409851    1.23000002    2.80999994
   17.79638863   73.64140320    1.23000002    2.80999994
   17.79972076   78.19750214    1.25000000    2.78999996
   17.80555534   78.19750214    1.25000000    2.78999996
   17.80972099   75.28849792    2.26999998    2.78999996
   17.81305504   76.48509979    2.66000009    2.78999996
   17.81611061   75.66069794    3.01999998    2.78999996
   17.81944466   74.82669830    2.80999994    2.76999998
   17.82277870   73.52909851    2.84999990    2.78999996
   17.82583427   74.32769775    2.73000002    2.78999996
   17.82916832   74.28630066    2.51999998    2.78999996
   17.83250046   73.41120148    2.46000004    2.78999996
   17.83555603   73.87660217    2.01999998    2.78999996
   17.83805656   72.72339630    2.01999998    2.78999996
   17.83944511   71.81410217    2.01999998    2.78999996
   17.84250069   79.00260162    2.01999998    2.78999996
   17.84833336   79.00260162    2.00000000    2.78999996
   17.85250092   79.23030090    1.71000004    2.78999996
   17.85583305   75.87619781    1.86000001    2.78999996
   17.85916710   72.87290192    1.89999998    2.78999996
   17.86222267   75.73950195    2.01999998    2.78999996
   17.86555672   76.55909729    2.17000008    2.78999996
   17.86888885   71.99729919    2.17000008    2.78999996
   17.87138939   73.87270355    1.55999994    2.78999996
   17.87249947   76.42259979    1.46000004    2.78999996
   17.87555504   73.23329926    1.39999998    2.78999996
   17.87888908   72.89920044    1.38000000    2.78999996
   17.88222313   73.22930145    1.38000000    2.78999996
   17.88527679   78.72090149    1.36000001    2.78999996
   17.89138794   78.72090149    1.21000004    2.80999994
   17.89527702   77.28710175    1.46000004    2.78999996
   17.89861107   77.11679840    1.44000006    2.78999996
   17.90194321   75.46199799    1.44000006    2.78999996
   17.90472221   75.65940094    1.39999998    2.78999996
   17.90555573   74.95449829    1.39999998    2.78999996
   17.90861130   71.31169891    1.39999998    2.78999996
   17.91194344   75.35440063    1.39999998    2.78999996
   17.91527748   74.09549713    1.44000006    2.78999996
   17.91833305   75.97409821    2.39000010    2.78999996
   17.92166519   74.51390076    1.64999998    2.78999996
   17.92472076   78.55829620    1.64999998    2.78999996
   17.92805481   74.46869659    1.63000000    2.78999996
   17.93416595   74.46869659    1.30999994    2.78999996
   17.93833160   75.77649689    1.30999994    2.78999996
   17.94138718   77.11350250    1.38000000    2.80999994
   17.94472122   74.14730072    1.69000006    2.78999996
   17.94805527   75.08699799    1.44000006    2.78999996
   17.95111275   77.95130157    1.44000006    2.78999996
   17.95444489   75.79039764    1.44000006    2.78999996
   17.95750046   81.21340179    1.11000001    2.78999996
   17.96083450   76.46569824    1.11000001    2.78999996
   17.96416664   74.99900055    1.13000000    2.78999996
   17.96722221   75.01889801    1.13000000    2.78999996
   17.97055626   73.82389832    0.98000002    2.78999996
   17.97138977   75.99179840    0.98000002    2.78999996
   17.97694588   75.99179840    1.19000006    2.78999996
   17.98111153   75.74859619    1.36000001    2.78999996
   17.98444557   74.39340210    1.36000001    2.78999996
   17.98750114   76.22090149    1.33000004    2.78999996
   18.00499916   80.70829773    1.33000004    2.78999996
   18.00749969   74.84329987    1.33000004    2.78999996
   18.01083374   75.04620361    1.33000004    2.78999996
   18.01388931   78.84339905    1.33000004    2.78999996
   18.02000046   78.84339905    2.03999996    2.78999996
   18.02416611   75.05860138    1.85000002    2.76999998
   18.02750015   74.27050018    1.85000002    2.76999998
   18.03055573   73.48149872    1.85000002    2.76999998
   18.03388786   75.47360229    1.85000002    2.76999998
   18.03722191   72.94599915    1.85000002    2.76999998
   18.03833199   74.70089722    1.85000002    2.76999998
   18.04083252   71.34950256    1.85000002    2.76999998
   18.04416656   73.95330048    1.69000006    2.78999996
   18.04749870   75.28089905    1.69000006    2.78999996
   18.05055428   74.40149689    1.69000006    2.78999996
   18.05388832   76.94950104    1.69000006    2.78999996
   18.05722237   79.61650085    1.69000006    2.78999996
   18.06277657   79.61650085    1.69000006    2.78999996
   18.06694603   76.52249908    1.69000006    2.78999996
   18.07027817   82.03399658    1.69000006    2.78999996
   18.07166672   75.57319641    1.69000006    2.78999996
   18.07389069   72.93579865    1.69000006    2.78999996
   18.07694626   79.59300232    1.16999996    2.78999996
   18.08027840   75.60420227    0.89999998    2.80999994
   18.08361244   77.57140350    0.92000002    2.78999996
   18.08666801   77.89340210    0.92000002    2.78999996
   18.09000015   75.49259949    0.83999997    2.78999996
   18.09333420   74.58940125    0.83999997    2.78999996
   18.09666824   74.56449890    0.83999997    2.78999996
   18.09972191   74.10919952    0.83999997    2.78999996
   18.10583305   74.10919952    0.83999997    2.78999996
   18.11000061   76.36540222    0.83999997    2.78999996
   18.11305618   72.43340302    0.83999997    2.78999996
   18.11638832   73.00949860    0.83999997    2.78999996
   18.11944389   75.96980286    0.83999997    2.78999996
   18.12277794   71.62419891    0.83999997    2.78999996
   18.12611198   76.59780121    0.83999997    2.78999996
   18.12944412   75.26589966    0.83999997    2.78999996
   18.13249969   74.38230133    0.83999997    2.78999996
   18.13583374   77.06169891    0.81999999    2.78999996
   18.13833237   78.07530212    0.81999999    2.78999996
   18.13972282   74.20549774    0.81999999    2.78999996
   18.14305496   75.82669830    0.81999999    2.78999996
   18.14861107   75.82669830    0.81999999    2.78999996
   18.15277672   76.70549774    0.81999999    2.78999996
   18.15583229   76.03320313    0.76999998    2.78999996
   18.15916634   77.12650299    1.00000000    2.78999996
   18.16250038   77.63009644    1.60000002    2.78999996
   18.16555595   75.94090271    1.55999994    2.78999996
   18.16888809   74.45249939    1.60000002    2.76999998
   18.17166519   72.97920227    1.58000004    2.78999996
   18.17249870   78.81900024    1.58000004    2.78999996
   18.17583275   74.76119995    1.58000004    2.78999996
   18.17888832   74.96289825    1.58000004    2.78999996
   18.18222237   75.79789734    1.50000000    2.78999996
   18.18555450   75.12069702    1.46000004    2.78999996
   18.19138718   75.12069702    1.46000004    2.78999996
   18.19555473   75.88459778    1.53999996    2.78999996
   18.19888878   77.25140381    1.53999996    2.78999996
   18.20194435   75.44229889    1.53999996    2.78999996
   18.20499992   74.99349976    1.53999996    2.78999996
   18.20583344   75.61609650    1.53999996    2.78999996
   18.20916748   75.37229919    1.53999996    2.78999996
   18.21222305   74.26760101    1.33000004    2.78999996
   18.21555710   74.55799866    1.33000004    2.78999996
   18.21888924   75.44000244    1.33000004    2.78999996
   18.22194481   73.98390198    1.33000004    2.78999996
   18.22527885   75.75769806    1.33000004    2.78999996
   18.22861099   80.42590332    1.33000004    2.78999996
   18.23416710   80.42590332    1.26999998    2.78999996
   18.23833275   75.13030243    1.26999998    2.78999996
   18.24166679   81.76020050    1.26999998    2.78999996
   18.24500084   80.31569672    1.26999998    2.78999996
   18.24805641   79.55740356    1.26999998    2.78999996
   18.25138855   75.42729950    1.26999998    2.78999996
   18.25472260   72.92960358    1.26999998    2.78999996
   18.25861168   77.34770203    1.26999998    2.78999996
   18.26194382   75.76239777    1.26999998    2.78999996
   18.26499939   77.02320099    1.26999998    2.78999996
   18.26833344   76.66000366    1.09000003    2.78999996
   18.27166557   75.94740295    1.09000003    2.78999996
   18.27222252   72.57669830    1.09000003    2.78999996
   18.27722168   72.57669830    1.09000003    2.78999996
   18.28138924   75.82939911    1.09000003    2.78999996
   18.28444481   76.66809845    1.09000003    2.78999996
   18.28777695   73.00720215    1.09000003    2.78999996
   18.29111099   78.12709808    1.09000003    2.78999996
   18.29416656   75.81009674    1.09000003    2.78999996
   18.29749870   78.84300232    1.09000003    2.78999996
   18.30083275   74.54039764    1.09000003    2.78999996
   18.30388832   77.23789978    0.95999998    2.78999996
   18.30499840   76.19110107    0.95999998    2.78999996
   18.30777740   77.74279785    0.95999998    2.78999996
   18.31083298   75.92099762    0.95999998    2.78999996
   18.31416512   81.48809814    0.95999998    2.78999996
   18.32000160   81.48809814    2.25000000    2.76999998
   18.32416725   74.27210236    2.25000000    2.76999998
   18.32722282   73.90889740    2.25000000    2.76999998
   18.33055687   75.24459839    2.25000000    2.76999998
   18.33388901   72.06089783    2.25000000    2.76999998
   18.33694458   73.98290253    1.55999994    2.76999998
   18.33833313   74.41960144    1.44000006    2.78999996
   18.34083366   74.29060364    1.44000006    2.78999996
   18.34416771   76.42579651    1.48000002    2.76999998
   18.34722328   72.90879822    1.48000002    2.76999998
   18.35055542   75.96289825    1.71000004    2.76999998
   18.35388947   76.65239716    1.71000004    2.76999998
   18.35694504   76.73400116    1.46000004    2.76999998
   18.36277771   76.73400116    1.46000004    2.76999998
   18.36694527   76.79650116    1.46000004    2.76999998
   18.37027740   77.11540222    1.34000003    2.78999996
   18.37166595   72.99649811    1.21000004    2.76999998
   18.37388992   72.97339630    1.21000004    2.76999998
   18.37722206   73.09089661    1.44000006    2.76999998
   18.38027763   74.89700317    1.16999996    2.78999996
   18.38361168   75.72889709    1.16999996    2.78999996
   18.38694382   74.41639709    1.25000000    2.78999996
   18.39027786   74.29219818    1.25000000    2.78999996
   18.39333344   77.16269684    1.25000000    2.78999996
   18.39666748   82.02749634    1.25000000    2.78999996
   18.39999962   73.74230194    1.13000000    2.76999998
   18.40555573   73.74230194    1.21000004    2.76999998
   18.40972137   73.16809845    1.19000006    2.76999998
   18.41305542   74.28170013    1.19000006    2.76999998
   18.41638756   74.79199982    1.13000000    2.78999996
   18.41944313   76.12920380    1.13000000    2.78999996
   18.42277718   76.13529968    1.13000000    2.78999996
   18.42583275   79.69339752    1.13000000    2.78999996
   18.42916679   79.04000092    1.13000000    2.78999996
   18.43249893   76.14179993    1.13000000    2.78999996
   18.43555450   76.64099884    1.16999996    2.78999996
   18.43833160   78.20339966    1.16999996    2.78999996
   18.43944359   75.16359711    1.16999996    2.78999996
   18.44277763   73.77040100    1.16999996    2.78999996
   18.44861031   73.77040100    1.16999996    2.78999996
   18.45277786   77.23519897    1.16999996    2.78999996
   18.45583344   75.58889771    1.16999996    2.78999996
   18.45916748   74.62200165    1.16999996    2.78999996
   18.46222305   74.74320221    1.09000003    2.76999998
   18.46555710   74.65959930    1.09000003    2.76999998
   18.46888924   73.58699799    1.09000003    2.76999998
   18.47166634   77.11180115    1.09000003    2.76999998
   18.47249985   73.45829773    1.09000003    2.76999998
   18.47583389   74.28900146    1.09000003    2.76999998
   18.47888947   74.24810028    1.09000003    2.76999998
   18.48222351   77.73169708    1.09000003    2.76999998
   18.48555565   79.41190338    1.09000003    2.76999998
   18.49138832   79.41190338    1.09000003    2.76999998
   18.49555588   74.50019836    1.01999998    2.76999998
   18.49861145   75.70079803    1.01999998    2.76999998
   18.50194359   73.97840118    1.01999998    2.76999998
   18.50499916   75.68710327    1.01999998    2.76999998
   18.50555611   74.55989838    1.01999998    2.76999998
   18.50888824   73.18990326    1.01999998    2.76999998
   18.51194382   74.10189819    1.01999998    2.76999998
   18.51527786   74.79080200    1.01999998    2.76999998
   18.51861000   75.19670105    1.01999998    2.76999998
   18.52166557   74.79599762    1.11000001    2.76999998
   18.52499962   74.67240143    1.11000001    2.76999998
   18.52833366   74.63739777    1.11000001    2.76999998
   18.53416634   74.63739777    1.11000001    2.76999998
   18.53833199   75.41729736    1.11000001    2.76999998
   18.53888893   72.69419861    1.11000001    2.76999998
   18.54222107   69.24520111    1.11000001    2.76999998
   18.54527664   76.10469818    1.11000001    2.76999998
   18.54861069   78.78869629    1.11000001    2.76999998
   18.55194283   76.48699951    1.11000001    2.76999998
   18.55499840   -1.00000000    1.11000001    2.78999996
   18.55833244   -1.00000000    1.11000001    2.78999996
   18.56166649   -1.00000000    1.11000001    2.78999996
   18.56472206   -1.00000000    1.11000001    2.78999996
   18.56805611   -1.00000000    1.11000001    2.78999996
   18.57111168   -1.00000000    1.11000001    2.78999996
   18.57222366   73.35089874    1.11000001    2.78999996
   18.57694626   73.35089874    1.11000001    2.78999996
   18.58111191   72.33170319    1.11000001    2.76999998
   18.58444595   72.69740295    1.11000001    2.76999998
   18.58750153   74.86190033    1.11000001    2.76999998
   18.59083366   79.17769623    1.11000001    2.76999998
   18.59416771   75.16010284    1.11000001    2.76999998
   18.59722328   75.12609863    1.16999996    2.76999998
   18.60055542   74.80829620    1.16999996    2.76999998
   18.60388947   75.72450256    1.16999996    2.76999998
   18.60555649   76.87429810    1.16999996    2.76999998
   18.60750008   79.79560089    1.16999996    2.76999998
   18.61055565   77.52179718    1.16999996    2.76999998
   18.61388969   73.79280090    1.21000004    2.76999998
   18.62000084   73.79280090    1.21000004    2.76999998
   18.62388992   76.02290344    1.21000004    2.76999998
   18.62722206   75.65859985    1.21000004    2.76999998
   18.63055611   76.31009674    1.21000004    2.76999998
   18.63361168   74.38449860    1.25000000    2.76999998
   18.63694382   75.09690094    1.25000000    2.76999998
   18.63888931   78.09290314    1.25000000    2.76999998
   18.64083290   72.71450043    1.25000000    2.76999998
   18.64388847   72.83280182    1.25000000    2.76999998
   18.64722252   74.88829803    1.25000000    2.76999998
   18.65027809   73.13970184    1.25000000    2.76999998
   18.65361023   73.10590363    1.25000000    2.76999998
   18.65694427   73.25119781    1.25000000    2.76999998
   18.66277695   73.25119781    1.25000000    2.76999998
   18.66694450   74.66259766    1.19000006    2.76999998
   18.67000008   75.63279724    1.19000006    2.76999998
   18.67222214   74.69819641    1.19000006    2.76999998
   18.67388916   77.69259644    1.19000006    2.76999998
   18.67694473   75.93520355    1.19000006    2.76999998
   18.68027687   75.05950165    1.19000006    2.76999998
   18.68361092   74.17120361    1.19000006    2.76999998
   18.68666649   75.12129974    1.19000006    2.76999998
   18.68999863   77.39959717    1.19000006    2.76999998
   18.69305420   73.44730377    1.19000006    2.76999998
   18.69638824   75.29270172    1.23000002    2.75000000
   18.69972038   74.51789856    1.23000002    2.75000000
   18.70555687   74.51789856    1.23000002    2.75000000
   18.70972252   77.49079895    1.23000002    2.75000000
   18.71277809   73.87259674    1.23000002    2.75000000
   18.71611214   76.70590210    1.23000002    2.75000000
   18.71944427   75.09149933    1.23000002    2.75000000
   18.72249985   73.45819855    1.23000002    2.75000000
   18.72583389   73.56629944    1.19000006    2.76999998
   18.72916794   75.89440155    1.19000006    2.76999998
   18.73250008   74.80560303    1.19000006    2.76999998
   18.73555565   78.85330200    1.19000006    2.76999998
   18.73888969   74.73359680    1.19000006    2.76999998
   18.73944473   72.77670288    1.19000006    2.76999998
   18.74250031   77.08670044    1.19000006    2.76999998
   18.74833298   77.08670044    1.36000001    2.75000000
   18.75250053   74.97039795    1.33000004    2.76999998
   18.75583267   77.87149811    1.28999996    2.75000000
   18.75888824   74.67179871    1.33000004    2.75000000
   18.76222229   74.97810364    1.34000003    2.75000000
   18.76555634   81.86830139    1.34000003    2.75000000
   18.76861000   74.91760254    1.39999998    2.75000000
   18.77194405   78.33730316    1.39999998    2.75000000
   18.77249908   74.06909943    1.39999998    2.75000000
   18.77583313   77.26219940    1.39999998    2.75000000
   18.77888870   74.50199890    1.39999998    2.75000000
   18.78222275   74.09059906    1.39999998    2.75000000
   18.78555489   75.30519867    1.39999998    2.75000000
   18.79138756   75.30519867    1.39999998    2.75000000
   18.79527664   77.67859650    1.39999998    2.75000000
   18.79861069   73.97779846    1.39999998    2.75000000
   18.80194283   75.47399902    1.44000006    2.75000000
   18.80499840   75.71669769    1.44000006    2.75000000
   18.80583191   77.31340027    1.44000006    2.75000000
   18.80888748   74.19999695    1.44000006    2.75000000
   18.81194305   74.14510345    1.44000006    2.75000000
   18.81527710   79.69270325    1.44000006    2.75000000
   18.81861115   76.29830170    1.44000006    2.75000000
   18.82166672   75.53009796    1.44000006    2.75000000
   18.82500076   72.38179779    1.44000006    2.75000000
   18.82833481   78.36019897    1.44000006    2.75000000
   18.83416748   78.36019897    1.69000006    2.75000000
   18.83833313   73.45079803    1.69000006    2.75000000
   18.83916664   70.28160095    1.69000006    2.75000000
   18.84194565   74.40450287    1.69000006    2.75000000
   18.84500122   77.18019867    1.69000006    2.75000000
   18.84833336   77.05960083    1.69000006    2.75000000
   18.85166740   74.92990112    1.76999998    2.75000000
   18.85472298   76.63549805    1.76999998    2.75000000
   18.85805511   76.07289886    1.76999998    2.75000000
   18.86138916   74.05380249    1.76999998    2.75000000
   18.86444473   76.35859680    1.76999998    2.75000000
   18.86777878   73.27030182    1.76999998    2.75000000
   18.87083435   75.48829651    1.76999998    2.75000000
   18.87249947   74.28279877    1.76999998    2.75000000
   18.87694550   74.28279877    1.73000002    2.75000000
   18.88111115   77.43180084    1.73000002    2.75000000
   18.88444519   84.37899780    1.46000004    2.75000000
   18.88750076   72.65910339    2.19000006    2.75000000
   18.89083290   75.46330261    1.89999998    2.73000002
   18.89416695   76.02989960    1.89999998    2.73000002
   18.89722252   74.33529663    1.89999998    2.73000002
   18.90055466   76.33889771    1.89999998    2.73000002
   18.90361023   73.30840302    1.98000002    2.73000002
   18.90583229   76.77999878    1.98000002    2.73000002
   18.90749931   72.69110107    1.96000004    2.75000000
   18.91083336   74.70809937    2.51999998    2.73000002
   18.91388893   74.78679657    2.51999998    2.73000002
   18.91972160   74.78679657    2.51999998    2.73000002
   18.92388916   74.37709808    2.51999998    2.73000002
   18.92722130   74.33180237    2.51999998    2.73000002
   18.93055534   77.23560333    2.55999994    2.73000002
   18.93361092   82.58110046    2.82999992    2.73000002
   18.93694305   74.30180359    3.32999992    2.73000002
   18.93916512   72.83439636    2.96000004    2.73000002
   18.94055557   74.17320251    2.93000007    2.73000002
   18.94361115   73.04499817    2.48000002    2.73000002
   18.94694328   76.79129791    2.17000008    2.73000002
   18.95027924   76.05010223    2.15000010    2.73000002
   18.95333481   74.58149719    1.86000001    2.73000002
   18.95666695   73.35980225    1.86000001    2.73000002
   18.96250153   73.35980225    1.85000002    2.73000002
   18.96666718   72.63390350    1.73000002    2.75000000
   18.97000122   75.62680054    1.73000002    2.75000000
   18.97249985   77.35700226    1.66999996    2.75000000
   18.97361183   73.09580231    1.66999996    2.75000000
   18.97694588   81.08959961    1.55999994    2.75000000
   18.98000145   75.81919861    1.60000002    2.75000000
   18.98333359   75.33879852    1.58000004    2.73000002
   18.98638916   75.11969757    1.58000004    2.73000002
   18.98972321   77.59349823    1.58000004    2.73000002
   18.99305534   76.33209991    1.53999996    2.73000002
   18.99611092   72.07279968    1.50000000    2.75000000
   18.99944496   75.94100189    1.50000000    2.75000000
   19.00555611   75.94100189    1.46000004    2.73000002
   19.02388954   72.50330353    1.41999996    2.73000002
   19.02722168   74.19100189    1.41999996    2.73000002
   19.03027725   77.21710205    1.58000004    2.73000002
   19.03361130   71.93340302    1.75000000    2.75000000
   19.03666687   77.65429688    1.71000004    2.73000002
   19.03999901   73.78420258    1.71000004    2.73000002
   19.04333305   74.68440247    1.71000004    2.73000002
   19.04833221   74.68440247    1.75000000    2.73000002
   19.05249977   76.06529999    1.75000000    2.73000002
   19.05555534   81.15720367    1.75000000    2.73000002
   19.05694389   74.19589996    1.75000000    2.73000002
   19.05944443   79.19629669    1.75000000    2.73000002
   19.06250000   76.25450134    1.85000002    2.73000002
   19.06583214   79.03790283    1.85000002    2.73000002
   19.06916809   80.46540070    1.78999996    2.73000002
   19.07222366   75.35459900    1.78999996    2.73000002
   19.07555580   74.94999695    1.78999996    2.73000002
   19.07888985   74.08119965    1.83000004    2.73000002
   19.08194542   76.88770294    1.83000004    2.73000002
   19.08527756   72.61710358    1.83000004    2.73000002
   19.09111214   72.61710358    1.83000004    2.73000002
   19.09527779   74.98410034    1.83000004    2.73000002
   19.09861183   74.57019806    1.83000004    2.73000002
   19.10166740   74.69319916    1.83000004    2.73000002
   19.10499954   72.82129669    1.83000004    2.73000002
   19.10833359   76.94180298    1.83000004    2.73000002
   19.11138916   75.25630188    1.78999996    2.73000002
   19.11472321   73.84570313    1.78999996    2.73000002
   19.11805534   73.40579987    1.78999996    2.73000002
   19.12111092   75.16950226    1.78999996    2.73000002
   19.12361145   80.46410370    1.78999996    2.73000002
   19.12500000   75.41870117    1.51999998    2.73000002
   19.12805557   77.30930328    1.51999998    2.73000002
   19.13388824   77.30930328    3.41000009    2.71000004
   19.13805580   70.16459656    2.26999998    2.71000004
   19.14138794   74.23470306    1.80999994    2.73000002
   19.14472198   75.42340088    1.61000001    2.73000002
   19.14805603   75.07129669    1.61000001    2.73000002
   19.15111160   75.42739868    1.61000001    2.73000002
   19.15444374   76.94170380    1.61000001    2.73000002
   19.15694427   77.41459656    1.75000000    2.73000002
   19.15805435   77.33670044    1.75000000    2.73000002
   19.16110992   74.10620117    1.73000002    2.73000002
   19.16444397   73.92230225    2.00000000    2.71000004
   19.16777802   76.73480225    2.15000010    2.71000004
   19.17083359   74.04260254    2.55999994    2.73000002
   19.17694473   74.04260254    2.55999994    2.73000002
   19.18111038   74.51550293    2.55999994    2.73000002
   19.18416595   76.33899689    2.55999994    2.73000002
   19.18750000   76.21089935    2.55999994    2.73000002
   19.19027710   74.31999969    2.55999994    2.73000002
   19.19111061   78.69110107    2.55999994    2.73000002
   19.19416618   78.23429871    2.55999994    2.73000002
   19.19749832   80.52770233    2.55999994    2.73000002
   19.20083427   78.33570099    2.55999994    2.73000002
   19.20388985   78.18910217    2.59999990    2.71000004
   19.20722389   76.14409637    2.59999990    2.71000004
   19.21055603   75.67649841    2.59999990    2.71000004
   19.21361160   78.35379791    2.51999998    2.71000004
   19.21972275   78.35379791    2.51999998    2.71000004
   19.22389030   74.18049622    2.50000000    2.71000004
   19.22694588   74.90229797    2.67000008    2.71000004
   19.23027802   74.76719666    2.67000008    2.71000004
   19.23361206   74.67269897    2.57999992    2.71000004
   19.23694420   75.48919678    2.34999990    2.71000004
   19.23999977   75.39830017    2.46000004    2.71000004
   19.24333382   72.78130341    2.46000004    2.71000004
   19.24666786   74.71800232    2.32999992    2.71000004
   19.24972153   75.95899963    2.19000006    2.71000004
   19.25305557   71.93460083    2.17000008    2.71000004
   19.25638962   79.75830078    2.17000008    2.71000004
   19.25694466   76.07869720    2.17000008    2.71000004
   19.26250076   76.07869720    2.17000008    2.71000004
   19.26666641   74.34570313    2.07999992    2.71000004
   19.27000046   75.33070374    1.89999998    2.71000004
   19.27305603   73.87110138    2.00000000    2.71000004
   19.27638817   75.42610168    1.96000004    2.73000002
   19.27972221   74.84339905    1.96000004    2.73000002
   19.28277779   75.00199890    2.01999998    2.71000004
   19.28610992   75.02300262    1.80999994    2.71000004
   19.28944397   77.79170227    1.83000004    2.71000004
   19.29027748   72.73509979    1.83000004    2.71000004
   19.29305458   74.98400116    1.83000004    2.71000004
   19.29638863   78.62930298    1.83000004    2.71000004
   19.29944420   77.81400299    1.83000004    2.71000004
   19.30527687   77.81400299    1.91999996    2.71000004
   19.30944443   78.36509705    1.88000000    2.71000004
   19.31277657   74.01989746    1.88000000    2.71000004
   19.31611061   72.55789948    1.88000000    2.71000004
   19.31916809   74.05020142    1.88000000    2.71000004
   19.32250023   75.58409882    1.88000000    2.71000004
   19.32361221   75.07070160    1.88000000    2.71000004
   19.32611275   73.62580109    1.88000000    2.71000004
   19.32944489   73.20420074    2.01999998    2.71000004
   19.33250046   74.06790161    2.01999998    2.71000004
   19.33583450   75.98989868    2.01999998    2.71000004
   19.33889008   78.09850311    2.07999992    2.71000004
   19.34222221   78.61499786    2.07999992    2.71000004
   19.34833336   78.61499786    2.07999992    2.71000004
   19.35250092   74.46520233    2.07999992    2.71000004
   19.35555649   74.44239807    1.89999998    2.69000006
   19.35694504   75.52670288    1.89999998    2.69000006
   19.35944557   71.43530273    2.00000000    2.71000004
   19.36277771   74.14610291    2.00000000    2.71000004
   19.36583328   76.10649872    2.00000000    2.71000004
   19.36916733   75.67079926    2.00000000    2.71000004
   19.37249947   74.59400177    2.07999992    2.71000004
   19.37555504   75.82559967    1.76999998    2.69000006
   19.37888908   75.64589691    1.76999998    2.69000006
   19.38222313   79.78359985    1.76999998    2.69000006
   19.38555527   79.51059723    1.78999996    2.69000006
   19.39111137   79.51059723    1.71000004    2.71000004
   19.39527702   78.50740051    1.71000004    2.71000004
   19.39861107   75.73329926    1.73000002    2.69000006
   19.40166664   73.62220001    1.76999998    2.69000006
   19.40499878   73.19170380    1.78999996    2.71000004
   19.40833282   74.17949677    1.78999996    2.71000004
   19.41138840   75.21160126    1.78999996    2.71000004
   19.41472244   74.91809845    1.78999996    2.71000004
   19.41805458   79.99199677    1.78999996    2.71000004
   19.42111015   74.39679718    1.78999996    2.71000004
   19.42361069   74.99759674    1.78999996    2.71000004
   19.42499924   74.65390015    1.78999996    2.71000004
   19.42833328   76.29640198    1.78999996    2.71000004
   19.43388748   76.29640198    1.78999996    2.71000004
   19.43805504   72.05310059    1.78999996    2.71000004
   19.44138718   73.53759766    1.78999996    2.71000004
   19.44472122   72.19969940    1.78999996    2.71000004
   19.44777679   77.10279846    1.78999996    2.71000004
   19.45111275   77.67459869    1.78999996    2.71000004
   19.45444489   73.65740204    1.78999996    2.71000004
   19.45694542   75.36840057    1.80999994    2.69000006
   19.45805550   74.67130280    1.80999994    2.69000006
   19.46138954   74.48449707    1.80999994    2.69000006
   19.46444511   75.69689941    1.80999994    2.69000006
   19.46777916   73.88649750    1.80999994    2.69000006
   19.47111130   75.01349640    1.80999994    2.69000006
   19.47666740   75.01349640    1.80999994    2.69000006
   19.48083305   74.57859802    1.80999994    2.69000006
   19.48416710   75.75980377    1.78999996    2.69000006
   19.48750114   75.26570129    1.78999996    2.69000006
   19.49027824   75.78099823    1.78999996    2.69000006
   19.49111176   77.70330048    1.78999996    2.69000006
   19.49444389   76.43280029    1.78999996    2.69000006
   19.49749947   75.95629883    1.78999996    2.69000006
   19.50083351   75.67980194    1.78999996    2.69000006
   19.50388908   75.41049957    1.78999996    2.69000006
   19.50722313   74.85900116    1.78999996    2.69000006
   19.51055527   76.98020172    1.78999996    2.69000006
   19.51361084   78.84410095    1.69000006    2.71000004
   19.51972198   78.84410095    1.69000006    2.71000004
   19.52388954   75.68340302    1.69000006    2.71000004
   19.52694511   77.16190338    1.69000006    2.71000004
   19.53027725   73.40270233    1.69000006    2.71000004
   19.53333282   74.22599792    1.69000006    2.71000004
   19.53666687   75.25700378    1.73000002    2.69000006
   19.53999901   77.20120239    1.73000002    2.69000006
   19.54333305   79.82700348    1.73000002    2.69000006
   19.54638863   74.88420105    1.73000002    2.69000006
   19.54972076   73.80010223    1.73000002    2.69000006
   19.55305481   76.64839935    1.73000002    2.69000006
   19.55611038   75.61810303    1.73000002    2.69000006
   19.55694389   74.13780212    1.73000002    2.69000006
   19.56250000   74.13780212    1.73000002    2.69000006
   19.56666756   74.23619843    1.73000002    2.69000006
   19.56972313   78.57959747    1.73000002    2.69000006
   19.57305717   76.41100311    1.83000004    2.69000006
   19.57638931   78.43270111    1.83000004    2.69000006
   19.57972336   77.96309662    1.83000004    2.69000006
   19.58305550   74.83229828    1.83000004    2.69000006
   19.58611107   74.12509918    1.83000004    2.69000006
   19.58944511   72.56790161    1.83000004    2.69000006
   19.59027863   72.83110046    1.83000004    2.69000006
   19.59305573   76.83119965    1.83000004    2.69000006
   19.59638977   76.01170349    1.83000004    2.69000006
   19.59944534   75.37030029    1.83000004    2.69000006
   19.60527802   75.37030029    1.69000006    2.69000006
   19.60944557   73.97139740    1.69000006    2.69000006
   19.61277771   72.74359894    1.69000006    2.69000006
   19.61583328   73.32659912    1.69000006    2.69000006
   19.61916733   75.49250031    1.69000006    2.69000006
   19.62249947   77.44930267    2.26999998    2.67000008
   19.62361145   76.76750183    2.19000006    2.66000009
   19.62611198   75.56379700    2.23000002    2.67000008
   19.62944412   78.28369904    2.23000002    2.67000008
   19.63249969   75.97840118    2.23000002    2.67000008
   19.63583374   74.43959808    2.26999998    2.67000008
   19.63916588   76.90239716    2.36999989    2.67000008
   19.64222145   76.46360016    2.36999989    2.67000008
   19.64805603   76.46360016    2.36999989    2.67000008
   19.65222168   74.77639771    2.73000002    2.67000008
   19.65555573   74.79759979    2.57999992    2.66000009
   19.65916634   -1.00000000    2.46000004    2.67000008
   19.66222191   -1.00000000    2.42000008    2.67000008
   19.66555595   -1.00000000    2.34999990    2.67000008
   19.66888809   -1.00000000    2.21000004    2.67000008
   19.67194366   -1.00000000    2.21000004    2.67000008
   19.67527771   -1.00000000    2.69000006    2.66000009
   19.67833328   -1.00000000    2.84999990    2.66000009
   19.68166542   -1.00000000    2.80999994    2.67000008
   19.68499947   -1.00000000    2.80999994    2.67000008
   19.69499969   -1.00000000    2.76999998    2.66000009
   19.69833183   -1.00000000    2.76999998    2.66000009
   19.70138931   -1.00000000    2.76999998    2.66000009
   19.70472336   -1.00000000    2.76999998    2.66000009
   19.70805550   -1.00000000    2.82999992    2.67000008
   19.71111107   -1.00000000    2.89000010    2.66000009
   19.71444511   -1.00000000    2.89000010    2.66000009
   19.71777916   -1.00000000    2.89000010    2.66000009
   19.72083473   -1.00000000    2.64000010    2.66000009
   19.72444534   -1.00000000    2.64000010    2.66000009
   19.72750092   -1.00000000    2.55999994    2.66000009
   19.73777771   -1.00000000    2.09999990    2.67000008
   19.74111176   -1.00000000    2.26999998    2.66000009
   19.74444389   -1.00000000    2.26999998    2.66000009
   19.74749947   -1.00000000    2.26999998    2.66000009
   19.75083351   -1.00000000    2.26999998    2.66000009
   19.75416756   -1.00000000    2.23000002    2.67000008
   19.75777817   -1.00000000    2.23000002    2.67000008
   19.76083374   -1.00000000    2.21000004    2.66000009
   19.76416588   -1.00000000    2.21000004    2.66000009
   19.76749992   -1.00000000    2.21000004    2.66000009
   19.77055550   -1.00000000    2.09999990    2.67000008
   19.78083229   -1.00000000    2.05999994    2.66000009
   19.78388786   -1.00000000    2.13000011    2.66000009
   19.78722191   -1.00000000    2.13000011    2.66000009
   19.79083252   -1.00000000    2.11999989    2.66000009
   19.79388809   -1.00000000    2.07999992    2.66000009
   19.79722214   -1.00000000    1.91999996    2.64000010
   19.80055428   -1.00000000    2.01999998    2.66000009
   19.80360985   -1.00000000    2.01999998    2.66000009
   19.80694389   -1.00000000    2.01999998    2.66000009
   19.81027794   -1.00000000    2.01999998    2.66000009
   19.81333351   -1.00000000    2.05999994    2.66000009
   19.82416725   -1.00000000    2.34999990    2.64000010
   19.82722282   -1.00000000    2.42000008    2.64000010
   19.83055687   -1.00000000    2.42000008    2.64000010
   19.83388901   -1.00000000    2.48000002    2.64000010
   19.83694458   -1.00000000    2.48000002    2.64000010
   19.84027863   -1.00000000    2.48000002    2.64000010
   19.84361267   -1.00000000    2.46000004    2.64000010
   19.84666824   -1.00000000    2.46000004    2.64000010
   19.85000038   -1.00000000    2.46000004    2.64000010
   19.85333443   -1.00000000    2.46000004    2.64000010
   19.85639000   -1.00000000    2.46000004    2.64000010
   19.86638832   -1.00000000    2.19000006    2.64000010
   19.86972237   -1.00000000    2.15000010    2.64000010
   19.87305641   -1.00000000    2.13000011    2.66000009
   19.87611198   -1.00000000    2.15000010    2.64000010
   19.87944412   -1.00000000    2.15000010    2.64000010
   19.88249969   -1.00000000    2.15000010    2.64000010
   19.88583374   -1.00000000    2.15000010    2.64000010
   19.88916588   -1.00000000    2.05999994    2.64000010
   19.89277840   -1.00000000    2.05999994    2.64000010
   19.89583397   -1.00000000    2.05999994    2.64000010
   19.89916611   -1.00000000    2.05999994    2.64000010
   19.90944481   -1.00000000    2.11999989    2.64000010
   19.91250038   -1.00000000    2.09999990    2.64000010
   19.91583252   -1.00000000    2.13000011    2.64000010
   19.91888809   -1.00000000    2.17000008    2.64000010
   19.92222214   -1.00000000    2.17000008    2.64000010
   19.92583275   -1.00000000    2.17000008    2.64000010
   19.92888832   -1.00000000    2.21000004    2.64000010
   19.93222237   -1.00000000    2.25000000    2.64000010
   19.93555450   -1.00000000    2.36999989    2.64000010
   19.93861008   -1.00000000    2.46000004    2.61999989
   19.94194412   -1.00000000    2.46000004    2.61999989
   19.95222282   -1.00000000    2.44000006    2.61999989
   19.95527840   -1.00000000    2.44000006    2.61999989
   19.95916748   -1.00000000    2.42000008    2.61999989
   19.96222305   -1.00000000    2.42000008    2.61999989
   19.96555710   -1.00000000    2.42000008    2.61999989
   19.96888924   -1.00000000    2.42000008    2.61999989
   19.97194481   -1.00000000    2.36999989    2.61999989
   19.97527885   -1.00000000    2.40000010    2.61999989
   19.97861099   -1.00000000    2.40000010    2.61999989
   19.98166656   -1.00000000    2.42000008    2.61999989
   19.98500061   -1.00000000    2.42000008    2.61999989
   19.99500084   -1.00000000    2.42000008    2.61999989
   19.99833298   -1.00000000    2.42000008    2.61999989
   20.00138855   -1.00000000    2.57999992    2.61999989
   20.00472260   -1.00000000    2.57999992    2.61999989
   20.00805473   -1.00000000    2.61999989    2.61999989
   20.01111031   -1.00000000    2.61999989    2.61999989
   20.01444435   -1.00000000    2.48000002    2.61999989
   20.01777840   -1.00000000    2.48000002    2.61999989
   20.02083397   -1.00000000    2.51999998    2.61999989
   20.04055595   -1.00000000    2.53999996    2.61999989
   20.04888916   -1.00000000    2.55999994    2.59999990
   20.05194283   -1.00000000    2.66000009    2.61999989
   20.05527687   -1.00000000    2.51999998    2.59999990
   20.05888748   -1.00000000    2.44000006    2.61999989
   20.06222153   -1.00000000    2.46000004    2.59999990
   20.06527710   -1.00000000    2.32999992    2.61999989
   20.06861115   -1.00000000    2.19000006    2.61999989
   20.07194519   -1.00000000    2.17000008    2.61999989
   20.07500076   -1.00000000    2.17000008    2.61999989
   20.07833481   -1.00000000    2.09999990    2.61999989
   20.08166695   -1.00000000    2.13000011    2.61999989
   20.09166718   -1.00000000    2.00000000    2.61999989
   20.09500122   -1.00000000    1.94000006    2.61999989
   20.09805679   -1.00000000    1.78999996    2.59999990
   20.10138893   -1.00000000    1.83000004    2.59999990
   20.10444450   -1.00000000    1.85000002    2.61999989
   20.10777855   -1.00000000    1.76999998    2.59999990
   20.11111069   -1.00000000    1.75000000    2.59999990
   20.11416626   -1.00000000    1.75000000    2.59999990
   20.11750031   -1.00000000    1.75000000    2.59999990
   20.12083435   -1.00000000    1.73000002    2.61999989
   20.12416649   -1.00000000    1.73000002    2.61999989
   20.13444519   -1.00000000    1.73000002    2.59999990
   20.13777733   -1.00000000    1.73000002    2.59999990
   20.14111137   -1.00000000    1.76999998    2.59999990
   20.14416695   -1.00000000    1.83000004    2.59999990
   20.14749908   -1.00000000    1.83000004    2.59999990
   20.15055466   -1.00000000    1.78999996    2.59999990
   20.15388870   -1.00000000    1.78999996    2.59999990
   20.15749931   -1.00000000    1.76999998    2.59999990
   20.16083336   -1.00000000    1.75000000    2.59999990
   20.16388893   -1.00000000    1.75000000    2.59999990
   20.16722107   -1.00000000    1.73000002    2.59999990
   20.17722130   -1.00000000    1.75000000    2.59999990
   20.18055534   -1.00000000    1.75000000    2.57999992
   20.18388748   -1.00000000    1.76999998    2.59999990
   20.18694305   -1.00000000    1.76999998    2.59999990
   20.19027710   -1.00000000    1.75000000    2.59999990
   20.19388771   -1.00000000    1.76999998    2.59999990
   20.19722176   -1.00000000    1.76999998    2.59999990
   20.20055580   -1.00000000    1.75000000    2.59999990
   20.20361137   -1.00000000    1.75000000    2.59999990
   20.20694542   -1.00000000    1.75000000    2.59999990
   20.21000099   -1.00000000    1.75000000    2.59999990
   20.22027779   -1.00000000    1.80999994    2.57999992
   20.22333336   -1.00000000    1.80999994    2.57999992
   20.22694588   -1.00000000    1.80999994    2.57999992
   20.23027802   -1.00000000    1.80999994    2.57999992
   20.23361206   -1.00000000    1.80999994    2.57999992
   20.23666763   -1.00000000    1.80999994    2.57999992
   20.23999977   -1.00000000    1.80999994    2.57999992
   20.24333382   -1.00000000    1.80999994    2.57999992
   20.24638939   -1.00000000    1.80999994    2.57999992
   20.24972153   -1.00000000    1.80999994    2.57999992
   20.25277710   -1.00000000    1.80999994    2.57999992
   20.26305580   -1.00000000    2.00000000    2.57999992
   20.26638794   -1.00000000    2.00000000    2.57999992
   20.26944351   -1.00000000    2.00000000    2.57999992
   20.27277756   -1.00000000    1.98000002    2.57999992
   20.27583313   -1.00000000    2.00000000    2.55999994
   20.27916718   -1.00000000    2.00000000    2.57999992
   20.28249931   -1.00000000    2.01999998    2.55999994
   20.28555489   -1.00000000    2.01999998    2.55999994
   20.28888893   -1.00000000    2.01999998    2.57999992
   20.29222107   -1.00000000    2.03999996    2.55999994
   20.29555511   -1.00000000    2.03999996    2.55999994
   20.30583191   -1.00000000    2.00000000    2.55999994
   20.30916595   -1.00000000    1.98000002    2.55999994
   20.31222153   -1.00000000    2.00000000    2.57999992
   20.31555557   -1.00000000    2.00000000    2.55999994
   20.31888962   -1.00000000    2.03999996    2.55999994
   20.32194519   -1.00000000    2.01999998    2.55999994
   20.32555580   -1.00000000    2.03999996    2.55999994
   20.32888985   -1.00000000    2.07999992    2.55999994
   20.33222389   -1.00000000    2.05999994    2.55999994
   20.33527756   -1.00000000    2.05999994    2.55999994
   20.33861160   -1.00000000    2.07999992    2.55999994
