    HOUR (UT)   FLARE FACTOR    SKY TESTER    SUN TESTER
   11.49472237   -1.00000000   -1.00000000   -1.00000000
   11.51722240  170.87899780    3.05999994    1.86000001
   11.52055550  140.82699585    3.09999990    1.86000001
   11.52388859  172.72999573    3.16000009    1.86000001
   11.52694416  151.67999268    3.16000009    1.86000001
   11.53027725  147.09700012    3.18000007    1.86000001
   11.53361130  170.36399841    3.20000005    1.86000001
   11.53777790  170.36399841    3.18000007    1.86000001
   11.54166698  148.53799438    3.16000009    1.86000001
   11.54500008  139.16999817    3.14000010    1.88000000
   11.54833412  145.64399719    3.09999990    1.88000000
   11.55027771  141.04400635    3.07999992    1.88000000
   11.55194473  131.05299377    3.05999994    1.88000000
   11.55527782  123.38400269    2.98000002    1.89999998
   11.55833340  143.75100708    2.96000004    1.89999998
   11.56166649  128.77699280    2.94000006    1.89999998
   11.56500053  125.21900177    2.94000006    1.89999998
   11.56805515  123.80500031    2.93000007    1.89999998
   11.57138920  120.59999847    2.91000009    1.89999998
   11.57472229  125.40000153    2.93000007    1.89999998
   11.58055592  125.40000153    2.94000006    1.89999998
   11.58472157  131.72000122    2.96000004    1.91999996
   11.58777714  131.75399780    2.96000004    1.91999996
   11.59111118  116.26699829    2.96000004    1.91999996
   11.59444427  124.36299896    2.96000004    1.94000006
   11.59749985  124.98799896    2.94000006    1.91999996
   11.60083389  129.61300659    2.94000006    1.91999996
   11.60388947  126.50099945    2.96000004    1.94000006
   11.60722256  119.77400208    2.96000004    1.91999996
   11.61083412  135.71099854    2.98000002    1.94000006
   11.61416721  115.64700317    2.98000002    1.94000006
   11.61694431  122.93900299    2.98000002    1.94000006
   11.61777782  129.18200684    2.98000002    1.94000006
   11.62333393  129.18200684    2.98000002    1.94000006
   11.62750053  119.59799957    2.98000002    1.94000006
   11.63083363  127.75800323    3.00000000    1.96000004
   11.63388920  134.03999329    3.00000000    1.96000004
   11.63722229  123.41500092    3.00000000    1.96000004
   11.64027786  148.78999329    3.00000000    1.96000004
   11.64361095  139.57600403    3.01999998    1.96000004
   11.64694405  122.53099823    3.00000000    1.96000004
   11.64999962  116.27100372    2.98000002    1.96000004
   11.65055561  127.01300049    2.98000002    1.96000004
   11.65388870  118.58000183    2.98000002    1.98000002
   11.65694427  134.59700012    3.00000000    1.98000002
   11.66027737  129.19599915    3.01999998    1.98000002
   11.66611099  129.19599915    3.01999998    1.98000002
   11.67027855  117.71399689    2.96000004    2.00000000
   11.67361164  112.99700165    2.94000006    1.98000002
   11.67666721  108.01399994    2.91000009    2.00000000
   11.68000031  113.92700195    2.86999989    2.00000000
   11.68333340  109.08499908    2.86999989    2.00000000
   11.68388939  111.42700195    2.86999989    2.00000000
   11.68694496  127.08999634    2.86999989    2.00000000
   11.69000053  119.01999664    2.86999989    2.00000000
   11.69333363  127.92099762    2.86999989    2.01999998
   11.69666672  113.26399994    2.84999990    2.01999998
   11.69972229  106.01899719    2.82999992    2.01999998
   11.70305538  109.46299744    2.80999994    2.01999998
   11.70916653  109.46299744    2.80999994    2.01999998
   11.71305561  126.70800018    2.78999996    2.01999998
   11.71638870  118.06800079    2.82999992    2.01999998
   11.71722221  111.91200256    2.80999994    2.01999998
   11.71999931  107.30500031    2.82999992    2.01999998
   11.72305489  111.74500275    2.84999990    2.01999998
   11.72638798  114.72599792    2.82999992    2.03999996
   11.72972202  112.17099762    2.84999990    2.03999996
   11.73277760  120.43800354    2.84999990    2.03999996
   11.73611164  109.17800140    2.84999990    2.03999996
   11.73944473  111.05899811    2.84999990    2.03999996
   11.74250031  115.94799805    2.82999992    2.03999996
   11.74583340  107.35900116    2.84999990    2.03999996
   11.75194454  107.35900116    2.86999989    2.03999996
   11.75611115  111.27600098    2.86999989    2.03999996
   11.75916672  116.99400330    2.89000010    2.03999996
   11.76249981  107.68000031    2.89000010    2.05999994
   11.76555538  104.71800232    2.89000010    2.05999994
   11.76888847  108.17700195    2.86999989    2.05999994
   11.77222157  112.37999725    2.84999990    2.05999994
   11.77527714  121.15299988    2.82999992    2.05999994
   11.77861118  109.67800140    2.80999994    2.05999994
   11.78194427  104.61599731    2.78999996    2.07999992
   11.78388977  113.18099976    2.76999998    2.07999992
   11.78555584  112.76999664    2.76999998    2.07999992
   11.78861141  103.07700348    2.76999998    2.07999992
   11.79472256  103.07700348    2.75000000    2.07999992
   11.79888916  110.87400055    2.75000000    2.07999992
   11.80194473  102.60500336    2.73000002    2.07999992
   11.80527782  109.62999725    2.71000004    2.07999992
   11.80861092   96.38590240    2.69000006    2.07999992
   11.81166649   99.43569946    2.71000004    2.09999990
   11.81500053   96.51439667    2.75000000    2.09999990
   11.81722260   92.93299866    2.76999998    2.09999990
   11.81861115  101.55300140    2.78999996    2.07999992
   11.82166672  100.87500000    2.80999994    2.07999992
   11.82499981  100.61599731    2.80999994    2.09999990
   11.82833290   99.35150146    2.78999996    2.09999990
   11.83138847   95.98930359    2.78999996    2.09999990
   11.83749962   95.98930359    2.73000002    2.09999990
   11.84166622  100.32299805    2.69000006    2.09999990
   11.84499931   94.16320038    2.67000008    2.11999989
   11.84805489   97.11199951    2.67000008    2.09999990
   11.85055637   96.11990356    2.69000006    2.11999989
   11.85194492  111.92099762    2.67000008    2.11999989
   11.85500050   97.91719818    2.67000008    2.09999990
   11.85833359   90.86740112    2.67000008    2.11999989
   11.86166668   92.16459656    2.66000009    2.11999989
   11.86472225   93.36930084    2.61999989    2.11999989
   11.86805534   95.85579681    2.59999990    2.11999989
   11.87138939   91.16529846    2.55999994    2.13000011
   11.87444496  104.13999939    2.53999996    2.13000011
   11.88027763  104.13999939    2.48000002    2.13000011
   11.88444424   90.08039856    2.46000004    2.13000011
   11.88777733  100.48200226    2.44000006    2.13000011
   11.89111137   91.57080078    2.42000008    2.15000010
   11.89416695   91.41970062    2.42000008    2.15000010
   11.89750004   93.96929932    2.42000008    2.15000010
   11.90055561   97.26409912    2.40000010    2.15000010
   11.90388870   91.08080292    2.39000010    2.15000010
   11.90722179   89.79319763    2.40000010    2.17000008
   11.91027737   89.87529755    2.40000010    2.15000010
   11.91361046   95.22550201    2.40000010    2.15000010
   11.91694450  100.07099915    2.40000010    2.15000010
   11.91750050   96.90589905    2.40000010    2.15000010
   11.92333412   96.90589905    2.40000010    2.15000010
   11.92750072   97.39330292    2.40000010    2.15000010
   11.93055630  105.53900146    2.42000008    2.15000010
   11.93388939   95.22180176    2.44000006    2.17000008
   11.93722248   95.71469879    2.44000006    2.17000008
   11.94027805   96.21040344    2.44000006    2.17000008
   11.94361115   97.62650299    2.46000004    2.17000008
   11.94666672   95.90110016    2.44000006    2.17000008
   11.94999981   90.92829895    2.46000004    2.17000008
   11.95083332   99.08339691    2.46000004    2.17000008
   11.95361137   93.87280273    2.46000004    2.17000008
   11.95694447   93.74089813    2.42000008    2.17000008
   11.96000004   94.01409912    2.42000008    2.17000008
   11.96611118   94.01409912    2.40000010    2.17000008
   11.97027779   95.61360168    2.40000010    2.19000006
   11.97333336   90.87550354    2.39000010    2.19000006
   11.97666645   89.22399902    2.36999989    2.19000006
   11.97999954   91.93350220    2.34999990    2.19000006
   11.98305511   91.73329926    2.32999992    2.19000006
   11.98416710   98.73629761    2.30999994    2.21000004
   11.98666668   91.25440216    2.28999996    2.21000004
   11.99000072   95.52130127    2.28999996    2.19000006
   11.99305534   94.15029907    2.26999998    2.19000006
   11.99638939   92.86530304    2.26999998    2.21000004
   11.99972248   99.13120270    2.28999996    2.21000004
   12.00277805   98.12619781    2.30999994    2.21000004
   12.00888920   98.12619781    2.36999989    2.21000004
   12.01305580  104.81099701    2.36999989    2.21000004
   12.01638889   91.96820068    2.36999989    2.21000004
   12.01749992   93.30460358    2.36999989    2.21000004
   12.01972198   91.65730286    2.36999989    2.21000004
   12.02305508   92.73310089    2.36999989    2.21000004
   12.02611065   90.97579956    2.34999990    2.21000004
   12.02944374   88.16970062    2.36999989    2.21000004
   12.03277779   89.51760101    2.36999989    2.21000004
   12.03583336   99.02310181    2.36999989    2.23000002
   12.03916740  102.65200043    2.34999990    2.23000002
   12.04250050   93.34369659    2.32999992    2.23000002
   12.04555607  102.04000092    2.30999994    2.23000002
   12.05166721  102.04000092    2.34999990    2.23000002
   12.05583382  101.48300171    2.34999990    2.21000004
   12.05916691   97.05349731    2.34999990    2.23000002
   12.06250000   87.42400360    2.32999992    2.23000002
   12.06555557   94.42729950    2.28999996    2.23000002
   12.06888866   90.70400238    2.28999996    2.23000002
   12.07194424   92.29609680    2.26999998    2.23000002
   12.07527733   91.64800262    2.26999998    2.23000002
   12.07861137   96.71900177    2.25000000    2.25000000
   12.08166695   86.60459900    2.21000004    2.25000000
   12.08416653   93.16190338    2.21000004    2.25000000
   12.08527756   90.30789948    2.19000006    2.25000000
   12.08861065   89.52799988    2.17000008    2.25000000
   12.09472179   89.52799988    2.15000010    2.25000000
   12.09888840   87.37039948    2.13000011    2.25000000
   12.10194492   89.65570068    2.13000011    2.26999998
   12.10527802   91.69809723    2.15000010    2.26999998
   12.10833359   89.70310211    2.19000006    2.25000000
   12.11166668   89.95469666    2.23000002    2.26999998
   12.11500072   85.54949951    2.25000000    2.25000000
   12.11750031   86.23390198    2.26999998    2.25000000
   12.11861134   88.58280182    2.28999996    2.25000000
   12.12194443   88.26989746    2.28999996    2.25000000
   12.12500000   87.61319733    2.30999994    2.25000000
   12.12833309   88.10500336    2.30999994    2.26999998
   12.13166714   93.05380249    2.30999994    2.25000000
   12.13749981   93.05380249    2.28999996    2.25000000
   12.14166641   93.00599670    2.26999998    2.26999998
   12.14472198   83.76139832    2.25000000    2.26999998
   12.14805508   88.24700165    2.21000004    2.26999998
   12.15083313   87.09149933    2.19000006    2.28999996
   12.15166664   87.11199951    2.21000004    2.26999998
   12.15499973   87.76229858    2.19000006    2.28999996
   12.15805531   85.76709747    2.17000008    2.28999996
   12.16138840   86.60880280    2.11999989    2.28999996
   12.16472149   86.83309937    2.09999990    2.26999998
   12.16777802   88.71080017    2.09999990    2.26999998
   12.17111111   92.46230316    2.09999990    2.28999996
   12.17444515   88.93229675    2.11999989    2.28999996
   12.18027782   88.93229675    2.15000010    2.28999996
   12.18444443   97.62280273    2.15000010    2.28999996
   12.18777752   85.03820038    2.13000011    2.28999996
   12.19083309   83.59249878    2.15000010    2.28999996
   12.19416714   86.82340240    2.13000011    2.30999994
   12.19722271   88.85510254    2.15000010    2.30999994
   12.20055580   91.34880066    2.15000010    2.30999994
   12.20388889   82.04409790    2.13000011    2.30999994
   12.20694447  102.54799652    2.13000011    2.30999994
   12.21027756   84.09809875    2.15000010    2.28999996
   12.21361065   90.68250275    2.15000010    2.30999994
   12.21666622   86.40480042    2.17000008    2.30999994
   12.21749973   88.38359833    2.15000010    2.30999994
   12.22305489   88.38359833    2.17000008    2.30999994
   12.22722149   83.84559631    2.17000008    2.30999994
   12.23055553   87.19049835    2.15000010    2.30999994
   12.23361111   88.70130157    2.15000010    2.30999994
   12.23694515   85.89499664    2.11999989    2.30999994
   12.24027824   88.45369720    2.09999990    2.30999994
   12.24333382   98.73280334    2.09999990    2.30999994
   12.24666691   98.45890045    2.07999992    2.30999994
   12.25000000   93.85009766    2.05999994    2.30999994
   12.25083351   89.04270172    2.05999994    2.32999992
   12.25333309   91.74949646    2.05999994    2.32999992
   12.25666714   91.53440094    2.05999994    2.30999994
   12.26000023   82.50720215    2.05999994    2.32999992
   12.26611137   82.50720215    2.03999996    2.32999992
   12.26999950   87.39790344    2.03999996    2.32999992
   12.27333355   95.66200256    2.05999994    2.32999992
   12.27666664   88.93820190    2.01999998    2.32999992
   12.27972221   87.28230286    2.01999998    2.32999992
   12.28305531   90.84429932    1.98000002    2.32999992
   12.28416729   86.03749847    1.98000002    2.32999992
   12.28666687   83.08820343    1.98000002    2.32999992
   12.29000092   84.08529663    1.94000006    2.32999992
   12.29333401   88.43569946    1.94000006    2.32999992
   12.29638958   91.59980011    1.94000006    2.36999989
   12.29972267   86.41719818    1.94000006    2.36999989
   12.30277824   97.57450104    1.91999996    2.34999990
   12.30888939   97.57450104    1.96000004    2.34999990
   12.31305599   86.61560059    2.00000000    2.34999990
   12.31611156   83.17050171    2.03999996    2.34999990
   12.31750011   83.46040344    2.01999998    2.34999990
   12.31972218   90.72399902    2.03999996    2.34999990
   12.32305527   84.34580231    2.03999996    2.34999990
   12.32638836   92.13289642    2.03999996    2.34999990
   12.32944393   87.88079834    2.01999998    2.34999990
   12.33277798   84.14890289    2.00000000    2.34999990
   12.33583260   83.40209961    2.00000000    2.34999990
   12.33916664   86.47170258    2.00000000    2.36999989
   12.34249973   87.06459808    2.01999998    2.34999990
   12.34555531   90.82530212    2.00000000    2.36999989
   12.35166740   90.82530212    2.00000000    2.36999989
   12.35583401   85.67199707    2.00000000    2.34999990
   12.35916710   87.10510254    2.00000000    2.36999989
   12.36222267   89.65850067    1.98000002    2.36999989
   12.36555576   83.61769867    2.00000000    2.36999989
   12.36888885   85.01100159    2.00000000    2.36999989
   12.37194443   86.41480255    1.98000002    2.36999989
   12.37527752   85.51930237    1.98000002    2.36999989
   12.37861156   91.29260254    1.96000004    2.36999989
   12.38166714   79.65110016    1.96000004    2.36999989
   12.38416672   84.96440125    1.96000004    2.36999989
   12.38527775   83.15110016    1.96000004    2.36999989
   12.38861084   82.65260315    1.94000006    2.39000010
   12.39444447   82.65260315    1.91999996    2.36999989
   12.39861107   84.18289948    1.91999996    2.39000010
   12.40194416   83.09049988    1.89999998    2.36999989
   12.40499973   89.36190033    1.91999996    2.36999989
   12.40833282   85.95819855    1.91999996    2.36999989
   12.41166592   80.80989838    1.89999998    2.39000010
   12.41472149   86.87650299    1.89999998    2.39000010
   12.41750050   84.11910248    1.89999998    2.39000010
   12.41833401   82.02639771    1.89999998    2.36999989
   12.42166710   85.05470276    1.88000000    2.39000010
   12.42500019   83.27989960    1.88000000    2.39000010
   12.42805576   82.62550354    1.91999996    2.39000010
   12.43138885   85.96160126    1.91999996    2.39000010
   12.43750000   85.96160126    1.91999996    2.39000010
   12.44166660   84.84239960    1.91999996    2.39000010
   12.44472218   80.89450073    1.94000006    2.39000010
   12.44805527   82.78769684    1.94000006    2.39000010
   12.45083332   81.28679657    1.94000006    2.39000010
   12.45166683   86.99749756    1.94000006    2.39000010
   12.45499992   82.35070038    1.91999996    2.39000010
   12.45833302   84.81150055    1.91999996    2.39000010
   12.46138859   81.20780182    1.89999998    2.39000010
   12.46472168   85.23010254    1.91999996    2.39000010
   12.46777725   79.84190369    1.89999998    2.39000010
   12.47111034   84.38279724    1.88000000    2.39000010
   12.47444439   85.57890320    1.88000000    2.39000010
   12.48027706   85.57890320    1.83000004    2.40000010
   12.48444462   79.67620087    1.78999996    2.39000010
   12.48750019   80.80120087    1.76999998    2.40000010
   12.49083328   84.25620270    1.75000000    2.40000010
   12.49416733   85.15899658    1.75000000    2.40000010
   12.49722290   82.33979797    1.75000000    2.40000010
   12.50083351   82.95439911    1.75000000    2.40000010
   12.50388908   81.87339783    1.75000000    2.40000010
   12.50722218   85.43869781    1.76999998    2.42000008
   12.51055527   86.91040039    1.75000000    2.40000010
   12.51361084   83.70899963    1.75000000    2.42000008
   12.51694393   83.68550110    1.75000000    2.40000010
   12.51749992   86.06130219    1.75000000    2.42000008
   12.53805637   86.06130219    1.63000000    2.44000006
   12.54222298   87.53869629    1.64999998    2.42000008
   12.54555607   87.82409668    1.66999996    2.44000006
   12.54861164   88.60169983    1.66999996    2.42000008
   12.55083370   81.82759857    1.66999996    2.42000008
   12.55222225   83.68070221    1.66999996    2.42000008
   12.55555534   85.52880096    1.69000006    2.42000008
   12.55888939   87.65419769    1.73000002    2.44000006
   12.56194496   92.08619690    1.75000000    2.42000008
   12.56527805   85.87689972    1.78999996    2.40000010
   12.56861115   85.22270203    1.80999994    2.42000008
   12.57166672   87.68979645    1.78999996    2.42000008
   12.57499981   88.22799683    1.78999996    2.42000008
   12.58083344   88.22799683    1.75000000    2.44000006
   12.58500004   80.45079803    1.75000000    2.42000008
   12.58833313   86.63130188    1.73000002    2.44000006
   12.59138870   86.47399902    1.71000004    2.42000008
   12.59472179   84.36309814    1.71000004    2.44000006
   12.59805489   83.29599762    1.71000004    2.44000006
   12.60111141   85.70780182    1.71000004    2.44000006
   12.60444450   92.27179718    1.71000004    2.44000006
   12.60750008   82.56759644    1.71000004    2.44000006
   12.61083412   83.62950134    1.71000004    2.44000006
   12.61416721   83.23410034    1.69000006    2.42000008
   12.61722279   88.41200256    1.66999996    2.44000006
   12.61777782   85.51689911    1.66999996    2.44000006
   12.62361145   85.51689911    1.63000000    2.44000006
   12.62777805   86.33760071    1.61000001    2.44000006
   12.63111115   80.96209717    1.63000000    2.44000006
   12.63444424   85.14640045    1.61000001    2.46000004
   12.63749981   84.20529938    1.63000000    2.46000004
   12.64083290   81.87229919    1.64999998    2.46000004
   12.64388847   85.08899689    1.66999996    2.44000006
   12.64722252   81.29229736    1.69000006    2.44000006
   12.65055561   82.28589630    1.69000006    2.46000004
   12.65111065   84.56870270    1.69000006    2.44000006
   12.65416622   79.56559753    1.69000006    2.44000006
   12.65749931   83.65670013    1.69000006    2.44000006
   12.66055489   83.86810303    1.69000006    2.44000006
   12.66666698   83.86810303    1.64999998    2.46000004
   12.67083359   82.57830048    1.64999998    2.46000004
   12.67388916   84.79750061    1.60000002    2.46000004
   12.67722225   81.21179962    1.60000002    2.46000004
   12.68027782   85.15499878    1.61000001    2.46000004
   12.68361092   82.43560028    1.61000001    2.46000004
   12.68444443   86.34960175    1.61000001    2.46000004
   12.68722248   83.89109802    1.63000000    2.46000004
   12.69055557   85.81500244    1.64999998    2.48000002
   12.69361115   83.32379913    1.63000000    2.46000004
   12.69694424   89.95359802    1.64999998    2.46000004
   12.69999981   82.25900269    1.64999998    2.46000004
   12.70333290   89.92610168    1.64999998    2.46000004
   12.70944405   89.92610168    1.64999998    2.46000004
   12.71361065   80.59169769    1.61000001    2.46000004
   12.71666622   79.43640137    1.60000002    2.46000004
   12.71777725   79.81829834    1.60000002    2.46000004
   12.72027779   80.35949707    1.58000004    2.48000002
   12.72361088   80.29190063    1.58000004    2.48000002
   12.72666645   79.71679688    1.58000004    2.48000002
   12.72999954   81.59089661    1.58000004    2.48000002
   12.73305511   84.18370056    1.58000004    2.46000004
   12.73638916   81.05930328    1.58000004    2.48000002
   12.73972225   81.16719818    1.58000004    2.46000004
   12.74277782   85.66860199    1.55999994    2.46000004
   12.74611092   80.91989899    1.55999994    2.46000004
   12.75222206   80.91989899    1.60000002    2.48000002
   12.75638866   81.22499847    1.61000001    2.48000002
   12.75972176   84.30650330    1.61000001    2.46000004
   12.76277733   87.64990234    1.60000002    2.48000002
   12.76611137   78.30740356    1.61000001    2.48000002
   12.76916599   79.44920349    1.58000004    2.48000002
   12.77250004   79.90779877    1.58000004    2.48000002
   12.77583313   80.81960297    1.61000001    2.48000002
   12.77888870   93.64489746    1.61000001    2.48000002
   12.78222179   83.74720001    1.63000000    2.48000002
   12.78444481   88.69419861    1.64999998    2.48000002
   12.78583336   87.91619873    1.64999998    2.46000004
   12.78916740   81.40820313    1.64999998    2.48000002
   12.79500008   81.40820313    1.64999998    2.46000004
   12.79916668   82.25340271    1.66999996    2.48000002
   12.80249977   84.28389740    1.66999996    2.48000002
   12.80555534   84.32140350    1.66999996    2.48000002
   12.80888939   82.07009888    1.64999998    2.48000002
   12.81222248   82.09369659    1.64999998    2.48000002
   12.81527805   87.36609650    1.66999996    2.48000002
   12.81777763   81.50789642    1.66999996    2.48000002
   12.81888866   79.41790009    1.66999996    2.48000002
   12.82222176   84.32489777    1.69000006    2.48000002
   12.82527733   81.47920227    1.71000004    2.48000002
   12.82861137   83.77610016    1.69000006    2.48000002
   12.83166695   83.06159973    1.69000006    2.48000002
   12.83805561   83.06159973    1.63000000    2.48000002
   12.84222221   82.29109955    1.58000004    2.48000002
   12.84527779   81.54309845    1.58000004    2.50000000
   12.84861088   80.20739746    1.58000004    2.50000000
   12.85111141   82.67099762    1.58000004    2.50000000
   12.85222244   83.27249908    1.58000004    2.50000000
   12.85555553   82.59619904    1.58000004    2.50000000
   12.85861111   82.54640198    1.55999994    2.50000000
   12.86194515   81.59470367    1.58000004    2.50000000
   12.86527824   80.59750366    1.58000004    2.50000000
   12.86833382   84.90299988    1.58000004    2.50000000
   12.87166691   82.93430328    1.55999994    2.51999998
   12.87500000   77.93289948    1.55999994    2.50000000
   12.88083363   77.93289948    1.51999998    2.50000000
   12.88500023   81.51429749    1.50000000    2.50000000
   12.88805580   82.06610107    1.50000000    2.50000000
   12.89138889   80.86699677    1.48000002    2.50000000
   12.89472198   82.50810242    1.50000000    2.50000000
   12.89777756   81.36489868    1.51999998    2.50000000
   12.90111065   78.88430023    1.51999998    2.50000000
   12.90444374   82.69719696    1.53999996    2.50000000
   12.90749931   78.99240112    1.53999996    2.51999998
   12.91083336   82.34619904    1.53999996    2.50000000
   12.91388893   79.62339783    1.53999996    2.51999998
   12.91722298   79.39469910    1.55999994    2.50000000
   12.91777802   78.98519897    1.55999994    2.50000000
   12.92361164   78.98519897    1.51999998    2.50000000
   12.92777824   87.90540314    1.51999998    2.50000000
   12.93111134   82.97290039    1.50000000    2.50000000
   12.93416691   79.71939850    1.48000002    2.50000000
   12.93750000   79.60620117    1.50000000    2.50000000
   12.94055557   78.86720276    1.50000000    2.51999998
   12.94388866   83.57710266    1.48000002    2.51999998
   12.94722271   78.91519928    1.46000004    2.51999998
   12.95027733   80.43669891    1.44000006    2.51999998
   12.95111084   79.46279907    1.44000006    2.51999998
   12.95388889   81.17259979    1.44000006    2.53999996
   12.95722198   79.13800049    1.48000002    2.50000000
   12.96055508   82.60620117    1.50000000    2.51999998
   12.96638870   82.60620117    1.50000000    2.50000000
   12.97055531   79.13369751    1.48000002    2.51999998
   12.97388840   82.65480042    1.46000004    2.51999998
   12.97694397   76.21209717    1.39999998    2.51999998
   12.98027706   81.03620148    1.38000000    2.53999996
   12.98361111   79.13110352    1.38000000    2.51999998
   12.98444462   78.91790009    1.38000000    2.51999998
   12.98722267   80.16899872    1.38000000    2.51999998
   12.99055576   79.52339935    1.39999998    2.51999998
   12.99361134   82.41929626    1.41999996    2.53999996
   12.99694443   80.06320190    1.41999996    2.51999998
   13.00027752   78.03849792    1.44000006    2.51999998
   13.00333309   77.29810333    1.44000006    2.51999998
   13.00944424   77.29810333    1.44000006    2.51999998
   13.01361084   78.90409851    1.41999996    2.53999996
   13.01666641   78.08850098    1.41999996    2.53999996
   13.01777744   79.09519958    1.39999998    2.53999996
   13.02027798   79.82630157    1.39999998    2.53999996
   13.02361107   83.12799835    1.41999996    2.51999998
   13.02666664   81.14340210    1.44000006    2.51999998
   13.02999973   81.72509766    1.44000006    2.53999996
   13.03333378   83.17189789    1.44000006    2.53999996
   13.03638935   82.48190308    1.44000006    2.53999996
   13.03972244   80.33119965    1.39999998    2.53999996
   13.04277802   80.73010254    1.38000000    2.53999996
   13.04611111   81.56510162    1.38000000    2.53999996
   13.05222225   81.56510162    1.36000001    2.53999996
   13.05638885   80.08930206    1.34000003    2.53999996
   13.05944443   82.13359833    1.36000001    2.51999998
   13.06277752   83.60260010    1.36000001    2.53999996
   13.06611156   82.01499939    1.36000001    2.53999996
   13.06916618   82.68900299    1.36000001    2.53999996
   13.07250023   78.86799622    1.36000001    2.53999996
   13.07555580   79.94699860    1.36000001    2.53999996
   13.07888889   80.88870239    1.36000001    2.53999996
   13.08222198   82.92819977    1.36000001    2.53999996
   13.08444405   82.29969788    1.38000000    2.53999996
   13.08583260   79.96959686    1.39999998    2.53999996
   13.08916664   82.25499725    1.39999998    2.55999994
   13.09499931   82.25499725    1.38000000    2.53999996
   13.09916592   83.19789886    1.38000000    2.53999996
   13.10249996   81.82720184    1.38000000    2.53999996
   13.10555553   83.17479706    1.36000001    2.55999994
   13.10888958   82.44110107    1.36000001    2.55999994
   13.11194515   85.69570160    1.36000001    2.53999996
   13.11527824   77.42769623    1.39999998    2.53999996
   13.11805534   80.41010284    1.39999998    2.53999996
   13.11888885   80.52459717    1.39999998    2.55999994
   13.12222195   80.30120087    1.39999998    2.55999994
   13.12555599   77.13569641    1.39999998    2.53999996
   13.12861156   84.46810150    1.39999998    2.53999996
   13.13194466   86.50939941    1.39999998    2.53999996
   13.13777733   86.50939941    1.38000000    2.55999994
   13.14194393   78.10379791    1.33000004    2.55999994
   13.14527798   83.19149780    1.34000003    2.55999994
   13.14833355   87.03009796    1.33000004    2.57999992
   13.15138817   85.11039734    1.33000004    2.55999994
   13.15194416   82.80809784    1.33000004    2.55999994
   13.15527725   80.96179962    1.33000004    2.55999994
   13.15833282   81.69470215    1.33000004    2.55999994
   13.16166592   82.26429749    1.33000004    2.55999994
   13.16499996   80.95069885    1.33000004    2.55999994
   13.16805553   77.46559906    1.33000004    2.55999994
   13.17138958   78.96739960    1.33000004    2.55999994
   13.17444515   81.86630249    1.33000004    2.55999994
   13.18083382   81.86630249    1.36000001    2.55999994
   13.18500042   84.64749908    1.38000000    2.55999994
   13.18805599   76.72979736    1.39999998    2.57999992
   13.19138908   79.68260193    1.39999998    2.55999994
   13.19444466   81.85790253    1.34000003    2.55999994
   13.19777775   85.41850281    1.34000003    2.55999994
   13.20111084   82.70040131    1.33000004    2.55999994
   13.20416641   82.97059631    1.30999994    2.55999994
   13.20749950   82.16999817    1.28999996    2.57999992
   13.21083355   81.71810150    1.28999996    2.55999994
   13.21388912   80.31849670    1.28999996    2.57999992
   13.21722221   79.69580078    1.28999996    2.55999994
   13.21805477   82.68979645    1.33000004    2.57999992
   13.22361088   82.68979645    1.33000004    2.55999994
   13.22777748   83.88659668    1.28999996    2.57999992
   13.23083305   80.26860046    1.26999998    2.57999992
   13.23416710   79.14469910    1.26999998    2.57999992
   13.23750019   79.07499695    1.26999998    2.57999992
   13.24055576   80.41850281    1.21000004    2.57999992
   13.24388885   79.64430237    1.21000004    2.55999994
   13.24694443   80.19190216    1.23000002    2.57999992
   13.25027752   78.01300049    1.23000002    2.57999992
   13.25138855   79.81719971    1.25000000    2.57999992
   13.25388908   79.66850281    1.25000000    2.57999992
   13.25722218   77.92539978    1.26999998    2.57999992
   13.26027775   79.99960327    1.30999994    2.57999992
   13.26638889   79.99960327    1.33000004    2.57999992
   13.27055550   88.27870178    1.33000004    2.57999992
   13.27388859   84.43959808    1.33000004    2.57999992
   13.27694416   78.47519684    1.30999994    2.57999992
   13.28027725   81.96810150    1.30999994    2.57999992
   13.28333378   80.12390137    1.33000004    2.57999992
   13.28472233   82.33550262    1.33000004    2.57999992
   13.28694534   81.67389679    1.28999996    2.57999992
   13.29027843   83.97930145    1.25000000    2.59999990
   13.29333401   82.38860321    1.25000000    2.57999992
   13.29666710   78.98329926    1.25000000    2.59999990
   13.30000019   79.37989807    1.23000002    2.59999990
   13.30305576   81.15899658    1.23000002    2.55999994
   13.30916691   81.15899658    1.21000004    2.57999992
   13.31333351   79.43070221    1.23000002    2.57999992
   13.31694412   79.54640198    1.21000004    2.57999992
   13.31805515   82.00219727    1.21000004    2.57999992
   13.32027817   78.08450317    1.21000004    2.59999990
   13.32361126   78.84130096    1.23000002    2.57999992
   13.32694435   82.54460144    1.23000002    2.59999990
   13.32999992   79.13220215    1.23000002    2.59999990
   13.33333302   80.46019745    1.23000002    2.57999992
   13.33666611   78.99169922    1.23000002    2.59999990
   13.33972168   86.29429626    1.26999998    2.57999992
   13.34305477   81.59439850    1.30999994    2.59999990
   13.34638882   78.28469849    1.28999996    2.57999992
   13.35222244   78.28469849    1.28999996    2.59999990
   13.35611153   86.10749817    1.26999998    2.57999992
   13.35944462   82.40820313    1.28999996    2.59999990
   13.36305618   80.51779938    1.26999998    2.59999990
   13.36638927   79.03430176    1.26999998    2.59999990
   13.36944485   82.03230286    1.26999998    2.59999990
   13.37277794   78.21630096    1.25000000    2.59999990
   13.37611103   77.71800232    1.25000000    2.59999990
   13.37916660   76.95349884    1.25000000    2.59999990
   13.38249969   79.27230072    1.23000002    2.59999990
   13.38472176   79.04319763    1.21000004    2.59999990
   13.38611126   81.52950287    1.21000004    2.59999990
   13.38944435   78.06590271    1.13000000    2.59999990
   13.39527798   78.06590271    1.11000001    2.59999990
   13.39916611   83.51159668    1.09000003    2.59999990
   13.40249920   78.82599640    1.11000001    2.59999990
   13.40583324   78.80010223    1.11000001    2.61999989
   13.40888882   77.12809753    1.13000000    2.59999990
   13.41222191   80.87539673    1.14999998    2.59999990
   13.41527748   79.58699799    1.14999998    2.59999990
   13.41805553   78.67089844    1.19000006    2.59999990
   13.41888905   79.87830353    1.19000006    2.59999990
   13.42222214   80.05480194    1.19000006    2.59999990
   13.42527771   80.12570190    1.19000006    2.61999989
   13.42861176   76.39240265    1.23000002    2.61999989
   13.43194485   77.71900177    1.25000000    2.61999989
   13.43777752   77.71900177    1.25000000    2.61999989
   13.44194412   75.79989624    1.26999998    2.59999990
   13.44527817   80.31479645    1.30999994    2.61999989
   13.44833374   76.67600250    1.28999996    2.59999990
   13.45138836   79.02069855    1.28999996    2.59999990
   13.45194435   75.18029785    1.28999996    2.59999990
   13.45527744   77.07589722    1.19000006    2.61999989
   13.45833302   77.19370270    1.16999996    2.61999989
   13.46166611   76.82559967    1.14999998    2.61999989
   13.46500015   76.94830322    1.14999998    2.61999989
   13.46805477   80.44830322    1.14999998    2.61999989
   13.47138882   77.63410187    1.21000004    2.61999989
   13.47472191   77.06240082    1.23000002    2.59999990
   13.48055553   77.06240082    1.26999998    2.61999989
   13.48472214   78.04530334    1.28999996    2.61999989
   13.48805618   81.01119995    1.28999996    2.59999990
   13.49111176   75.13400269    1.28999996    2.59999990
   13.49444485   77.74819946    1.28999996    2.59999990
   13.49777794   78.24440002    1.28999996    2.59999990
   13.50083351   78.55460358    1.28999996    2.59999990
   13.50416660   76.44830322    1.26999998    2.61999989
   13.50749969   78.33270264    1.26999998    2.61999989
   13.51055527   77.67120361    1.28999996    2.61999989
   13.51388931   79.12470245    1.28999996    2.61999989
   13.51722240   81.37670135    1.28999996    2.59999990
   13.51805496   79.74839783    1.28999996    2.59999990
   13.52361107   79.74839783    1.26999998    2.61999989
   13.52750015   82.71540070    1.26999998    2.59999990
   13.53083324   77.95899963    1.28999996    2.61999989
   13.53416729   81.02510071    1.28999996    2.59999990
   13.55166721   80.20939636    1.25000000    2.61999989
   13.55416679   79.54509735    1.25000000    2.61999989
   13.55722237   81.21510315    1.23000002    2.61999989
   13.56055546   76.76909637    1.16999996    2.61999989
   13.56638908   76.76909637    1.13000000    2.64000010
   13.57055569   81.32369995    1.14999998    2.64000010
   13.57388878   78.89260101    1.14999998    2.61999989
   13.57722187   76.98549652    1.21000004    2.64000010
   13.58027744   80.24579620    1.21000004    2.64000010
   13.58361053   77.25640106    1.25000000    2.64000010
   13.58500004   78.45349884    1.26999998    2.61999989
   13.58694458   77.81459808    1.26999998    2.61999989
   13.59027767   76.53260040    1.26999998    2.59999990
   13.59361076   77.29440308    1.30999994    2.61999989
   13.59666634   79.14499664    1.33000004    2.59999990
   13.60000038   78.10260010    1.34000003    2.61999989
   13.60333347   79.26460266    1.34000003    2.61999989
   13.60944462   79.26460266    1.33000004    2.61999989
   13.61361122   76.44930267    1.30999994    2.59999990
   13.61666679   76.42400360    1.28999996    2.64000010
   13.61833382   78.06950378    1.28999996    2.64000010
   13.62027836   77.79519653    1.26999998    2.64000010
   13.62361145   76.62149811    1.25000000    2.61999989
   13.62694454   75.42099762    1.25000000    2.64000010
   13.63000011   76.19969940    1.23000002    2.64000010
   13.63333321   77.37529755    1.23000002    2.61999989
   13.63666630   77.23229980    1.21000004    2.64000010
   13.63972187   76.27719879    1.19000006    2.61999989
   13.64305496   75.08219910    1.14999998    2.64000010
   13.64638901   79.40000153    1.14999998    2.64000010
   13.65222168   79.40000153    1.14999998    2.64000010
   13.65638828   74.60440063    1.05999994    2.64000010
   13.65944386   79.22679901    1.05999994    2.66000009
   13.66277695   75.83930206    0.98000002    2.64000010
   13.66611099   76.42299652    1.00000000    2.66000009
   13.66916656   78.54070282    1.01999998    2.64000010
   13.67250061   77.41120148    1.01999998    2.66000009
   13.67583370   79.62740326    1.05999994    2.64000010
   13.67888927   74.54100037    1.07000005    2.64000010
   13.68222237   76.94390106    1.07000005    2.64000010
   13.68500042   75.45030212    1.07000005    2.64000010
   13.68555546   74.84519958    1.09000003    2.66000009
   13.68888855   85.33769989    1.09000003    2.64000010
   13.69499969   85.33769989    1.03999996    2.64000010
   13.69916630   78.62400055    1.00000000    2.67000008
   13.70249939   78.23120117    0.95999998    2.64000010
   13.70555496   79.15039825    0.94000000    2.66000009
   13.70888901   82.69519806    0.92000002    2.66000009
   13.71222210   78.17590332    0.92000002    2.66000009
   13.71527767   76.66419983    0.89999998    2.66000009
   13.71833324   77.31109619    0.88000000    2.67000008
   13.71888828   77.27580261    0.88000000    2.67000008
   13.72222137   77.65760040    0.88000000    2.67000008
   13.72555542   78.25379944    0.88000000    2.66000009
   13.72861099   74.46530151    0.88000000    2.64000010
   13.73194408   79.91040039    0.89999998    2.66000009
   13.73777771   79.91040039    0.94000000    2.66000009
   13.74194431   74.73840332    0.98000002    2.66000009
   13.74527836   75.71880341    0.98000002    2.66000009
   13.74861145   80.01580048    1.05999994    2.64000010
   13.75166702   77.57109833    1.07000005    2.66000009
   13.75194454   76.67410278    1.07000005    2.66000009
   13.75527763   76.18109894    1.09000003    2.64000010
   13.75861073   78.58640289    1.11000001    2.64000010
   13.76166630   76.12879944    1.13000000    2.64000010
   13.76500034   75.97080231    1.13000000    2.64000010
   13.76833344   76.05940247    1.09000003    2.66000009
   13.77138901   75.12789917    1.05999994    2.66000009
   13.77472210   76.12650299    1.07000005    2.66000009
   13.78083324   76.12650299    1.13000000    2.66000009
   13.78500080   77.62879944    1.13000000    2.66000009
   13.78555584   77.69029999    1.13000000    2.66000009
   13.78888893   76.81960297    1.13000000    2.66000009
   13.79194450   80.43440247    1.11000001    2.64000010
   13.79527855   80.19539642    1.14999998    2.64000010
   13.79861164   81.91419983    1.14999998    2.66000009
   13.80166721   79.76879883    1.16999996    2.64000010
   13.80500031   77.11889648    1.16999996    2.64000010
   13.80833340   77.19290161    1.14999998    2.64000010
   13.81138897   75.42140198    1.21000004    2.64000010
   13.81472206   75.32460022    1.23000002    2.64000010
   13.81777763   76.49729919    1.21000004    2.64000010
   13.81833363   81.37010193    1.21000004    2.66000009
   13.82361126   81.37010193    1.19000006    2.64000010
   13.82777786   80.65869904    1.14999998    2.67000008
   13.83083344   77.01260376    1.14999998    2.66000009
   13.83416653   77.57440186    1.09000003    2.64000010
   13.83749962   77.02330017    1.03999996    2.66000009
   13.84055519   74.29180145    1.01999998    2.66000009
   13.84388828   76.64540100    1.01999998    2.67000008
   13.84722233   76.28389740    1.03999996    2.66000009
   13.85027790   75.00749969    1.03999996    2.66000009
   13.85166740   78.42330170    1.01999998    2.66000009
   13.85388947   77.43650055    1.01999998    2.66000009
   13.85722256   76.47730255    1.03999996    2.66000009
   13.86027813   75.78160095    1.00000000    2.67000008
   13.86638927   75.78160095    1.00000000    2.67000008
   13.87055588   79.96589661    0.98000002    2.67000008
   13.87388897   80.42289734    0.98000002    2.66000009
   13.87694454   80.61830139    0.98000002    2.66000009
   13.88027763   79.87879944    1.00000000    2.66000009
   13.88361073   78.67040253    1.00000000    2.66000009
   13.88500023   75.93699646    0.98000002    2.66000009
   13.88722229   77.38849640    0.98000002    2.66000009
   13.89055538   74.77079773    0.98000002    2.66000009
   13.89361095   77.06410217    1.00000000    2.67000008
   13.89694405   77.54149628    1.00000000    2.66000009
   13.90027714   78.92350006    1.00000000    2.66000009
   13.90333271   76.33679962    1.00000000    2.67000008
   13.90916634   76.33679962    1.03999996    2.66000009
   13.91333294   75.10109711    1.05999994    2.67000008
   13.91666698   80.78209686    1.05999994    2.66000009
   13.91833401   76.99019623    1.05999994    2.66000009
   13.92027855   77.41860199    1.05999994    2.66000009
   13.92361164   78.99430084    1.05999994    2.66000009
   13.92666721   77.82720184    1.07000005    2.67000008
   13.93000031   78.82460022    1.07000005    2.67000008
   13.93333340   75.89189911    1.07000005    2.66000009
   13.93638897   77.71939850    1.11000001    2.66000009
   13.93972206   77.52200317    1.13000000    2.66000009
   13.94277763   76.62840271    1.16999996    2.66000009
   13.94611073   75.07489777    1.19000006    2.64000010
   13.95222187   75.07489777    1.19000006    2.66000009
   13.95638847   76.49549866    1.19000006    2.66000009
   13.95944405   76.90709686    1.19000006    2.66000009
   13.96277714   77.88390350    1.11000001    2.66000009
   13.96583271   82.52999878    1.07000005    2.67000008
   13.96916580   83.30860138    1.07000005    2.67000008
   13.97249985   81.92379761    1.07000005    2.66000009
   13.97555542   76.24790192    1.05999994    2.67000008
   13.97888851   77.56700134    1.07000005    2.66000009
   13.98222160   80.47219849    1.05999994    2.66000009
   13.98500061   75.77719879    1.07000005    2.67000008
   13.98583317   78.30560303    1.07000005    2.67000008
   13.98916721   76.62629700    1.05999994    2.66000009
   13.99499989   76.62629700    1.05999994    2.66000009
   13.99916649   79.24179840    1.03999996    2.67000008
   14.00222206   80.99579620    1.03999996    2.67000008
   14.00555515   79.69740295    1.01999998    2.67000008
   14.00888920   77.71479797    1.01999998    2.67000008
   14.01194477   78.08370209    1.01999998    2.67000008
   14.01527786   77.03179932    1.03999996    2.67000008
   14.01833344   77.30410004    1.05999994    2.67000008
   14.01888847   78.46730042    1.05999994    2.67000008
   14.02222157   80.01820374    1.05999994    2.67000008
   14.02527714   78.93520355    1.07000005    2.66000009
   14.02861118   78.53459930    1.07000005    2.67000008
   14.03194427   82.08499908    1.09000003    2.66000009
   14.03777790   82.08499908    1.09000003    2.66000009
   14.04194450   78.68659973    1.11000001    2.66000009
   14.04527855   77.83989716    1.09000003    2.67000008
   14.04833412   80.42530060    1.09000003    2.67000008
   14.05166721   78.44290161    1.09000003    2.67000008
   14.05222225   76.63130188    1.07000005    2.67000008
   14.05555534   78.45580292    1.09000003    2.67000008
   14.05861092   81.40470123    1.09000003    2.66000009
   14.06194496   76.12560272    1.09000003    2.67000008
   14.06500053   75.64920044    1.11000001    2.66000009
   14.06833363   74.14019775    1.11000001    2.67000008
   14.07166672   77.95410156    1.11000001    2.67000008
   14.07472229   75.45729828    1.07000005    2.67000008
   14.08055592   75.45729828    1.05999994    2.67000008
   14.08472157   79.32399750    1.05999994    2.67000008
   14.08555508   75.43109894    1.05999994    2.67000008
   14.08861065   76.53910065    1.07000005    2.67000008
   14.09166622   80.74819946    1.07000005    2.67000008
   14.09499931   85.21350098    1.09000003    2.66000009
   14.09833336   78.98370361    1.09000003    2.67000008
   14.10166740   79.17209625    1.11000001    2.66000009
   14.10472298   80.03009796    1.07000005    2.69000006
   14.10805607   76.32949829    1.01999998    2.67000008
   14.11111164   79.96199799    1.01999998    2.69000006
   14.11444473   79.28309631    1.01999998    2.69000006
   14.11777782   83.51789856    1.01999998    2.67000008
   14.11888885   81.40630341    1.01999998    2.67000008
   14.12361145   81.40630341    0.94000000    2.67000008
   14.12777805   75.32949829    0.92000002    2.69000006
   14.13083363   76.86219788    0.92000002    2.69000006
   14.13416672   75.76789856    0.89999998    2.67000008
   14.13722229   75.29930115    0.88000000    2.67000008
   14.14055538   76.11740112    0.88000000    2.67000008
   14.14388847   78.37159729    0.88000000    2.69000006
   14.14722252   77.51049805    0.86000001    2.67000008
   14.15027714   78.33899689    0.88000000    2.67000008
   14.15222168   79.25810242    0.88000000    2.69000006
   14.15416622   76.98960114    0.88000000    2.69000006
   14.15722179   79.06340027    0.88000000    2.69000006
   14.16055489   81.24420166    0.89999998    2.69000006
   14.16638851   81.24420166    0.89999998    2.67000008
   14.17055607   74.18150330    0.89999998    2.69000006
   14.17361164   78.15779877    0.92000002    2.67000008
   14.17694473   77.62349701    0.92000002    2.67000008
   14.18027782   77.07800293    0.94000000    2.69000006
   14.18333340   80.29060364    0.95999998    2.69000006
   14.18555546   76.16329956    0.95999998    2.69000006
   14.18722248   77.13009644    0.98000002    2.67000008
   14.19027805   77.26580048    1.00000000    2.67000008
   14.19361115   78.25180054    1.00000000    2.67000008
   14.19666672   78.54789734    1.01999998    2.67000008
   14.19999981   81.85060120    1.01999998    2.67000008
   14.20333290   80.11440277    1.03999996    2.67000008
   14.20916653   80.11440277    1.05999994    2.67000008
   14.21333313   78.11350250    1.07000005    2.67000008
   14.21666622   81.04930115    1.07000005    2.69000006
   14.21888828   76.93139648    1.07000005    2.69000006
   14.22027779   80.84040070    1.09000003    2.67000008
   14.22333336   73.04350281    1.07000005    2.67000008
   14.22666645   77.93530273    1.07000005    2.67000008
   14.22972202   80.68270111    1.09000003    2.67000008
   14.23305511   79.24400330    1.09000003    2.66000009
   14.23638916   76.33650208    1.09000003    2.67000008
   14.23944473   79.80130005    1.07000005    2.67000008
   14.24277782   76.34049988    1.09000003    2.66000009
   14.24611092   81.86049652    1.09000003    2.67000008
   14.25194454   81.86049652    1.09000003    2.67000008
   14.25611115   78.18450165    1.07000005    2.67000008
   14.25944424   81.67710114    1.07000005    2.67000008
   14.26277733   78.41870117    1.09000003    2.67000008
   14.26583290   80.10220337    1.11000001    2.67000008
   14.26916599   77.41970062    1.11000001    2.67000008
   14.27222157   75.29889679    1.09000003    2.67000008
   14.27555561   76.03079987    1.09000003    2.67000008
   14.27888870   76.34190369    1.09000003    2.67000008
   14.28194427   77.23950195    1.09000003    2.67000008
   14.28527832   77.44349670    1.01999998    2.69000006
   14.28722286   74.38469696    1.01999998    2.67000008
   14.28888893   75.46620178    1.01999998    2.67000008
   14.29500008   75.46620178    1.03999996    2.69000006
   14.29916668   75.98680115    1.03999996    2.67000008
   14.30222225   73.96410370    1.03999996    2.67000008
   14.30555534   79.08100128    1.01999998    2.67000008
   14.30861092   75.80809784    1.01999998    2.67000008
   14.31194496   76.39959717    0.95999998    2.67000008
   14.31527805   76.35690308    0.92000002    2.69000006
   14.31833363   85.57920074    0.89999998    2.67000008
   14.32055569   77.19699860    0.89999998    2.69000006
   14.32194424   79.38500214    0.88000000    2.71000004
   14.32527733   79.58789825    0.88000000    2.69000006
   14.32833290   82.00340271    0.88000000    2.71000004
   14.33166695   81.25350189    0.88000000    2.71000004
   14.33777714   81.25350189    0.88000000    2.69000006
   14.34194374   78.69360352    0.88000000    2.69000006
   14.34499931   85.71130371    0.88000000    2.69000006
   14.34833336   80.33679962    0.81999999    2.69000006
   14.35166740   74.92060089    0.81999999    2.69000006
   14.35388947   84.30190277    0.81999999    2.69000006
   14.35527802   80.31659698    0.81999999    2.69000006
   14.35861111   78.48339844    0.80000001    2.69000006
   14.36166668   84.08419800    0.76999998    2.71000004
   14.36500072   78.80599976    0.75000000    2.69000006
   14.36805534   83.53320313    0.73000002    2.69000006
   14.37138939   81.22010040    0.73000002    2.69000006
   14.37472248   81.70510101    0.70999998    2.71000004
   14.38055611   81.70510101    0.75000000    2.71000004
   14.38472176   72.73619843    0.75000000    2.69000006
   14.38722229   76.11920166    0.75000000    2.71000004
   14.38833332   77.44000244    0.76999998    2.69000006
   14.39166641   76.13249969    0.76999998    2.69000006
   14.39472198   79.05460358    0.80000001    2.69000006
   14.39805508   76.37870026    0.80000001    2.71000004
   14.40111065   75.24919891    0.81999999    2.71000004
   14.40444374   77.35140228    0.83999997    2.69000006
   14.40777779   78.26550293    0.86000001    2.71000004
   14.41083336   81.08010101    0.86000001    2.71000004
   14.41416645   76.66439819    0.88000000    2.69000006
   14.41750050   78.29779816    0.89999998    2.69000006
   14.42333412   78.29779816    0.92000002    2.69000006
   14.42750072   72.94499969    0.92000002    2.69000006
   14.43083382   88.05879974    0.94000000    2.71000004
   14.43388939   77.68949890    0.94000000    2.69000006
   14.43722248   75.25920105    0.94000000    2.69000006
   14.44055557   78.28350067    0.94000000    2.69000006
   14.44361115   79.20130157    0.92000002    2.69000006
   14.44694424   78.42790222    0.92000002    2.69000006
   14.45027733   76.17220306    0.92000002    2.69000006
   14.45333290   79.11239624    0.89999998    2.69000006
   14.45444393   82.91840363    0.89999998    2.69000006
   14.45694447   80.66030121    0.89999998    2.69000006
   14.46027756   76.88719940    0.89999998    2.69000006
   14.46638870   76.88719940    0.89999998    2.69000006
   14.47055531   78.56289673    0.88000000    2.71000004
   14.47361088   78.62190247    0.86000001    2.71000004
   14.47694397   79.64510345    0.83999997    2.69000006
   14.47999954   79.37460327    0.83999997    2.69000006
   14.48333359   79.99240112    0.79000002    2.71000004
   14.48666668   80.92459869    0.79000002    2.69000006
   14.48777771   77.64050293    0.75000000    2.71000004
   14.49000072   79.53900146    0.75000000    2.69000006
   14.49333382   82.84429932    0.73000002    2.71000004
   14.49666691   75.99629974    0.69000000    2.71000004
   14.49972248   74.94889832    0.69000000    2.71000004
   14.50305557   81.29070282    0.69000000    2.71000004
   14.50916672   81.29070282    0.73000002    2.71000004
   14.51333332   74.43949890    0.76999998    2.71000004
   14.51638889   74.17089844    0.76999998    2.71000004
   14.51972198   76.83840179    0.76999998    2.71000004
   14.52111053   75.73320007    0.79000002    2.71000004
   14.52333355   78.71499634    0.79000002    2.71000004
   14.52666664   75.09709930    0.79000002    2.71000004
   14.52972221   81.06999969    0.80000001    2.71000004
   14.53305531   75.92990112    0.81999999    2.71000004
   14.53611183   74.34950256    0.81999999    2.71000004
   14.53944492   73.46600342    0.88000000    2.71000004
   14.54277802   78.11599731    0.89999998    2.71000004
   14.54583359   75.12879944    0.86000001    2.73000002
   14.55194473   75.12879944    0.83999997    2.71000004
   14.57027817   78.35040283    0.76999998    2.71000004
   14.57361126   79.24359894    0.75000000    2.73000002
   14.57694435   78.41290283    0.75000000    2.71000004
   14.57999992   77.69660187    0.79000002    2.73000002
   14.58333302   73.80840302    0.79000002    2.71000004
   14.58666611   78.33540344    0.83999997    2.69000006
   14.58972168   84.15840149    0.86000001    2.71000004
   14.59499931   84.15840149    0.92000002    2.69000006
   14.59916592   81.03589630    0.94000000    2.71000004
   14.60249996   76.64119720    0.92000002    2.71000004
   14.60333347   76.26799774    0.92000002    2.71000004
   14.60611153   74.00499725    0.92000002    2.71000004
   14.60944462   77.20780182    0.92000002    2.71000004
   14.61250019   76.01439667    0.89999998    2.71000004
   14.61583328   76.27439880    0.88000000    2.71000004
   14.61888885   80.44640350    0.88000000    2.71000004
   14.62222195   77.32050323    0.86000001    2.71000004
   14.62555599   78.91960144    0.86000001    2.71000004
   14.62861156   78.19650269    0.86000001    2.71000004
   14.63194466   74.11190033    0.83999997    2.71000004
   14.63805580   74.11190033    0.81999999    2.71000004
   14.64194393   79.13970184    0.80000001    2.71000004
   14.64527798   75.68620300    0.79000002    2.71000004
   14.64861107   81.12889862    0.80000001    2.73000002
   14.65166664   78.72619629    0.80000001    2.71000004
   14.65499973   75.89830017    0.80000001    2.71000004
   14.65833282   76.65019989    0.81999999    2.71000004
   14.66138840   75.64730072    0.81999999    2.71000004
   14.66472149   82.26950073    0.83999997    2.71000004
   14.66805553   81.75099945    0.86000001    2.71000004
   14.67000008   83.96579742    0.86000001    2.71000004
   14.67166710   79.44329834    0.86000001    2.71000004
   14.67500019   80.69139862    0.88000000    2.71000004
   14.68083382   80.69139862    0.88000000    2.71000004
   14.68500042   78.03530121    0.88000000    2.71000004
   14.68805599   75.57460022    0.89999998    2.71000004
   14.69138908   79.24900055    0.89999998    2.71000004
   14.69444466   74.34670258    0.94000000    2.69000006
   14.69777775   73.93450165    0.98000002    2.69000006
   14.70111084   74.51399994    0.98000002    2.69000006
   14.70333290   77.33769989    0.98000002    2.71000004
   14.70472240   74.71679688    0.98000002    2.71000004
   14.70805550   78.77069855    0.98000002    2.71000004
   14.71111107   74.36009979    0.94000000    2.71000004
   14.71444416   74.93440247    0.94000000    2.71000004
   14.71749973   77.68009949    0.94000000    2.71000004
   14.72361088   77.68009949    0.94000000    2.71000004
   14.72777748   73.24970245    0.95999998    2.71000004
   14.73083305   76.49019623    0.92000002    2.71000004
   14.73416710   75.95290375    0.89999998    2.71000004
   14.73666668   78.83489990    0.89999998    2.71000004
   14.73777771   74.36239624    0.89999998    2.71000004
   14.74111176   79.60690308    0.89999998    2.71000004
   14.74416733   78.55139923    0.92000002    2.71000004
   14.74750042   76.22519684    0.92000002    2.71000004
   14.75083351   75.43779755    0.92000002    2.71000004
   14.75388908   76.88230133    0.92000002    2.71000004
   14.75722218   80.14749908    0.89999998    2.71000004
   14.76027775   78.57980347    0.86000001    2.71000004
   14.76638889   78.57980347    0.88000000    2.71000004
   14.77055550   73.68160248    0.88000000    2.71000004
   14.77388859   73.16339874    0.88000000    2.71000004
   14.77694416   77.25730133    0.86000001    2.71000004
   14.78027725   78.72039795    0.88000000    2.73000002
   14.78361130   79.49900055    0.88000000    2.73000002
   14.78666687   80.36679840    0.88000000    2.73000002
   14.79000092   79.06880188    0.88000000    2.71000004
   14.79305553   76.23650360    0.92000002    2.73000002
   14.79638958   75.53910065    0.92000002    2.71000004
   14.79972267   74.77529907    0.92000002    2.71000004
   14.80277824   78.28690338    0.92000002    2.73000002
   14.80333328   81.20809937    0.92000002    2.73000002
   14.80916691   81.20809937    0.94000000    2.71000004
   14.81333351   74.91130066    0.94000000    2.71000004
   14.81666660   77.91929626    0.94000000    2.71000004
   14.81999969   81.44730377    0.94000000    2.71000004
   14.82305527   74.61949921    0.95999998    2.71000004
   14.82638836   82.40560150    0.94000000    2.71000004
   14.82972240   79.10949707    0.95999998    2.73000002
   14.83277798   73.97869873    0.94000000    2.71000004
   14.83611107   73.89409637    0.95999998    2.71000004
   14.83666611   77.61209869    0.94000000    2.71000004
   14.83972168   76.74980164    0.94000000    2.71000004
   14.84305477   78.02700043    0.94000000    2.71000004
   14.84611034   74.99030304    0.95999998    2.71000004
   14.85222244   74.99030304    0.95999998    2.71000004
   14.85638905   84.32929993    0.95999998    2.73000002
   14.85944462   77.56490326    0.95999998    2.71000004
   14.86277771   82.81520081    0.98000002    2.71000004
   14.86583328   79.36329651    0.98000002    2.71000004
   14.86916637   77.38610077    0.98000002    2.71000004
   14.86999989   79.32559967    0.98000002    2.73000002
   14.87277794   80.17849731    0.98000002    2.71000004
   14.87611103   76.20809937    0.98000002    2.71000004
   14.87916660   79.80609894    0.98000002    2.71000004
   14.88249969   75.83409882    0.95999998    2.71000004
   14.88583279   76.71260071    0.95999998    2.73000002
   14.88888836   75.95169830    0.94000000    2.73000002
   14.89499950   75.95169830    0.94000000    2.73000002
   14.89916611   75.80429840    0.92000002    2.71000004
   14.90222168   75.93270111    0.94000000    2.71000004
   14.90472221   76.21630096    0.94000000    2.73000002
   14.90749931   74.40409851    0.92000002    2.71000004
   14.91055489   77.11340332    0.89999998    2.73000002
   14.91388893   74.59950256    0.89999998    2.71000004
   14.91722298   76.46910095    0.88000000    2.73000002
   14.92027855   79.50930023    0.88000000    2.71000004
   14.92361164   75.35040283    0.88000000    2.71000004
   14.92694473   78.44300079    0.86000001    2.71000004
   14.93000031   74.42510223    0.89999998    2.73000002
   14.93333340   77.00650024    0.89999998    2.73000002
   14.93777752   77.00650024    0.92000002    2.73000002
   14.94194412   79.25749969    0.92000002    2.71000004
   14.94527817   76.05709839    0.92000002    2.71000004
   14.94833374   78.48850250    0.89999998    2.73000002
   14.95166683   78.54340363    0.88000000    2.73000002
   14.95499992   78.29109955    0.86000001    2.73000002
   14.95805550   78.94830322    0.86000001    2.71000004
   14.96138859   77.26490021    0.86000001    2.71000004
   14.96444416   76.09970093    0.83999997    2.71000004
   14.96777725   79.08070374    0.88000000    2.71000004
   14.96999931   75.77529907    0.88000000    2.73000002
   14.97138882   74.91249847    0.88000000    2.73000002
   14.97472191   76.45639801    0.88000000    2.73000002
   14.98055553   76.45639801    0.88000000    2.73000002
   14.98472214   75.59660339    0.88000000    2.73000002
   14.98805618   77.95610046    0.88000000    2.71000004
   14.99138927   75.86599731    0.88000000    2.73000002
   14.99444485   74.86660004    0.88000000    2.73000002
   14.99777794   74.22139740    0.88000000    2.73000002
   15.00083351   79.03189850    0.88000000    2.71000004
   15.00333309   75.63870239    0.83999997    2.71000004
   15.00444412   76.00389862    0.83999997    2.73000002
   15.00777817   75.35849762    0.79000002    2.75000000
   15.01083374   76.04479980    0.73000002    2.73000002
   15.01416683   75.54270172    0.70999998    2.73000002
   15.01749992   75.79969788    0.73000002    2.73000002
   15.02361107   75.79969788    0.81999999    2.73000002
   15.02777767   74.75810242    0.95999998    2.71000004
   15.03083324   82.43019867    0.95999998    2.71000004
   15.03416729   78.69879913    0.98000002    2.71000004
   15.03666687   81.69550323    0.98000002    2.71000004
   15.03777790   77.94419861    0.98000002    2.71000004
   15.13805580   -1.00000000   -1.00000000   -1.00000000
   15.22527695   -1.00000000   -1.00000000   -1.00000000
   15.31583309   -1.00000000   -1.00000000   -1.00000000
   15.41833401   -1.00000000   -1.00000000   -1.00000000
   15.50833321   -1.00000000   -1.00000000   -1.00000000
   15.61222267   -1.00000000   -1.00000000   -1.00000000
   15.72472191   -1.00000000   -1.00000000   -1.00000000
   15.75305557   80.56929779    1.03999996    2.75000000
   15.75638866   80.20520020    1.01999998    2.73000002
   15.75972176   78.71690369    1.01999998    2.73000002
   15.76277733   81.84999847    1.00000000    2.73000002
   15.76611137   77.52670288    0.98000002    2.73000002
   15.76944447   76.57949829    1.00000000    2.73000002
   15.77333355   76.57949829    1.09000003    2.71000004
   15.77750015   78.00640106    1.11000001    2.71000004
   15.78083324   79.10099792    1.11000001    2.73000002
   15.78388977   79.77069855    1.14999998    2.73000002
   15.78638935   78.31929779    1.16999996    2.71000004
   15.78777790   85.01950073    1.16999996    2.71000004
   15.79083347   76.76419830    1.16999996    2.73000002
   15.79416752   78.73190308    1.14999998    2.71000004
   15.79722309   82.21219635    1.11000001    2.71000004
   15.80055618   84.50689697    1.13000000    2.73000002
   15.80388927   77.03299713    1.07000005    2.73000002
   15.80694485   77.57039642    1.05999994    2.73000002
   15.81027794   77.89060211    1.00000000    2.73000002
   15.81638908   77.89060211    0.88000000    2.75000000
   15.82027817   81.35260010    0.86000001    2.75000000
   15.82361126   79.45110321    0.86000001    2.75000000
   15.82694435   84.10820007    0.80000001    2.75000000
   15.82999992   80.17130280    0.76999998    2.73000002
   15.83333302   83.82730103    0.76999998    2.75000000
   15.83666611   80.52690125    0.80000001    2.73000002
   15.83972168   79.82910156    0.80000001    2.75000000
   15.84305477   78.23210144    0.80000001    2.75000000
   15.84638882   81.77320099    0.80000001    2.75000000
   15.84944439   81.11710358    0.80000001    2.75000000
   15.85277843   77.60410309    0.81999999    2.75000000
   15.85333347   74.88200378    0.81999999    2.75000000
   15.85916710   74.88200378    0.80000001    2.75000000
   15.86333370   89.09899902    0.81999999    2.75000000
   15.86638927   83.77559662    0.80000001    2.75000000
   15.86972237   77.14029694    0.81999999    2.75000000
   15.87305546   81.54049683    0.83999997    2.75000000
   15.87611103   77.71890259    0.86000001    2.75000000
   15.87944412   79.63520050    0.86000001    2.73000002
   15.88277817   82.12169647    0.88000000    2.75000000
   15.88583279   84.30789948    0.88000000    2.75000000
   15.88666630   78.96459961    0.88000000    2.73000002
   15.88944435   78.32589722    0.86000001    2.75000000
   15.89277744   78.85590363    0.86000001    2.75000000
   15.89611053   77.34999847    0.88000000    2.75000000
   15.90194416   77.34999847    0.88000000    2.75000000
   15.90611076   79.74349976    0.88000000    2.73000002
   15.90944386   77.02809906    0.86000001    2.75000000
   15.91249943   79.46900177    0.86000001    2.75000000
   15.91583252   76.51930237    0.81999999    2.75000000
   15.91916656   75.52639771    0.80000001    2.75000000
   15.92000008   78.23529816    0.80000001    2.75000000
   15.92250061   77.66500092    0.80000001    2.75000000
   15.92583370   83.25019836    0.76999998    2.75000000
   15.92916679   77.30609894    0.76999998    2.75000000
   15.93222237   76.28340149    0.75000000    2.75000000
   15.93555546   81.82949829    0.76999998    2.75000000
   15.93861103   80.42880249    0.76999998    2.75000000
   15.94472218   80.42880249    0.80000001    2.75000000
   15.94888878   74.24240112    0.80000001    2.75000000
   15.95222187   74.18029785    0.79000002    2.75000000
   15.95333290   77.98410034    0.79000002    2.75000000
   15.95583344   82.34500122    0.79000002    2.75000000
   15.95916653   78.31210327    0.79000002    2.75000000
   15.96249962   79.27529907    0.80000001    2.75000000
   15.96555519   78.00669861    0.80000001    2.75000000
   15.96888828   76.08969879    0.81999999    2.75000000
   15.97194386   75.15200043    0.81999999    2.73000002
   15.97527695   79.40450287    0.80000001    2.75000000
   15.97861099   73.97609711    0.79000002    2.75000000
   15.98166656   75.08750153    0.79000002    2.73000002
   15.98777771   75.08750153    0.80000001    2.73000002
   15.99166679   77.22290039    0.80000001    2.75000000
   15.99499989   82.04570007    0.81999999    2.75000000
   15.99833393   77.38569641    0.81999999    2.75000000
   16.00138855   76.25350189    0.81999999    2.75000000
   16.00472260   81.72010040    0.83999997    2.73000002
   16.00805473   78.83750153    0.83999997    2.73000002
   16.01111031   75.15249634    0.86000001    2.75000000
   16.01444435   73.91940308    0.86000001    2.75000000
   16.01777840   77.81690216    0.89999998    2.75000000
   16.02000046   74.09750366    0.88000000    2.75000000
   16.02111053   75.05690002    0.89999998    2.73000002
   16.02444458   74.64980316    0.94000000    2.73000002
   16.03055573   74.64980316    0.94000000    2.75000000
   16.03472137   77.57420349    0.94000000    2.75000000
   16.03777695   73.24030304    0.94000000    2.73000002
   16.04111099   76.31809998    0.89999998    2.73000002
   16.04444313   79.60649872    0.92000002    2.73000002
   16.04749870   78.66680145    1.00000000    2.73000002
   16.05083275   75.57640076    1.03999996    2.73000002
   16.05333328   75.68299866    1.03999996    2.73000002
   16.05444336   75.13169861    1.01999998    2.73000002
   16.05777740   74.33309937    0.98000002    2.73000002
   16.06110954   76.13829803    1.00000000    2.73000002
   16.06416512   79.15859985    1.00000000    2.73000002
   16.06750107   80.37650299    1.01999998    2.73000002
   16.07333374   80.37650299    1.03999996    2.73000002
   16.07750130   75.11260223    1.03999996    2.73000002
   16.08083344   76.73909760    1.03999996    2.73000002
   16.08388901   79.01740265    1.07000005    2.73000002
   16.08666801   78.76889801    1.07000005    2.73000002
   16.08750153   76.43260193    1.07000005    2.75000000
   16.09083366   75.41660309    1.03999996    2.75000000
   16.09416771   72.57949829    1.01999998    2.75000000
   16.09722328   76.98390198    1.00000000    2.75000000
   16.10055542   74.43029785    1.00000000    2.75000000
   16.10361099   75.36440277    0.98000002    2.75000000
   16.10694504   75.73600006    0.98000002    2.75000000
   16.11027908   82.88240051    0.95999998    2.75000000
   16.11611176   82.88240051    0.95999998    2.75000000
   16.12027740   73.77449799    1.00000000    2.75000000
   16.12361145   76.71920013    1.01999998    2.73000002
   16.12666702   74.31549835    1.00000000    2.75000000
   16.13000107   72.89610291    1.00000000    2.75000000
   16.13333321   77.62989807    0.98000002    2.75000000
   16.13638878   74.42040253    0.98000002    2.75000000
   16.13972282   74.87069702    0.98000002    2.75000000
   16.14305496   76.37920380    0.98000002    2.75000000
   16.14611053   77.56449890    1.00000000    2.75000000
   16.14944458   73.31390381    1.00000000    2.75000000
   16.15250015   75.88739777    1.00000000    2.73000002
   16.15333366   73.57990265    0.98000002    2.75000000
   16.15916634   73.57990265    1.00000000    2.75000000
   16.16305542   82.25589752    0.98000002    2.75000000
   16.16638756   73.95439911    1.00000000    2.75000000
   16.16972160   77.59899902    0.92000002    2.75000000
   16.17277718   74.51180267    0.89999998    2.75000000
   16.17611122   75.19819641    0.89999998    2.75000000
   16.17944336   76.81289673    0.88000000    2.75000000
   16.18249893   75.24720001    0.86000001    2.75000000
   16.18583298   73.31310272    0.86000001    2.75000000
   16.18666649   77.27069855    0.83999997    2.75000000
   16.18916512   75.03589630    0.83999997    2.75000000
   16.19249916   78.11229706    0.81999999    2.75000000
   16.19583321   73.18579865    0.80000001    2.75000000
   16.20194435   73.18579865    0.80000001    2.75000000
   16.20611191   82.39119720    0.80000001    2.76999998
   16.20916748   76.58000183    0.80000001    2.73000002
   16.21250153   76.31860352    0.80000001    2.75000000
   16.21583366   77.39279938    0.81999999    2.76999998
   16.21888924   74.16359711    0.83999997    2.75000000
   16.22000122   76.76830292    0.88000000    2.75000000
   16.22277832   78.04759979    0.88000000    2.75000000
   16.22583389   83.62449646    0.88000000    2.75000000
   16.22916794   76.59559631    0.88000000    2.76999998
   16.23222351   77.33170319    0.89999998    2.75000000
   16.23555565   75.71779633    0.98000002    2.75000000
   16.23888969   74.38259888    1.00000000    2.73000002
   16.24472237   74.38259888    0.94000000    2.75000000
   16.24888992   72.93499756    0.98000002    2.75000000
   16.25222206   74.02580261    0.95999998    2.75000000
   16.25333405   74.26529694    0.95999998    2.73000002
   16.25555611   74.97350311    0.95999998    2.75000000
   16.25888824   78.94229889    0.95999998    2.75000000
   16.26222229   75.00599670    0.98000002    2.75000000
   16.26527786   77.29229736    0.94000000    2.73000002
   16.26861000   74.86849976    0.98000002    2.73000002
   16.27194405   72.43740082    0.98000002    2.73000002
   16.27499962   77.08799744    1.00000000    2.75000000
   16.27833366   75.92420197    1.00000000    2.75000000
   16.28138924   79.61199951    0.98000002    2.75000000
   16.28750038   79.61199951    0.98000002    2.75000000
   16.29166603   75.61150360    0.98000002    2.75000000
   16.29500008   80.56269836    1.00000000    2.73000002
   16.29805565   79.08719635    1.00000000    2.75000000
   16.30138779   87.77529907    1.00000000    2.73000002
   16.30472183   83.82299805    1.01999998    2.73000002
   16.30777740   80.74559784    1.05999994    2.75000000
   16.31110954   78.52600098    1.09000003    2.73000002
   16.31444359   77.35620117    1.09000003    2.73000002
   16.31750107   82.41850281    1.09000003    2.73000002
   16.32000160   78.29620361    1.07000005    2.75000000
   16.32111168   78.41459656    1.07000005    2.75000000
   16.32444572   74.75170135    1.07000005    2.73000002
   16.33055687   74.75170135    1.03999996    2.75000000
   16.33444595   74.29229736    1.01999998    2.75000000
   16.33777809   82.89890289    1.01999998    2.75000000
   16.34111214   78.41339874    1.01999998    2.73000002
   16.34416771   78.01879883    1.01999998    2.73000002
   16.34749985   74.23169708    1.01999998    2.73000002
   16.35083389   78.63549805    1.01999998    2.75000000
   16.35333443   78.71260071    1.03999996    2.75000000
   16.35444450   76.83969879    1.03999996    2.75000000
   16.35750008   75.01020050    1.03999996    2.75000000
   16.36083412   78.14510345    1.03999996    2.75000000
   16.36388969   81.84670258    1.01999998    2.75000000
   16.36722183   73.53170013    1.01999998    2.75000000
   16.37333298   73.53170013    1.01999998    2.75000000
   16.37750053   76.23339844    0.98000002    2.75000000
   16.38055611   83.01319885    0.98000002    2.75000000
   16.38388824   74.25569916    0.98000002    2.75000000
   16.38666725   76.38500214    0.98000002    2.75000000
   16.38777733   80.41139984    0.95999998    2.75000000
   16.39083290   74.37650299    0.95999998    2.73000002
   16.39416695   78.06179810    0.98000002    2.75000000
   16.39722252   75.29540253    0.95999998    2.75000000
   16.40055466   81.97190094    0.95999998    2.75000000
   16.40388870   76.46140289    0.95999998    2.75000000
   16.40694427   80.93379974    0.98000002    2.75000000
   16.41027832   77.01509857    0.98000002    2.75000000
   16.41611099   77.01509857    0.98000002    2.73000002
   16.42027664   79.55059814    0.95999998    2.73000002
   16.42361069   79.01429749    0.98000002    2.75000000
   16.42666626   83.21099854    0.95999998    2.75000000
   16.43000031   78.27239990    0.95999998    2.75000000
   16.43333244   74.17289734    0.95999998    2.75000000
   16.43638802   80.32489777    0.95999998    2.75000000
   16.43972206   77.96379852    0.98000002    2.75000000
   16.44305420   74.88659668    0.95999998    2.75000000
   16.44610977   76.73459625    0.95999998    2.75000000
   16.44944382   75.67109680    0.95999998    2.75000000
   16.45250130   75.93119812    0.95999998    2.75000000
   16.45333481   79.02030182    0.98000002    2.75000000
   16.45888901   79.02030182    0.98000002    2.75000000
   16.46305656   74.29699707    1.00000000    2.75000000
   16.46638870   77.27380371    1.00000000    2.75000000
   16.46944427   74.61679840    1.01999998    2.75000000
   16.47277832   75.23269653    1.01999998    2.73000002
   16.47611237   76.82790375    1.03999996    2.73000002
   16.47916794   75.53209686    1.03999996    2.75000000
   16.48250008   81.06539917    1.03999996    2.73000002
   16.48583412   81.36329651    1.03999996    2.73000002
   16.48666763   74.04340363    1.03999996    2.73000002
   16.48944473   76.96910095    1.03999996    2.75000000
   16.49250031   75.14459991    1.03999996    2.75000000
   16.49583435   74.37539673    1.03999996    2.75000000
   16.50194359   74.37539673    1.05999994    2.75000000
   16.50583267   73.58860016    1.03999996    2.75000000
   16.50916672   81.68699646    1.09000003    2.73000002
   16.51250076   75.20030212    1.13000000    2.73000002
   16.51555634   74.29049683    1.14999998    2.73000002
   16.51888847   80.06800079    1.13000000    2.71000004
   16.52000046   75.13330078    1.13000000    2.71000004
   16.52277756   77.58779907    1.14999998    2.73000002
   16.52583313   82.09970093    1.14999998    2.73000002
   16.52916718   76.70960236    1.14999998    2.73000002
   16.53222275   73.38839722    1.13000000    2.73000002
   16.53555489   77.82420349    1.09000003    2.73000002
   16.53888893   75.19750214    1.07000005    2.75000000
   16.54472160   75.19750214    1.07000005    2.73000002
   16.54888916   79.34420013    1.05999994    2.73000002
   16.55222130   75.53260040    1.05999994    2.73000002
   16.55333328   77.41480255    1.05999994    2.73000002
   16.55583191   77.86920166    1.03999996    2.73000002
   16.55888748   80.42549896    1.03999996    2.73000002
   16.56222153   77.25370026    1.05999994    2.75000000
   16.56527710   77.79329681    1.05999994    2.75000000
   16.56861115   76.80919647    1.03999996    2.73000002
   16.57194519   84.82990265    1.05999994    2.73000002
   16.57500076   80.15209961    1.05999994    2.73000002
   16.57833481   79.74839783    1.07000005    2.73000002
   16.58166695   79.14640045    1.13000000    2.73000002
   16.58750153   79.14640045    1.11000001    2.75000000
   16.59166718   81.31549835    1.11000001    2.73000002
   16.59500122   83.16519928    1.09000003    2.73000002
   16.59805679   80.97660065    1.07000005    2.75000000
   16.60138893   84.26080322    1.07000005    2.73000002
   16.60444450   81.91709900    1.07000005    2.75000000
   16.60777855   81.18350220    1.07000005    2.75000000
   16.61111069   86.84729767    1.09000003    2.75000000
   16.61416626   86.49530029    1.13000000    2.75000000
   16.61750031   77.14520264    1.16999996    2.73000002
   16.62027740   84.09110260    1.16999996    2.73000002
   16.62111092   82.93470001    1.16999996    2.73000002
   16.62444496   74.91310120    1.16999996    2.73000002
   16.63027763   74.91310120    1.14999998    2.75000000
   16.63444519   76.57209778    1.13000000    2.73000002
   16.63777733   77.15059662    1.13000000    2.73000002
   16.64111137   75.67269897    1.16999996    2.75000000
   16.64416695   79.65699768    1.19000006    2.71000004
   16.64749908   81.25520325    1.21000004    2.73000002
   16.65055466   81.98020172    1.21000004    2.73000002
   16.65333366   75.42649841    1.19000006    2.73000002
   16.65444374   81.43160248    1.19000006    2.73000002
   16.65749931   77.42350006    1.19000006    2.73000002
   16.66083336   80.09590149    1.16999996    2.75000000
   16.66388893   80.44660187    1.13000000    2.73000002
   16.66722107   79.06469727    1.11000001    2.73000002
   16.67333221   79.06469727    0.98000002    2.75000000
   16.67722130   77.38379669    0.98000002    2.75000000
   16.68055534   77.79239655    0.98000002    2.75000000
   16.68388748   78.16259766    0.95999998    2.75000000
   16.68666649   76.60900116    0.94000000    2.75000000
   16.68750000   76.14849854    0.94000000    2.75000000
   16.69055557   78.10500336    0.94000000    2.73000002
   16.69388771   87.85959625    0.94000000    2.75000000
   16.69722176   76.88800049    0.94000000    2.73000002
   16.70027924   81.76270294    0.94000000    2.75000000
   16.70361137   83.61109924    0.95999998    2.75000000
   16.70666695   80.90119934    0.95999998    2.75000000
   16.71000099   79.76830292    0.98000002    2.73000002
   16.71611214   79.76830292    1.00000000    2.75000000
   16.72027779   78.81369781    1.00000000    2.73000002
   16.72333336   76.14080048    0.98000002    2.75000000
   16.72666740   77.98020172    0.98000002    2.75000000
   16.73000145   76.46240234    0.98000002    2.75000000
   16.73305511   79.80770111    1.00000000    2.73000002
   16.73638916   73.97779846    1.01999998    2.73000002
   16.73944473   75.13510132    1.01999998    2.73000002
   16.74277878   80.31610107    1.03999996    2.73000002
   16.74611092   74.54609680    1.03999996    2.73000002
   16.74916649   84.18879700    1.03999996    2.73000002
   16.75250053   73.04910278    1.03999996    2.75000000
   16.75333405   75.96910095    1.05999994    2.73000002
   16.77416611   75.96910095    1.01999998    2.73000002
   16.77805519   80.94850159    1.00000000    2.73000002
   16.78138924   75.21959686    1.00000000    2.73000002
   16.78472137   75.87619781    1.00000000    2.73000002
   16.78666687   76.13520050    1.00000000    2.75000000
   16.78833199   74.91570282    1.01999998    2.75000000
   16.79138756   78.66139984    1.01999998    2.73000002
   16.79472160   75.24369812    1.01999998    2.75000000
   16.79805565   74.80960083    1.01999998    2.75000000
   16.80111122   73.70010376    1.01999998    2.73000002
   16.80444336   75.84069824    1.01999998    2.73000002
   16.80777740   75.24810028    1.01999998    2.73000002
   16.81083298   77.03450012    1.01999998    2.73000002
   16.81694603   77.03450012    1.00000000    2.73000002
   16.82083511   74.93979645    1.00000000    2.73000002
   16.82416725   73.20829773    1.00000000    2.73000002
   16.82750130   77.70880127    0.98000002    2.73000002
   16.83055687   77.48419952    0.95999998    2.73000002
   16.83388901   76.87840271    0.95999998    2.75000000
   16.83722305   75.48159790    0.95999998    2.73000002
   16.84027863   78.64009857    0.94000000    2.73000002
   16.84361267   76.65249634    0.95999998    2.75000000
   16.84666824   77.30819702    0.95999998    2.73000002
   16.85000038   75.38659668    0.92000002    2.73000002
   16.85333443   79.65879822    0.92000002    2.73000002
   16.85388947   77.15380096    0.92000002    2.73000002
   16.85972214   77.15380096    0.92000002    2.73000002
   16.86388969   76.63510132    0.92000002    2.73000002
   16.86694527   77.92209625    0.89999998    2.73000002
   16.87027740   79.09719849    0.89999998    2.73000002
   16.87333298   76.66729736    0.89999998    2.73000002
   16.87666702   74.69439697    0.89999998    2.73000002
   16.88000107   79.24359894    0.92000002    2.75000000
   16.88305473   73.72100067    0.92000002    2.73000002
   16.88638878   78.17729950    0.94000000    2.75000000
   16.88722229   72.97219849    0.94000000    2.75000000
   16.88999939   72.97550201    0.98000002    2.75000000
   16.89333344   77.58110046    0.98000002    2.75000000
   16.89666748   76.89949799    1.03999996    2.73000002
   16.90250015   76.89949799    1.05999994    2.73000002
   16.90666580   76.54550171    1.05999994    2.75000000
   16.90972137   77.13739777    1.03999996    2.75000000
   16.91305542   79.76039886    0.89999998    2.75000000
   16.91638756   76.16089630    0.81999999    2.75000000
   16.91944313   78.39920044    0.81999999    2.75000000
   16.92055511   74.22609711    0.81999999    2.75000000
   16.92305565   77.88359833    0.80000001    2.75000000
   16.92638779   79.06970215    0.80000001    2.75000000
   16.92972183   78.58170319    0.80000001    2.75000000
   16.93277740   76.63970184    0.80000001    2.75000000
   16.93610954   73.39240265    0.80000001    2.75000000
   16.93944359   81.04989624    0.80000001    2.75000000
   16.94527626   81.04989624    0.80000001    2.75000000
   16.94944382   81.42289734    0.81999999    2.75000000
   16.95277786   79.52330017    0.80000001    2.73000002
   16.95388985   79.09089661    0.81999999    2.75000000
   16.95611191   77.42849731    0.81999999    2.75000000
   16.95944595   80.81639862    0.81999999    2.75000000
   16.96277809   79.04419708    0.83999997    2.75000000
   16.96583366   75.99780273    0.86000001    2.75000000
   16.96916771   77.79219818    0.83999997    2.75000000
   16.97222328   74.32279968    0.86000001    2.75000000
   16.97555542   76.90940094    0.88000000    2.75000000
   16.97888947   74.44560242    0.89999998    2.75000000
   16.98194504   73.25420380    0.92000002    2.75000000
   16.98833275   73.25420380    0.89999998    2.75000000
   16.99222183   77.56590271    0.92000002    2.75000000
   16.99555588   76.73010254    0.92000002    2.73000002
   16.99888992   75.24050140    0.92000002    2.75000000
   17.00194359   75.34349823    0.92000002    2.75000000
   17.00527763   72.69470215    0.92000002    2.73000002
   17.00833321   73.38040161    0.89999998    2.73000002
   17.01166725   74.85479736    0.92000002    2.73000002
   17.01499939   76.99479675    0.94000000    2.75000000
   17.01805496   74.40209961    0.94000000    2.75000000
   17.02055550   73.11270142    0.92000002    2.75000000
   17.02166557   76.50279999    0.94000000    2.75000000
   17.02499962   80.49770355    0.92000002    2.73000002
   17.03111076   80.49770355    0.94000000    2.73000002
   17.03527641   71.75140381    0.94000000    2.75000000
   17.03833199   72.78420258    0.94000000    2.75000000
   17.04166603   75.02349854    0.94000000    2.73000002
   17.04500008   78.27100372    0.94000000    2.73000002
   17.04805565   73.33450317    0.94000000    2.75000000
   17.05138779   73.49629974    0.94000000    2.75000000
   17.05388832   74.81359863    0.94000000    2.75000000
   17.05499840   80.19840240    0.94000000    2.75000000
   17.05833244   75.83860016    0.94000000    2.75000000
   17.06166649   73.25340271    0.94000000    2.75000000
   17.06472206   74.71630096    0.94000000    2.73000002
   17.06805611   79.43840027    0.94000000    2.73000002
   17.07389069   79.43840027    0.98000002    2.71000004
   17.07805634   74.16449738    0.95999998    2.73000002
   17.08111191   74.51399994    1.00000000    2.73000002
   17.08444595   75.27950287    1.03999996    2.73000002
   17.08722305   79.70559692    1.00000000    2.75000000
   17.08805656   76.76580048    0.95999998    2.75000000
   17.09138870   78.67279816    0.95999998    2.75000000
   17.09472275   74.94380188    0.95999998    2.75000000
   17.09777832   72.13719940    0.94000000    2.73000002
   17.10111237   77.17530060    0.94000000    2.75000000
   17.10416794   74.56710052    0.95999998    2.75000000
   17.10750008   76.87090302    1.01999998    1.69000006
   17.11083412   74.97440338    1.05999994    2.73000002
   17.11666679   74.97440338    2.00000000    2.71000004
   17.12083435   77.78769684    2.57999992    2.71000004
   17.12416649   74.40689850    4.67999983    2.71000004
   17.12722206   79.14600372    4.59999990    2.66000009
   17.13055611   79.45839691    4.80000019    2.59999990
   17.13388824   86.10500336    4.90999985    2.55999994
   17.13694382   85.54789734    4.90999985    2.51999998
   17.14027786   79.59940338    4.90999985    2.39000010
   17.14333344   74.86160278    4.90999985    2.55999994
   17.14666748   75.94110107    4.90999985    2.59999990
   17.14999962   79.97280121    4.13999987    2.69000006
   17.15305519   78.52400208    4.34999990    2.69000006
   17.15388870   77.45300293    4.34999990    2.69000006
   17.15944481   77.45300293    4.90999985    2.64000010
   17.16361046   80.52079773    4.90999985    2.61999989
   17.16694450   80.85910034    4.90999985    2.64000010
   17.17027664   78.91100311    4.90999985    2.67000008
   17.17333221   78.53289795    4.34999990    2.66000009
   17.17666626   79.14070129    4.05999994    2.69000006
   17.17972183   81.41529846    4.90999985    2.66000009
   17.18305397   -1.00000000    4.90999985    2.32999992
   17.18638802   -1.00000000    4.90999985    1.03999996
   17.18972206   -1.00000000    4.90999985    0.61000001
   17.19305420   -1.00000000    4.90999985    0.20999999
   17.19610977   -1.00000000    4.90999985    0.28000000
   17.20639038   -1.00000000    4.90999985    0.46000001
   17.20972252   -1.00000000    4.90999985    0.69000000
   17.21305656  102.60500336    4.90999985    1.94000006
   17.21611214  183.28799438    4.90999985    2.09999990
   17.21944427  171.16499329    4.90999985    2.03999996
   17.22277832   -1.00000000    4.90999985    1.78999996
   17.22611237   -1.00000000    4.90999985    1.91999996
   17.22916794   -1.00000000    4.90999985    0.51999998
   17.23250008   -1.00000000    4.90999985    0.30000001
   17.23583412   -1.00000000    4.90999985    1.55999994
   17.23888969   -1.00000000    4.90999985    1.61000001
   17.24527740   -1.00000000    4.90999985    1.86000001
   17.24944496   -1.00000000    4.90999985    0.70999998
   17.25250053   -1.00000000    4.90999985    0.25000000
   17.25611115   -1.00000000    4.90999985    1.09000003
   17.25944519   -1.00000000    4.90999985    0.19000000
   17.26250076   -1.00000000    4.90999985    0.46000001
   17.26583290  155.88099670    4.90999985    0.88000000
   17.26916695   81.52380371    4.90999985    2.01999998
   17.27222252   88.40399933    4.90999985    2.71000004
   17.27555466   82.47589874    4.90999985    2.67000008
   17.27888870   -1.00000000    4.90999985    2.48000002
   17.28194427  182.45300293    4.90999985    2.11999989
   17.28805542  182.45300293    4.90999985    1.51999998
   17.29222107   -1.00000000    4.90999985    0.89999998
   17.29555511   -1.00000000    4.90999985    0.64999998
   17.29861069   -1.00000000    4.90999985    1.13000000
   17.30194283   -1.00000000    4.90999985    0.70999998
   17.30527687   -1.00000000    4.90999985    0.25000000
   17.30833244   -1.00000000    4.90999985    0.03000000
   17.31166649   -1.00000000    4.90999985    0.03000000
   17.31472206   -1.00000000    4.90999985    0.03000000
   17.31805611   -1.00000000    4.90999985    0.03000000
   17.32166672   -1.00000000    4.90999985    0.03000000
   17.32500076   -1.00000000    4.90999985    0.03000000
   17.33500099   -1.00000000    4.90999985    0.28000000
   17.33833313   -1.00000000    4.90999985    1.58000004
   17.34138870   -1.00000000    4.90999985    1.83000004
   17.34472275   -1.00000000    4.90999985    1.66999996
   17.34805679   -1.00000000    4.90999985    2.03999996
   17.35111237   -1.00000000    4.90999985    2.25000000
   17.35472298   -1.00000000    4.90999985    2.07999992
   17.35805511   -1.00000000    4.90999985    2.17000008
   17.36111069   -1.00000000    4.90999985    2.36999989
   17.36444473   -1.00000000    4.90999985    2.40000010
   17.36777878   -1.00000000    4.90999985    2.46000004
   17.37777710   -1.00000000    4.90999985    2.48000002
   17.38111115   -1.00000000    4.90999985    2.55999994
   17.38416672   -1.00000000    4.90999985    2.55999994
   17.38777733   -1.00000000    4.90999985    0.69000000
   17.39111137   -1.00000000    4.90999985    0.50000000
   17.39416695   -1.00000000    4.90999985    0.47999999
   17.39749908   -1.00000000    4.90999985    0.15000001
   17.40083313   -1.00000000    4.90999985    0.03000000
   17.40388870   -1.00000000    4.90999985    0.09000000
   17.40722275   -1.00000000    4.90999985    0.17000000
   17.41055489   -1.00000000    4.90999985    0.30000001
   17.42138863   -1.00000000    0.00000000    0.00000000
   18.10222244   75.40160370    2.84999990    2.73000002
   18.10555649   76.25379944    2.19000006    2.73000002
   18.10861206   73.77359772    1.86000001    2.73000002
   18.11194420   79.66349792    2.44000006    2.71000004
   18.11499977   86.44400024    4.46999979    2.73000002
   18.11833382   82.22779846    4.90999985    2.44000006
   18.12249947   82.22779846    4.90999985    2.66000009
   18.12666702   79.66699982    4.90999985    2.73000002
   18.12972260   87.42970276    4.90999985    2.73000002
   18.13305473  162.80700684    4.90999985    2.76999998
   18.13666725   -1.00000000    4.90999985    0.76999998
   18.13999939   -1.00000000    4.90999985    0.52999997
   18.14305496   -1.00000000    4.90999985    0.20999999
   18.14638901   -1.00000000    4.90999985    0.20999999
   18.14972115   -1.00000000    4.90999985    0.25000000
   18.15277672   -1.00000000    4.90999985    0.46000001
   18.15611076   -1.00000000    4.90999985    0.81999999
   18.15944481   81.08200073    4.90999985    2.13000011
   18.16527748   81.08200073    4.90999985    2.61999989
   18.16944313   82.77100372    4.90999985    2.64000010
   18.17277718   81.63469696    4.90999985    2.67000008
   18.17583275   85.21260071    3.68000007    2.69000006
   18.17916679   81.59049988    2.40000010    2.71000004
   18.18249893   78.98770142    1.80999994    2.71000004
   18.18555450   77.87809753    1.30999994    2.73000002
   18.18888855   74.06790161    1.36000001    2.73000002
   18.19194412   75.65779877    1.50000000    2.71000004
   18.19527626   78.77629852    1.25000000    2.73000002
   18.19861031   75.34149933    1.30999994    2.73000002
   18.20166779   77.34950256    1.33000004    2.73000002
   18.20222282   76.82559967    1.33000004    2.73000002
   18.20805550   76.82559967    4.90999985    2.71000004
   18.21222305   79.91449738    4.90999985    2.73000002
   18.21555710   87.10160065    4.90999985    2.78999996
   18.21888924   75.36730194    4.90999985    2.40000010
   18.22194481  147.69500732    4.90999985    2.78999996
   18.22527885   86.44760132    4.90999985    1.41999996
   18.22833443   91.16130066    4.90999985    2.28999996
   18.23166656  147.36000061    4.90999985    2.05999994
   18.23500061   91.02420044    4.90999985    2.51999998
   18.23555565   86.33999634    4.90999985    2.55999994
   18.23861122   79.27069855    4.90999985    2.75000000
   18.24194527   85.84439850    2.30999994    2.73000002
   18.24500084   83.70459747    2.25000000    2.71000004
   18.25111198   83.70459747    2.05999994    2.71000004
   18.25527763   79.97049713    2.13000011    2.71000004
   18.25833321   79.55940247    2.51999998    2.71000004
   18.26166725   78.28119659    2.59999990    2.71000004
   18.26472282   76.43440247    2.89000010    2.71000004
   18.26805496   74.87799835    2.78999996    2.73000002
   18.26888847   75.52980042    4.23999977    2.73000002
   18.27166557   76.36250305    4.90999985    2.78999996
   18.27499962  142.56599426    4.90999985    2.84999990
   18.27805519  195.52299500    4.90999985    2.07999992
   18.28138924   -1.00000000    4.90999985    1.71000004
   18.28444481   96.61470032    4.90999985    2.09999990
   18.28777695  160.09800720    4.90999985    1.64999998
   18.29388809  160.09800720    4.90999985    2.53999996
   18.29805565   74.48690033    3.28999996    2.75000000
   18.30111122   78.25319672    4.90999985    2.75000000
   18.30222130   87.22319794    4.90999985    2.75000000
   18.30499840   80.53569794    4.90999985    2.46000004
   18.30833244   93.56230164    4.90999985    2.55999994
   18.31138802   82.69650269    4.90999985    2.59999990
   18.31472206   78.01989746    4.90999985    2.69000006
   18.31777954   81.97149658    4.90999985    2.75000000
   18.32111168   75.34660339    4.90999985    2.76999998
   18.32444572   78.94680023    4.90999985    2.75000000
   18.32750130   83.66870117    4.90999985    2.69000006
   18.33083344   79.84709930    4.90999985    2.69000006
   18.33666801   79.84709930    4.90999985    2.71000004
   18.34083366   82.70400238    4.44999981    2.67000008
   18.34416771   79.65489960    3.82999992    2.75000000
   18.34722328   79.62030029    4.55999994    2.71000004
   18.35055542   78.03050232    4.90999985    2.71000004
   18.35388947   77.50779724    4.90999985    2.71000004
   18.35694504   79.45909882    4.90999985    2.75000000
   18.36027908   75.73310089    2.67000008    2.71000004
   18.36333466   82.72489929    2.26999998    2.71000004
   18.36666679   75.46209717    2.15000010    2.71000004
   18.36888885   79.12809753    1.66999996    2.73000002
   18.37027740   79.28919983    1.63000000    2.73000002
   18.37361145   83.30750275    1.58000004    2.69000006
   18.37944412   83.30750275    1.25000000    2.71000004
   18.38361168   79.55269623    1.13000000    2.73000002
   18.38694382   73.59619904    1.13000000    2.73000002
   18.39027786   77.92160034    1.09000003    2.71000004
   18.39333344   76.22190094    1.09000003    2.73000002
   18.39666748   76.47609711    1.05999994    2.71000004
   18.39972115   75.33409882    1.05999994    2.73000002
   18.40222168   80.97989655    1.05999994    2.73000002
   18.40361023   76.55079651    1.03999996    2.73000002
   18.40694427   81.10759735    1.03999996    2.73000002
   18.40999985   76.77359772    1.01999998    2.73000002
   18.41333389   74.93419647    1.03999996    2.73000002
   18.41638756   77.03199768    1.05999994    2.71000004
   18.42249870   77.03199768    4.90999985    0.98000002
   18.42666626   76.20010376    4.90999985    1.86000001
   18.42972183   77.38410187    4.90999985    2.76999998
   18.43305397   77.38890076    1.71000004    2.73000002
   18.43555450   76.43219757    1.53999996    2.71000004
   18.43666649   75.17539978    1.48000002    2.71000004
   18.43999863   77.85600281    1.28999996    2.71000004
   18.44305420   74.94629669    1.23000002    2.71000004
   18.44638824   76.22850037    1.19000006    2.71000004
   18.44944382   74.81890106    1.09000003    2.71000004
   18.45277786   75.73509979    1.13000000    2.71000004
   18.45611191   75.51789856    1.11000001    2.71000004
   18.45916748   77.57389832    1.09000003    2.73000002
   18.46527863   77.57389832    1.03999996    2.71000004
   18.46944427   77.53810120    1.07000005    2.71000004
   18.47249985   76.92379761    1.01999998    2.71000004
   18.47583389   76.71869659    1.00000000    2.71000004
   18.47916794   76.13580322    1.05999994    2.71000004
   18.48222351   74.38980103    1.05999994    2.71000004
   18.48555565   76.05870056    1.03999996    2.71000004
   18.48888969   78.66449738    1.03999996    2.71000004
   18.49194527   76.11640167    1.03999996    2.71000004
   18.49527740   76.27909851    1.01999998    2.71000004
   18.49833298   73.23670197    0.95999998    2.73000002
   18.50166702   75.51370239    0.92000002    2.73000002
   18.50222206   78.41400146    0.92000002    2.73000002
   18.50805473   78.41400146    0.89999998    2.71000004
   18.51222229   73.29579926    1.00000000    2.71000004
   18.51555634   77.18840027    1.00000000    2.71000004
   18.51861000   75.52330017    0.94000000    2.71000004
   18.52194405   72.92829895    4.90999985    2.73000002
   18.52527809   78.73169708    4.90999985    2.73000002
   18.52833366   74.39230347    0.94000000    2.71000004
   18.53166580   73.04789734    0.92000002    2.71000004
   18.53472137   76.34079742    0.88000000    2.71000004
   18.53555489   74.71450043    0.89999998    2.69000006
   18.53833199   75.14700317    0.89999998    2.69000006
   18.54166603   74.17810059    0.92000002    2.69000006
   18.54472160   73.74040222    0.92000002    2.71000004
   18.55111122   73.74040222    0.92000002    2.71000004
   18.55499840   73.61789703    0.95999998    2.71000004
   18.55833244   72.44999695    0.94000000    2.71000004
   18.56166649   74.92140198    0.94000000    2.71000004
   18.56472206   77.07980347    0.94000000    2.71000004
   18.56805611   76.94000244    1.25000000    2.71000004
   18.56888962   76.58000183    1.28999996    2.69000006
   18.57166672   76.46499634    1.48000002    2.69000006
   18.57500076   75.86299896    2.03999996    2.69000006
   18.57805634   74.37689972    2.50000000    2.67000008
   18.58139038   76.08280182    2.71000004    2.66000009
   18.58472252   75.85500336    4.71999979    2.64000010
   18.58777809   76.69409943    4.61999989    2.67000008
   18.59388924   76.69409943    3.30999994    2.66000009
   18.59805679   76.85939789    2.03999996    2.69000006
   18.60111237   75.05799866    1.83000004    2.71000004
   18.60222244   75.83100128    1.83000004    2.71000004
   18.60472298   79.13330078    1.76999998    2.71000004
   18.60805511   75.45909882    1.53999996    2.69000006
   18.61111069   76.06469727    1.38000000    2.71000004
   18.61444473   76.10389709    1.16999996    2.69000006
   18.61777878   74.17320251    1.03999996    2.71000004
   18.62083435   79.42160034    0.94000000    2.71000004
   18.62416649   74.46109772    0.89999998    2.71000004
   18.62750053   77.74700165    0.83999997    2.71000004
   18.63055611   77.17819977    0.86000001    2.71000004
   18.63666725   77.17819977    0.86000001    2.71000004
   18.64083290   75.57279968    0.81999999    2.71000004
   18.64388847   76.16970062    0.81999999    2.71000004
   18.64722252   76.73539734    1.01999998    2.71000004
   18.65055466   79.62020111    2.78999996    2.71000004
   18.65361023   77.08260345    2.25000000    2.71000004
   18.65694427   74.40920258    1.76999998    2.69000006
   18.66027832   76.81569672    1.55999994    2.69000006
   18.66333389   76.91439819    1.34000003    2.71000004
   18.66666603   76.68479919    1.36000001    2.69000006
   18.66888809   75.05930328    1.58000004    2.69000006
   18.67027664   75.71589661    1.58000004    2.69000006
   18.67361069   74.64720154    1.63000000    2.69000006
   18.67944336   74.64720154    1.60000002    2.71000004
   18.68361092   74.39219666    1.55999994    2.69000006
   18.68694305   75.82340240    1.41999996    2.69000006
   18.68999863   73.79530334    1.28999996    2.71000004
   18.69333267   74.07350159    1.28999996    2.71000004
   18.69666672   80.49859619    1.28999996    2.69000006
   18.70000076   77.46299744    1.28999996    2.69000006
   18.70222282   77.44249725    1.13000000    2.69000006
   18.70361137   75.65740204    1.13000000    2.69000006
   18.70694542   79.32409668    1.09000003    2.69000006
   18.71000099   81.16419983    1.09000003    2.69000006
   18.71333504   74.80970001    1.13000000    2.71000004
   18.71666718   76.06230164    1.13000000    2.69000006
   18.72222328   76.06230164    1.14999998    2.71000004
   18.72638893   75.09929657    1.21000004    2.69000006
   18.72972298   72.44979858    1.23000002    2.69000006
   18.73305511   73.70850372    1.25000000    2.69000006
   18.73555565   74.95800018    1.26999998    2.69000006
   18.73666763   75.26020050    1.26999998    2.69000006
   18.73999977   76.59960175    1.26999998    2.69000006
   18.74305534   72.88430023    1.28999996    2.71000004
   18.74638939   72.11560059    1.33000004    2.69000006
   18.74972153   73.62699890    1.36000001    2.69000006
   18.75277710   73.89440155    1.41999996    2.69000006
   18.75611115   74.94010162    1.41999996    2.67000008
   18.75944519   78.44499969    1.41999996    2.67000008
   18.76527786   78.44499969    1.25000000    2.71000004
   18.76944351   75.54350281    1.25000000    2.69000006
   18.77249908   75.30829620    1.39999998    2.71000004
   18.77583313   75.32440186    1.39999998    2.69000006
   18.77888870   75.65280151    1.39999998    2.69000006
   18.78222275   75.78800201    1.39999998    2.69000006
   18.78555489   76.47750092    1.44000006    2.69000006
   18.78861046   75.72609711    1.39999998    2.69000006
   18.79194450   74.93000031    1.33000004    2.69000006
   18.79527664   76.11270142    1.60000002    2.69000006
   18.79833221   75.34040070    1.91999996    2.69000006
   18.80166626   76.95590210    1.89999998    2.69000006
   18.80222130   74.53479767    1.63000000    2.69000006
   18.80805397   74.53479767    1.61000001    2.67000008
   18.81222153   74.74939728    1.48000002    2.67000008
   18.81527710   74.46980286    1.51999998    2.67000008
   18.81861115   80.55919647    1.51999998    2.69000006
   18.82194519   75.75029755    1.48000002    2.66000009
   18.82500076   77.88790131    1.71000004    2.67000008
   18.82833481   74.95110321    1.44000006    2.67000008
   18.83166695   75.39769745    1.48000002    2.67000008
   18.83472252   78.08820343    1.48000002    2.67000008
   18.83583450   76.43840027    1.48000002    2.67000008
   18.83833313   77.98149872    1.51999998    2.69000006
   18.84166718   75.75109863    1.28999996    2.69000006
   18.84472275   75.39459991    1.25000000    2.69000006
   18.85083389   75.39459991    1.13000000    2.69000006
   18.85499954   77.53230286    1.14999998    2.69000006
   18.85833359   77.32679749    1.09000003    2.69000006
   18.86138916   75.25569916    1.09000003    2.69000006
   18.86472321   77.18109894    1.09000003    2.69000006
   18.86805534   77.58789825    1.51999998    2.69000006
   18.86916733   78.53530121    1.25000000    2.69000006
   18.87166595   79.94329834    1.07000005    2.57999992
   18.87500000   76.37149811    1.34000003    2.69000006
   18.87805557   76.61100006    1.34000003    2.69000006
   18.88138962   74.38130188    1.16999996    2.67000008
   18.88472176   76.09459686    1.23000002    2.67000008
   18.88777733   74.10959625    1.23000002    2.69000006
   18.89361191   74.10959625    1.25000000    2.69000006
   18.89777756   75.21820068    1.19000006    2.69000006
   18.90111160   78.70410156    1.19000006    2.69000006
   18.90250015   75.15370178    1.14999998    2.69000006
   18.90472221   79.06839752    1.11000001    2.69000006
   18.90805435   75.69249725    1.09000003    2.67000008
   18.91110992   76.56490326    1.09000003    2.67000008
   18.91444397   77.41200256    1.09000003    2.69000006
   18.91777802   76.70249939    1.36000001    2.67000008
   18.92083359   77.56220245    1.41999996    2.67000008
   18.92416573   75.43609619    1.41999996    2.67000008
   18.92749977   74.55840302    1.44000006    2.67000008
   18.93055534   75.70719910    1.44000006    2.67000008
   18.93666649   75.70719910    1.44000006    2.67000008
   18.94083214   75.30419922    1.38000000    2.67000008
   18.94388771   76.36589813    1.38000000    2.67000008
   18.94722176   75.26100159    1.46000004    2.67000008
   18.95027924   75.48030090    1.48000002    2.67000008
   18.95361137   76.69219971    1.48000002    2.67000008
   18.95694542   75.23380280    1.46000004    2.67000008
   18.96000099   73.85160065    1.46000004    2.67000008
   18.96333504   73.69609833    1.46000004    2.67000008
   18.96666718   77.45729828    1.25000000    2.67000008
   18.96916771   76.64179993    1.25000000    2.67000008
   18.97027779   76.15760040    1.25000000    2.69000006
   18.97361183   76.02850342    1.25000000    2.69000006
   18.97944450   76.02850342    1.34000003    2.67000008
   18.98361206   75.33630371    1.71000004    2.66000009
   18.98666763   75.24109650    1.76999998    2.67000008
   18.98999977   77.88950348    1.75000000    2.66000009
   18.99333382   77.13159943    1.91999996    2.66000009
   18.99638939   76.71540070    2.21000004    2.66000009
   18.99972153   74.21070099    2.21000004    2.66000009
   19.00250053   78.31929779    2.26999998    2.66000009
   19.00333405   78.04000092    2.19000006    2.66000009
   19.00666618   77.26519775    2.21000004    2.66000009
   19.00972176   74.16459656    2.26999998    2.67000008
   19.01305580   72.32939911    2.13000011    2.66000009
   19.01638794   74.77210236    2.19000006    2.67000008
   19.02222252   74.77210236    2.39000010    2.66000009
   19.02638817   74.24120331    2.23000002    2.66000009
   19.02972221   76.53420258    2.17000008    2.66000009
   19.03277779   73.50869751    2.00000000    2.66000009
   19.03583336   79.51950073    1.94000006    2.66000009
   19.03638840   -1.00000000    1.94000006    2.66000009
   19.03972244   -1.00000000    1.73000002    2.67000008
   19.04277802   -1.00000000    1.66999996    2.66000009
   19.04611015   -1.00000000    1.63000000    2.67000008
   19.04944420   -1.00000000    1.73000002    2.67000008
   19.05249977   -1.00000000    3.50000000    2.64000010
   19.05583191   -1.00000000    2.98000002    2.64000010
   19.05888748   -1.00000000    2.84999990    2.64000010
   19.06916809   -1.00000000    2.30999994    2.64000010
   19.07222366   -1.00000000    1.96000004    2.66000009
   19.07555580   -1.00000000    1.66999996    2.66000009
   19.07888985   -1.00000000    1.78999996    2.66000009
   19.08194542   -1.00000000    1.78999996    2.67000008
   19.08527756   -1.00000000    1.66999996    2.66000009
   19.08861160   -1.00000000    1.71000004    2.66000009
   19.09166718   -1.00000000    1.55999994    2.66000009
   19.09500122   -1.00000000    1.58000004    2.66000009
   19.09805679   -1.00000000    1.53999996    2.66000009
   19.10138893   -1.00000000    1.46000004    2.66000009
   19.12694550   -1.00000000    2.11999989    2.66000009
   19.13027763   -1.00000000    2.25000000    2.66000009
   19.13361168   -1.00000000    2.15000010    2.64000010
   19.13694382   -1.00000000    2.07999992    2.66000009
   19.14027786   -1.00000000    1.89999998    2.66000009
   19.14333344   -1.00000000    2.01999998    2.66000009
   19.14666748   -1.00000000    2.05999994    2.66000009
   19.14972115   -1.00000000    2.09999990    2.64000010
   19.15305519   -1.00000000    2.01999998    2.64000010
   19.15638924   -1.00000000    2.11999989    2.64000010
   19.15944481   -1.00000000    1.98000002    2.64000010
   19.16972160   -1.00000000    1.75000000    2.64000010
   19.17305565   -1.00000000    1.69000006    2.66000009
   19.17638779   -1.00000000    1.69000006    2.66000009
   19.17944336   -1.00000000    1.41999996    2.66000009
   19.18277740   -1.00000000    1.44000006    2.66000009
   19.18583298   -1.00000000    1.60000002    2.64000010
   19.18916512   -1.00000000    1.76999998    2.66000009
   19.19249916   -1.00000000    1.76999998    2.66000009
   19.19555473   -1.00000000    2.11999989    2.64000010
   19.19888878   -1.00000000    2.15000010    2.64000010
   19.20194435   -1.00000000    2.25000000    2.64000010
   19.21250153   -1.00000000    3.68000007    2.61999989
   19.21583366   -1.00000000    3.26999998    2.61999989
   19.21916771   -1.00000000    2.71000004    2.64000010
   19.22222328   -1.00000000    2.61999989    2.61999989
   19.22555542   -1.00000000    2.26999998    2.61999989
   19.22888947   -1.00000000    2.11999989    2.64000010
   19.23194504   -1.00000000    1.85000002    2.64000010
   19.23527718   -1.00000000    1.94000006    2.64000010
   19.23888969   -1.00000000    2.07999992    2.66000009
   19.24194527   -1.00000000    1.91999996    2.64000010
   19.24527740   -1.00000000    2.05999994    2.64000010
   19.25555611   -1.00000000    1.69000006    2.66000009
   19.25861168   -1.00000000    1.21000004    2.66000009
   19.26194382   -1.00000000    1.25000000    2.66000009
   19.26527786   -1.00000000    1.25000000    2.66000009
   19.26833344   -1.00000000    1.25000000    2.66000009
   19.27194405   -1.00000000    1.23000002    2.66000009
   19.27499962   -1.00000000    1.19000006    2.66000009
   19.27833366   -1.00000000    1.19000006    2.64000010
   19.28166580   -1.00000000    1.16999996    2.66000009
   19.28472137   -1.00000000    1.05999994    2.66000009
   19.28805542   -1.00000000    1.05999994    2.66000009
   19.29833221   -1.00000000    1.00000000    2.66000009
   19.30166626   -1.00000000    1.01999998    2.66000009
   19.30527687   -1.00000000    1.00000000    2.66000009
   19.30833244   -1.00000000    1.00000000    2.66000009
   19.31166649   -1.00000000    0.95999998    2.66000009
   19.31499863   -1.00000000    0.94000000    2.66000009
   19.31805611   -1.00000000    0.98000002    2.67000008
   19.32139015   -1.00000000    0.98000002    2.67000008
   19.32444572   -1.00000000    0.94000000    2.67000008
   19.32777786   -1.00000000    0.98000002    2.66000009
   19.33111191   -1.00000000    1.00000000    2.66000009
   19.34138870   -1.00000000    0.95999998    2.66000009
   19.34444427   -1.00000000    0.98000002    2.66000009
   19.34777832   -1.00000000    0.95999998    2.66000009
   19.35111237   -1.00000000    0.95999998    2.64000010
   19.35416794   -1.00000000    0.95999998    2.64000010
   19.35750008   -1.00000000    1.01999998    2.66000009
   19.36083412   -1.00000000    1.07000005    2.66000009
   19.36388969   -1.00000000    1.07000005    2.64000010
   19.36722183   -1.00000000    1.11000001    2.64000010
   19.37083435   -1.00000000    1.13000000    2.64000010
   19.37388992   -1.00000000    1.14999998    2.66000009
   19.38388824   -1.00000000    1.03999996    2.64000010
   19.38722229   -1.00000000    1.01999998    2.64000010
   19.39055634   -1.00000000    1.01999998    2.64000010
   19.39361191   -1.00000000    1.01999998    2.64000010
   19.39694405   -1.00000000    1.03999996    2.64000010
   19.40027809   -1.00000000    1.03999996    2.64000010
   19.40388870   -1.00000000    1.03999996    2.64000010
   19.40694427   -1.00000000    1.03999996    2.64000010
   19.41027832   -1.00000000    1.09000003    2.64000010
   19.41361046   -1.00000000    1.03999996    2.64000010
   19.41666603   -1.00000000    1.05999994    2.64000010
   19.42694473   -1.00000000    1.01999998    2.64000010
   19.43000031   -1.00000000    1.01999998    2.64000010
   19.43333244   -1.00000000    1.03999996    2.64000010
   19.43694305   -1.00000000    1.01999998    2.64000010
   19.43999863   -1.00000000    1.03999996    2.64000010
   19.44333267   -1.00000000    1.00000000    2.64000010
   19.44666672   -1.00000000    1.00000000    2.64000010
   19.44972038   -1.00000000    1.00000000    2.64000010
   19.45305634   -1.00000000    1.03999996    2.64000010
   19.45611191   -1.00000000    1.05999994    2.64000010
   19.45944595   -1.00000000    1.05999994    2.66000009
   19.46972275   -1.00000000    1.13000000    2.64000010
   19.47305679   -1.00000000    1.19000006    2.64000010
   19.47611237   -1.00000000    1.25000000    2.64000010
   19.47944450   -1.00000000    1.28999996    2.61999989
   19.48250008   -1.00000000    1.28999996    2.64000010
   19.48583412   -1.00000000    1.33000004    2.64000010
   19.48916626   -1.00000000    1.33000004    2.64000010
   19.49222183   -1.00000000    1.33000004    2.64000010
   19.49583435   -1.00000000    1.34000003    2.64000010
   19.49888992   -1.00000000    1.30999994    2.64000010
   19.50222206   -1.00000000    1.30999994    2.64000010
   19.51250076   -1.00000000    1.38000000    2.61999989
   19.51583290   -1.00000000    1.41999996    2.64000010
   19.51888847   -1.00000000    1.39999998    2.61999989
   19.52222252   -1.00000000    1.39999998    2.61999989
   19.52555466   -1.00000000    1.30999994    2.64000010
   19.52861023   -1.00000000    1.33000004    2.61999989
   19.53194427   -1.00000000    1.33000004    2.61999989
   19.53527641   -1.00000000    1.33000004    2.61999989
   19.53861046   -1.00000000    1.36000001    2.64000010
   19.54194450   -1.00000000    1.41999996    2.61999989
   19.54500008   -1.00000000    1.58000004    2.64000010
   19.55527687   -1.00000000    1.50000000    2.61999989
   19.55861092   -1.00000000    1.50000000    2.61999989
   19.56194305   -1.00000000    1.48000002    2.61999989
   19.56499863   -1.00000000    1.48000002    2.61999989
   19.56833458   -1.00000000    1.50000000    2.64000010
   19.57194519   -1.00000000    1.50000000    2.64000010
   19.57527924   -1.00000000    1.50000000    2.61999989
   19.57833481   -1.00000000    1.51999998    2.61999989
   19.58166695   -1.00000000    1.51999998    2.61999989
   19.58500099   -1.00000000    2.25000000    2.61999989
   19.58805656   -1.00000000    2.25000000    2.61999989
   19.59833336   -1.00000000    4.90999985    2.59999990
   19.60138893   -1.00000000    4.90999985    2.55999994
   19.60499954   -1.00000000    4.90999985    2.57999992
   19.60833359   -1.00000000    4.90999985    2.61999989
   19.61138916   -1.00000000    4.90999985    2.61999989
   19.61472321   -1.00000000    4.90999985    2.53999996
   19.61777878   -1.00000000    4.09999990    2.57999992
   19.62111092   -1.00000000    3.99000001    2.59999990
   19.62444496   -1.00000000    3.89000010    2.55999994
   19.62750053   -1.00000000    4.38999987    2.57999992
   19.63083267   -1.00000000    4.73999977    2.59999990
   19.64111137   -1.00000000    4.90999985    2.57999992
   19.64416695   -1.00000000    4.90999985    2.51999998
   19.64749908   -1.00000000    4.90999985    2.48000002
   19.65083313   -1.00000000    4.90999985    2.48000002
   19.65388870   -1.00000000    4.90999985    2.42000008
   19.65722275   -1.00000000    4.90999985    2.44000006
   19.66055489   -1.00000000    4.90999985    2.44000006
   19.66361046   -1.00000000    4.90999985    2.39000010
   19.66694450   -1.00000000    4.90999985    2.39000010
   19.67055511   -1.00000000    4.90999985    2.36999989
   19.67388916   -1.00000000    4.90999985    2.42000008
   19.68388748   -1.00000000    4.90999985    2.39000010
   19.68722153   -1.00000000    4.90999985    2.46000004
   19.69027710   -1.00000000    4.90999985    2.46000004
   19.69361115   -1.00000000    4.90999985    2.50000000
   19.69694328   -1.00000000    4.90999985    2.51999998
   19.70000076   -1.00000000    4.90999985    2.51999998
   19.70361137   -1.00000000    4.90999985    2.51999998
   19.70694542   -1.00000000    4.80999994    2.51999998
   19.71000099   -1.00000000    4.67999983    2.55999994
   19.71333504   -1.00000000    4.44999981    2.55999994
   19.71638870   -1.00000000    4.17999983    2.59999990
   19.72666740   -1.00000000    2.91000009    2.59999990
   19.73000145   -1.00000000    2.76999998    2.59999990
   19.73333359   -1.00000000    2.51999998    2.59999990
   19.73666763   -1.00000000    2.21000004    2.59999990
   19.73999977   -1.00000000    2.03999996    2.57999992
   19.74305534   -1.00000000    1.91999996    2.57999992
   19.74638939   -1.00000000    1.78999996    2.55999994
   19.74944496   -1.00000000    1.76999998    2.53999996
   19.75277710   -1.00000000    1.85000002    2.59999990
   19.75611115   -1.00000000    1.76999998    2.59999990
   19.75916672   -1.00000000    1.50000000    2.59999990
   19.76972198   -1.00000000    1.21000004    2.59999990
   19.77277756   -1.00000000    1.23000002    2.59999990
   19.77611160   -1.00000000    1.23000002    2.59999990
   19.77916718   -1.00000000    1.23000002    2.59999990
   19.78249931   -1.00000000    1.25000000    2.61999989
   19.78583336   -1.00000000    1.33000004    2.59999990
   19.78888893   -1.00000000    1.34000003    2.59999990
   19.79222107   -1.00000000    1.34000003    2.59999990
   19.79555511   -1.00000000    1.34000003    2.59999990
   19.79861069   -1.00000000    1.34000003    2.59999990
   19.80194283   -1.00000000    1.34000003    2.59999990
   19.81250000   -1.00000000    1.21000004    2.59999990
   19.81555557   -1.00000000    1.23000002    2.59999990
   19.81888962   -1.00000000    1.28999996    2.59999990
   19.82222366   -1.00000000    1.33000004    2.59999990
   19.82527924   -1.00000000    1.33000004    2.59999990
   19.82861137   -1.00000000    1.44000006    2.57999992
   19.83194542   -1.00000000    1.53999996    2.57999992
   19.83500099   -1.00000000    1.53999996    2.57999992
   19.83861160   -1.00000000    1.71000004    2.57999992
   19.84194565   -1.00000000    1.73000002    2.57999992
   19.84500122   -1.00000000    1.73000002    2.57999992
   19.85527802   -1.00000000    2.01999998    2.59999990
   19.85861206   -1.00000000    2.11999989    2.57999992
   19.86166763   -1.00000000    2.23000002    2.57999992
   19.86499977   -1.00000000    2.34999990    2.55999994
   19.86833382   -1.00000000    2.51999998    2.55999994
   19.87166595   -1.00000000    3.07999992    2.55999994
   19.87500000   -1.00000000    2.98000002    2.57999992
   19.87805557   -1.00000000    2.76999998    2.36999989
   19.88138962   -1.00000000    2.48000002    2.09999990
   19.88472176   -1.00000000    2.84999990    2.53999996
   19.88777733   -1.00000000    4.53000021    2.59999990
   19.89805603   -1.00000000    1.85000002    2.57999992
   19.90138817   -1.00000000    1.64999998    2.57999992
   19.90499878   -1.00000000    1.55999994    2.59999990
   19.90833282   -1.00000000    1.55999994    2.57999992
   19.91138840   -1.00000000    1.53999996    2.59999990
   19.91472244   -1.00000000    1.76999998    2.57999992
   19.91805458   -1.00000000    2.71000004    2.59999990
   19.92111015   -1.00000000    4.48999977    2.59999990
   19.92444420   -1.00000000    4.90999985    2.61999989
   19.92749977   -1.00000000    4.90999985    2.61999989
   19.93083191   -1.00000000    4.90999985    2.61999989
   19.94111061   -1.00000000    4.90999985    2.61999989
   19.94416618   -1.00000000    4.90999985    2.09999990
   19.94749832   -1.00000000    4.90999985    2.59999990
   19.95055580   -1.00000000    4.90999985    2.66000009
   19.95388985   -1.00000000    4.90999985    2.67000008
   19.95722389   -1.00000000    4.90999985    2.51999998
   19.96027946   -1.00000000    4.90999985    1.48000002
   19.96361160   -1.00000000    4.90999985    1.16999996
   19.96694565   -1.00000000    4.90999985    1.89999998
   19.97027779   -1.00000000    4.90999985    1.38000000
   19.97361183   -1.00000000    4.90999985    0.63000000
   19.98388863   -1.00000000    4.90999985    2.21000004
   19.98694420   -1.00000000    4.90999985    2.64000010
   19.99027824   -1.00000000    4.90999985    2.64000010
   19.99361229   -1.00000000    4.90999985    2.61999989
   19.99666786   -1.00000000    4.90999985    2.61999989
   20.00000000   -1.00000000    4.44999981    2.59999990
   20.00361061   -1.00000000    2.64000010    2.59999990
   20.00694466   -1.00000000    1.96000004    2.57999992
   20.01000023   -1.00000000    1.73000002    2.57999992
   20.01333427   -1.00000000    1.60000002    2.57999992
   20.01666641   -1.00000000    1.58000004    2.55999994
   20.02666664   -1.00000000    1.55999994    2.55999994
   20.03000069   -1.00000000    1.55999994    2.55999994
   20.03305435   -1.00000000    1.53999996    2.55999994
   20.03666687   -1.00000000    1.50000000    2.55999994
   20.03999901   -1.00000000    1.50000000    2.55999994
   20.04305458   -1.00000000    1.48000002    2.55999994
   20.04638863   -1.00000000    1.46000004    2.55999994
   20.04972076   -1.00000000    1.46000004    2.55999994
   20.05277634   -1.00000000    1.44000006    2.55999994
   20.05611038   -1.00000000    1.41999996    2.55999994
   20.05916595   -1.00000000    1.41999996    2.55999994
   20.06944466   -1.00000000    1.38000000    2.55999994
   20.07277870   -1.00000000    1.39999998    2.55999994
   20.07611275   -1.00000000    1.39999998    2.55999994
   20.07916832   -1.00000000    1.38000000    2.55999994
   20.08250046   -1.00000000    1.38000000    2.55999994
   20.08555603   -1.00000000    1.30999994    2.55999994
   20.08889008   -1.00000000    1.30999994    2.55999994
   20.09222221   -1.00000000    1.30999994    2.55999994
   20.09527779   -1.00000000    1.26999998    2.55999994
   20.09861183   -1.00000000    1.26999998    2.55999994
   20.10194397   -1.00000000    1.25000000    2.55999994
   20.11250114   -1.00000000    1.33000004    2.57999992
   20.11555672   -1.00000000    1.33000004    2.55999994
   20.11888885   -1.00000000    1.30999994    2.55999994
   20.13861084   -1.00000000    1.30999994    2.55999994
   20.14194489   -1.00000000    1.30999994    2.55999994
   20.14527702   -1.00000000    1.30999994    2.55999994
   20.15527725   -1.00000000    1.30999994    2.53999996
   20.15861130   -1.00000000    1.30999994    2.53999996
   20.16166687   -1.00000000    1.30999994    2.55999994
   20.16499901   -1.00000000    1.33000004    2.53999996
   20.16833305   -1.00000000    1.30999994    2.53999996
   20.17166519   -1.00000000    1.30999994    2.53999996
   20.17499924   -1.00000000    1.28999996    2.55999994
   20.17805481   -1.00000000    1.28999996    2.55999994
   20.18138885   -1.00000000    1.30999994    2.53999996
   20.18444443   -1.00000000    1.30999994    2.55999994
   20.18777657   -1.00000000    1.28999996    2.55999994
   20.19805527   -1.00000000    1.26999998    2.53999996
   20.20138931   87.85019684    1.28999996    2.53999996
   20.20305634   95.12870026    1.28999996    2.55999994
   20.20499992   86.40390015    1.30999994    2.53999996
