    HOUR (UT)   FLARE FACTOR    SKY TESTER    SUN TESTER
   11.14083290   -1.00000000   -1.00000000   -1.00000000
   11.26000023  104.79299927    4.90999985    2.34999990
   11.26305580  106.25800323    4.90999985    2.32999992
   11.26638889  125.67299652    4.90999985    2.34999990
   11.26972198  123.94899750    4.90999985    2.34999990
   11.27277756  109.43299866    4.90999985    2.34999990
   11.27611065  106.71499634    4.90999985    2.34999990
   11.28027725  106.71499634    4.90999985    2.34999990
   11.28444481  117.77300262    4.90999985    2.34999990
   11.28750038  103.36000061    4.90999985    2.34999990
   11.29083347  117.88700104    4.90999985    2.36999989
   11.29305553  103.74299622    4.90999985    2.34999990
   11.29444504  108.45999908    4.90999985    2.34999990
   11.29777813  111.61000061    4.90999985    2.34999990
   11.30111122   99.79190063    4.90999985    2.34999990
   11.30416679  101.80899811    4.90999985    2.34999990
   11.30749989  110.31199646    4.90999985    2.34999990
   11.31055546  104.38999939    4.90999985    2.34999990
   11.31388950  113.26300049    4.90999985    2.34999990
   11.31722260  110.86699677    4.90999985    2.34999990
   11.32305527  110.86699677    4.90999985    2.36999989
   11.32722187  104.41699982    4.90999985    2.36999989
   11.33055592  110.83799744    4.90999985    2.36999989
   11.33361053  104.43399811    4.90999985    2.36999989
   11.33694458  110.05500031    4.90999985    2.36999989
   11.34000015  100.62899780    4.90999985    2.36999989
   11.34333324  107.33000183    4.90999985    2.36999989
   11.34666634  109.70200348    4.90999985    2.36999989
   11.35000038  113.10500336    4.90999985    2.39000010
   11.35305595  105.65299988    4.90999985    2.36999989
   11.35638905  105.20400238    4.90999985    2.36999989
   11.35944462   99.31400299    4.90999985    2.36999989
   11.36000061  102.99299622    4.90999985    2.39000010
   11.36583328  102.99299622    4.90999985    2.39000010
   11.36999989   97.25370026    4.90999985    2.39000010
   11.37333393  104.24299622    4.90999985    2.39000010
   11.37638855  107.09899902    4.90999985    2.39000010
   11.37972260   98.75289917    4.90999985    2.39000010
   11.38305569   99.71649933    4.90999985    2.39000010
   11.38611126  113.34999847    4.90999985    2.39000010
   11.38944435   98.62570190    4.90999985    2.40000010
   11.39277744  110.24500275    4.90999985    2.40000010
   11.39333344  107.01100159    4.90999985    2.40000010
   11.39638901   97.53959656    4.90999985    2.40000010
   11.39972210  101.42900085    4.90999985    2.39000010
   11.40277767   97.90299988    4.90999985    2.39000010
   11.40888882   97.90299988    4.90999985    2.39000010
   11.41277695   96.42859650    4.90999985    2.40000010
   11.41611099   94.24160004    4.90999985    2.40000010
   11.41944504   95.25180054    4.90999985    2.40000010
   11.42250061   98.35070038    4.90999985    2.40000010
   11.42583370   95.12090302    4.90999985    2.40000010
   11.42666721  103.27200317    4.90999985    2.40000010
   11.42944431   95.95429993    4.90999985    2.40000010
   11.43277836   97.75759888    4.90999985    2.40000010
   11.43583298  111.95800018    4.90999985    2.40000010
   11.43916702   91.93470001    4.90999985    2.40000010
   11.44250011  108.66699982    4.90999985    2.40000010
   11.44555569  104.85399628    4.90999985    2.40000010
   11.45166683  104.85399628    4.90999985    2.40000010
   11.45583344  100.25900269    4.90999985    2.40000010
   11.45888901  108.64600372    4.90999985    2.42000008
   11.46027756  109.31400299    4.90999985    2.42000008
   11.46249962  108.82599640    4.90999985    2.42000008
   11.46583271  107.21900177    4.90999985    2.42000008
   11.46888828  103.83399963    4.90999985    2.42000008
   11.47222137  107.19000244    4.90999985    2.40000010
   11.47555542  101.54799652    4.90999985    2.42000008
   11.47861099  100.85099792    4.90999985    2.42000008
   11.48194408   95.12359619    4.90999985    2.42000008
   11.48527813  108.24299622    4.90999985    2.42000008
   11.48833370   98.19640350    4.90999985    2.42000008
   11.49444485   98.19640350    4.90999985    2.42000008
   11.49861145   99.15720367    4.90999985    2.44000006
   11.50194454   98.75250244    4.90999985    2.42000008
   11.50500011  109.20899963    4.90999985    2.42000008
   11.50833321   98.99579620    4.90999985    2.42000008
   11.51166630   93.67919922    4.90999985    2.42000008
   11.51472187   97.18750000    4.90999985    2.42000008
   11.51805496  102.70800018    4.90999985    2.44000006
   11.52138901  106.92900085    4.90999985    2.44000006
   11.52444458  101.76699829    4.90999985    2.44000006
   11.52666664   96.99659729    4.90999985    2.42000008
   11.52805519   97.91609955    4.90999985    2.44000006
   11.53138828   96.10990143    4.90999985    2.44000006
   11.53722286   96.10990143    4.90999985    2.42000008
   11.54138947   94.46779633    4.90999985    2.44000006
   11.54472256   88.90080261    4.90999985    2.44000006
   11.54777813   91.50659943    4.90999985    2.44000006
   11.55111122   99.24109650    4.90999985    2.46000004
   11.55444431  103.11799622    4.90999985    2.46000004
   11.55749989  115.40399933    4.90999985    2.46000004
   11.56000042   92.66300201    4.90999985    2.46000004
   11.56111145   98.09140015    4.90999985    2.46000004
   11.56444454   97.55290222    4.90999985    2.46000004
   11.56750011  101.12400055    4.90999985    2.46000004
   11.57083321   91.52639771    4.90999985    2.44000006
   11.57416630   96.43910217    4.90999985    2.46000004
   11.58027744   96.43910217    4.90999985    2.46000004
   11.58416653   98.77819824    4.90999985    2.46000004
   11.58749962  100.27400208    4.90999985    2.46000004
   11.59083271  102.27300262    4.90999985    2.46000004
   11.59333324  100.32499695    4.90999985    2.46000004
   11.59444427   94.85769653    4.90999985    2.46000004
   11.59777737   99.80680084    4.90999985    2.46000004
   11.60083389  100.73000336    4.90999985    2.46000004
   11.60416698  104.59700012    4.90999985    2.46000004
   11.60750008   99.64270020    4.90999985    2.48000002
   11.61055565   92.17400360    4.90999985    2.46000004
   11.61388969  105.63999939    4.90999985    2.46000004
   11.61694431   88.41380310    4.90999985    2.46000004
   11.62305546   88.41380310    4.90999985    2.46000004
   11.62722206   99.99700165    4.90999985    2.46000004
   11.63027763  105.62500000    4.90999985    2.46000004
   11.63361073  104.98799896    4.90999985    2.48000002
   11.63694477   98.94149780    4.90999985    2.48000002
   11.64000034   94.41560364    4.90999985    2.48000002
   11.64333344   96.56700134    4.90999985    2.48000002
   11.64638901   94.87779999    4.90999985    2.48000002
   11.64972210  106.28299713    4.90999985    2.46000004
   11.65305519   93.14080048    4.90999985    2.48000002
   11.65611076   91.94930267    4.90999985    2.48000002
   11.65944386   91.22579956    4.90999985    2.48000002
   11.66027737   93.92690277    4.90999985    2.48000002
   11.66583252   93.92690277    4.90999985    2.48000002
   11.67000008  105.30599976    4.90999985    2.48000002
   11.67333412   98.44039917    4.90999985    2.50000000
   11.67638874  104.85900116    4.90999985    2.48000002
   11.67972279  102.37799835    4.90999985    2.48000002
   11.68277836   99.02929688    4.90999985    2.48000002
   11.68611145  100.35800171    4.90999985    2.48000002
   11.68944454  105.87300110    4.90999985    2.50000000
   11.69250011   95.01879883    4.90999985    2.48000002
   11.69361115   90.11170197    4.90999985    2.48000002
   11.69611073  103.26499939    4.90999985    2.48000002
   11.69944477  109.94599915    4.90999985    2.50000000
   11.70249939   93.35350037    4.90999985    2.50000000
   11.70861053   93.35350037    4.90999985    2.50000000
   11.71277714  104.03600311    4.90999985    2.50000000
   11.71611118   91.07009888    4.90999985    2.51999998
   11.71916580   93.81890106    4.90999985    2.50000000
   11.72249985   97.61360168    4.90999985    2.50000000
   11.72583294   92.98519897    4.90999985    2.48000002
   11.72694397   90.86060333    4.90999985    2.50000000
   11.72944355   94.38020325    4.90999985    2.50000000
   11.73277760   88.08719635    4.90999985    2.50000000
   11.73583317   96.30670166    4.90999985    2.50000000
   11.73916721   91.60320282    4.90999985    2.50000000
   11.74250031   93.55180359    4.90999985    2.50000000
   11.74555588   94.67790222    4.90999985    2.48000002
   11.75166702   94.67790222    4.90999985    2.50000000
   11.75555515   94.79830170    4.90999985    2.51999998
   11.75888920   89.01069641    4.90999985    2.50000000
   11.76027775   91.25650024    4.90999985    2.50000000
   11.76249981   89.22949982    4.90999985    2.50000000
   11.76583290   83.57080078    4.90999985    2.51999998
   11.76888847   84.24240112    4.90999985    2.50000000
   11.77222157   82.87619781    4.90999985    2.51999998
   11.77555561   89.97460175    4.90999985    2.51999998
   11.77861118   87.56479645    4.90999985    2.51999998
   11.78194427   88.41519928    4.90999985    2.50000000
   11.78527832   84.08480072    4.90999985    2.51999998
   11.78833389   88.57730103    4.90999985    2.51999998
   11.79444504   88.57730103    4.90999985    2.51999998
   11.79861164   86.80000305    4.90999985    2.51999998
   11.80166721   90.48840332    4.90999985    2.51999998
   11.80500031   86.81999969    4.90999985    2.51999998
   11.80833340   86.20230103    4.90999985    2.51999998
   11.81138897   92.31950378    4.90999985    2.51999998
   11.81472206   98.31919861    4.90999985    2.51999998
   11.81777763   90.08049774    4.90999985    2.53999996
   11.82111073   89.70259857    4.90999985    2.51999998
   11.82444477   89.42890167    4.90999985    2.51999998
   11.82694435   91.15160370    4.90999985    2.53999996
   11.82805538   87.92790222    4.90999985    2.51999998
   11.83138847   89.82759857    4.90999985    2.53999996
   11.83722210   89.82759857    4.90999985    2.53999996
   11.84138870   84.80940247    4.90999985    2.53999996
   11.84472179   84.77570343    4.90999985    2.51999998
   11.84777737   89.56040192    4.90999985    2.51999998
   11.85111141   87.07099915    4.90999985    2.53999996
   11.85444450   90.04000092    4.90999985    2.53999996
   11.85750008   90.29280090    4.90999985    2.53999996
   11.86027813   91.12439728    4.90999985    2.53999996
   11.86111164   87.78839874    4.90999985    2.53999996
   11.86444473   87.43949890    4.90999985    2.51999998
   11.86750031   98.27410126    4.90999985    2.51999998
   11.87083340   88.93240356    4.90999985    2.55999994
   11.87416649   92.80180359    4.90999985    2.53999996
   11.88000011   92.80180359    4.90999985    2.55999994
   11.88416672   85.41480255    4.90999985    2.55999994
   11.88749981   87.75869751    4.90999985    2.55999994
   11.89055538   95.13719940    4.90999985    2.53999996
   11.89361095   92.85769653    4.90999985    2.53999996
   11.89416695   82.37239838    4.90999985    2.55999994
   11.89750004   83.55200195    4.90999985    2.53999996
   11.90055561   86.59329987    4.90999985    2.53999996
   11.90388870   86.45819855    4.90999985    2.53999996
   11.90722179   92.01480103    4.90999985    2.53999996
   11.91027737   88.22570038    4.90999985    2.53999996
   11.91361046   86.51370239    4.90999985    2.53999996
   11.91694450   88.37529755    4.90999985    2.55999994
   11.92277813   88.37529755    4.90999985    2.55999994
   11.92694473   92.52359772    4.90999985    2.53999996
   11.93027782   87.42350006    4.90999985    2.55999994
   11.93361092   88.33550262    4.90999985    2.55999994
   11.93666649   82.87049866    4.90999985    2.55999994
   11.94000053   86.50759888    4.90999985    2.55999994
   11.94305515   93.94339752    4.90999985    2.55999994
   11.94638920   83.79160309    4.90999985    2.55999994
   11.94972229   83.94899750    4.90999985    2.55999994
   11.95277786   88.67630005    4.90999985    2.57999992
   11.95611095   88.75509644    4.90999985    2.55999994
   11.95944405   92.58260345    4.90999985    2.55999994
   11.96027756   91.72689819    4.90999985    2.55999994
   11.96583271   91.72689819    4.90999985    2.57999992
   11.96999931   83.39579773    4.90999985    2.57999992
   11.97305489   86.31279755    4.90999985    2.57999992
   11.97638798   88.37169647    4.90999985    2.55999994
   11.97944355   86.54630280    4.90999985    2.55999994
   11.98277760   86.14189911    4.90999985    2.55999994
   11.98611164   88.13259888    4.90999985    2.57999992
   11.98916721   88.59429932    4.90999985    2.57999992
   11.99250031   88.33619690    4.90999985    2.55999994
   11.99361134   91.02909851    4.90999985    2.55999994
   11.99611092   84.75820160    4.90999985    2.55999994
   11.99944496   88.84960175    4.90999985    2.57999992
   12.00277805   88.12300110    4.90999985    2.57999992
   12.00861073   88.12300110    4.90999985    2.57999992
   12.01277733   86.57710266    4.90999985    2.57999992
   12.01583290   92.00430298    4.90999985    2.57999992
   12.01916599   89.56369781    4.90999985    2.57999992
   12.02250004   87.08580017    4.90999985    2.57999992
   12.02555561   87.38310242    4.90999985    2.57999992
   12.02694416   84.40290070    4.90999985    2.59999990
   12.02916622   78.61579895    4.90999985    2.57999992
   12.03249931   84.74169922    4.90999985    2.57999992
   12.03583336   82.89219666    4.90999985    2.57999992
   12.03888893   84.71730042    4.90999985    2.57999992
   12.04222298   81.85639954    4.90999985    2.57999992
   12.04527855   88.47380066    4.90999985    2.57999992
   12.05138874   88.47380066    4.90999985    2.57999992
   12.05555534   78.09639740    4.90999985    2.57999992
   12.05888939   84.16829681    4.90999985    2.59999990
   12.06027794   85.64980316    4.90999985    2.57999992
   12.06222248   89.66519928    4.90999985    2.57999992
   12.06555557   85.41970062    4.90999985    2.57999992
   12.06888866   83.45670319    4.90999985    2.59999990
   12.07194424   92.50740051    4.90999985    2.57999992
   12.07527733   88.46630096    4.90999985    2.59999990
   12.07833290   86.28060150    4.90999985    2.57999992
   12.08166695   86.77100372    4.90999985    2.57999992
   12.08500004   83.64959717    4.90999985    2.59999990
   12.08805561   89.03820038    4.90999985    2.59999990
   12.09416676   89.03820038    4.90999985    2.59999990
   12.09833336   90.44509888    4.90999985    2.59999990
   12.10166740   81.68659973    4.90999985    2.57999992
   12.10500050   82.97059631    4.90999985    2.57999992
   12.10805607   89.61199951    4.90999985    2.59999990
   12.11138916   90.58850098    4.90999985    2.59999990
   12.11444473   81.68930054    4.90999985    2.59999990
   12.11777782   78.67539978    4.90999985    2.59999990
   12.12111092   83.03240204    4.90999985    2.59999990
   12.12416649   81.24469757    4.90999985    2.59999990
   12.12694454   83.72280121    4.90999985    2.59999990
   12.12777805   85.76029968    4.90999985    2.59999990
   12.13111115   84.84839630    4.90999985    2.59999990
   12.13722229   84.84839630    4.90999985    2.59999990
   12.14138889   87.43170166    4.90999985    2.61999989
   12.14444447   83.81990051    4.90999985    2.59999990
   12.14777756   89.23919678    4.90999985    2.59999990
   12.15111065   77.03710175    4.90999985    2.59999990
   12.15416622   84.30609894    4.90999985    2.59999990
   12.15749931   86.65000153    4.90999985    2.59999990
   12.16027737   85.46299744    4.90999985    2.61999989
   12.16111088   82.86380005    4.90999985    2.61999989
   12.16444397   86.75610352    4.90999985    2.59999990
   12.16777802   87.49379730    4.90999985    2.61999989
   12.17083359   87.20559692    4.90999985    2.59999990
   12.17416668   82.04509735    4.90999985    2.61999989
   12.18000031   82.04509735    4.90999985    2.61999989
   12.18416691   83.88480377    4.90999985    2.61999989
   12.18722248   88.15399933    4.90999985    2.61999989
   12.19055557   90.67859650    4.90999985    2.61999989
   12.19361115   85.95860291    4.90999985    2.61999989
   12.19416714   87.02719879    4.90999985    2.61999989
   12.19750023   83.13320160    4.90999985    2.64000010
   12.20083332   77.40070343    4.90999985    2.61999989
   12.20388889   84.26010132    4.90999985    2.61999989
   12.20722198   84.62290192    4.90999985    2.61999989
   12.21027756   85.48780060    4.90999985    2.61999989
   12.21361065   80.78769684    4.90999985    2.61999989
   12.21694374   89.36540222    4.90999985    2.61999989
   12.22277737   89.36540222    4.90999985    2.61999989
   12.22694397   83.51599884    4.90999985    2.61999989
   12.23027706   91.73449707    4.90999985    2.61999989
   12.23333359   85.66390228    4.90999985    2.61999989
   12.23666668   84.95459747    4.90999985    2.61999989
   12.24000072   92.44529724    4.90999985    2.61999989
   12.24305534   85.60430145    4.90999985    2.64000010
   12.24638939   90.10970306    4.90999985    2.61999989
   12.24944496   84.26219940    4.90999985    2.61999989
   12.25277805   91.03839874    4.90999985    2.61999989
   12.25611115   89.42150116    4.90999985    2.61999989
   12.25916672   88.00530243    4.90999985    2.61999989
   12.26027775   90.10810089    4.90999985    2.61999989
   12.28083324   90.10810089    4.90999985    2.61999989
   12.28500080   85.72640228    4.90999985    2.64000010
   12.28833389   91.02739716    4.90999985    2.64000010
   12.29138947   89.89720154    4.90999985    2.64000010
   12.29361153   87.94010162    4.90999985    2.61999989
   12.29527855   86.63600159    4.90999985    2.61999989
   12.29833412   86.99289703    4.90999985    2.61999989
   12.30166721   86.01319885    4.90999985    2.64000010
   12.30500031   88.38189697    4.90999985    2.64000010
   12.30805588   89.08000183    4.90999985    2.64000010
   12.31138897   87.19519806    4.90999985    2.64000010
   12.31444454   86.41510010    4.90999985    2.64000010
   12.31777763   88.10990143    4.90999985    2.64000010
   12.32361126   88.10990143    4.90999985    2.64000010
   12.32777786   85.25160217    4.90999985    2.64000010
   12.33083344   88.17639923    4.90999985    2.61999989
   12.33416653   87.69660187    4.90999985    2.64000010
   12.33749962   92.26609802    4.90999985    2.64000010
   12.34055519   89.88919830    4.90999985    2.64000010
   12.34388828   94.27929688    4.90999985    2.64000010
   12.34722233   89.70410156    4.90999985    2.64000010
   12.35027790   88.93049622    4.90999985    2.64000010
   12.35361195   84.45359802    4.90999985    2.64000010
   12.35666752   93.78500366    4.90999985    2.64000010
   12.36000061   82.80970001    4.90999985    2.64000010
   12.36055565   87.23359680    4.90999985    2.64000010
   12.36638927   87.23359680    4.90999985    2.64000010
   12.37055588   94.07070160    4.90999985    2.64000010
   12.37388897   90.36350250    4.90999985    2.64000010
   12.37694454   87.93389893    4.90999985    2.64000010
   12.38027763   97.49340057    4.90999985    2.64000010
   12.38361073   81.29019928    4.90999985    2.64000010
   12.38666630   90.06890106    4.90999985    2.64000010
   12.39000034   96.47370148    4.90999985    2.64000010
   12.39305496   82.65090179    4.90999985    2.64000010
   12.39388847   86.38310242    4.90999985    2.66000009
   12.39694405   92.07969666    4.90999985    2.64000010
   12.39999962   91.48960114    4.90999985    2.66000009
   12.40333271   90.77310181    4.90999985    2.66000009
   12.40916634   90.77310181    4.90999985    2.66000009
   12.41333294   86.64109802    4.90999985    2.64000010
   12.41666698   93.79799652    4.90999985    2.66000009
   12.42000008   86.51689911    4.90999985    2.66000009
   12.42305565   87.61470032    4.90999985    2.66000009
   12.42638874   86.77619934    4.90999985    2.66000009
   12.42722225   90.78430176    4.90999985    2.66000009
   12.43000031   84.44680023    4.90999985    2.66000009
   12.43305588   86.91020203    4.90999985    2.67000008
   12.43638897   86.04620361    4.90999985    2.66000009
   12.43972206   85.59989929    4.90999985    2.66000009
   12.44277763   92.21859741    4.90999985    2.66000009
   12.44611073   93.22440338    4.90999985    2.67000008
   12.45222187   93.22440338    4.90999985    2.66000009
   12.45638847   91.11820221    4.90999985    2.66000009
   12.45944405   90.53869629    4.90999985    2.66000009
   12.46055508   87.28589630    4.90999985    2.66000009
   12.46333313   93.29380035    4.90999985    2.66000009
   12.46638870   93.94010162    4.90999985    2.66000009
   12.46972179   85.75199890    4.90999985    2.66000009
   12.47305489   86.55400085    4.90999985    2.66000009
   12.47611046   88.99359894    4.90999985    2.66000009
   12.47944355   81.31359863    4.90999985    2.66000009
   12.48249912  101.71700287    4.90999985    2.66000009
   12.48583317   83.51149750    4.90999985    2.67000008
   12.48916721   88.96769714    4.90999985    2.66000009
   12.49499989   88.96769714    4.90999985    2.67000008
   12.49916649   81.47540283    4.90999985    2.66000009
   12.50222206   92.12090302    4.90999985    2.67000008
   12.50555515   90.36730194    4.90999985    2.67000008
   12.50888920   92.69480133    4.90999985    2.67000008
   12.51194477   89.87940216    4.90999985    2.66000009
   12.51527786   91.41500092    4.90999985    2.66000009
   12.51861095   91.50309753    4.90999985    2.66000009
   12.52166653   88.77200317    4.90999985    2.66000009
   12.52499962   84.29489899    4.90999985    2.66000009
   12.52722168   90.58360291    4.90999985    2.67000008
   12.52861118   86.15609741    4.90999985    2.67000008
   12.53166676   91.02210236    4.90999985    2.66000009
   12.53777790   91.02210236    4.90999985    2.67000008
   12.54194450   93.74859619    4.90999985    2.66000009
   12.54527855  102.10800171    4.90999985    2.67000008
   12.54833412   96.39279938    4.90999985    2.67000008
   12.55166721   93.12860107    4.90999985    2.67000008
   12.55500031   94.73670197    4.90999985    2.67000008
   12.55805588   91.95310211    4.90999985    2.66000009
   12.56055546   97.20950317    4.90999985    2.67000008
   12.56194496  100.57900238    4.90999985    2.66000009
   12.56500053   87.31520081    4.90999985    2.67000008
   12.56833363   94.00019836    4.90999985    2.67000008
   12.57166672   91.88860321    4.90999985    2.67000008
   12.57472229   91.40360260    4.90999985    2.67000008
   12.58055592   91.40360260    4.90999985    2.67000008
   12.58472157   92.91400146    4.90999985    2.67000008
   12.58805561   92.33080292    4.90999985    2.67000008
   12.59138870   99.82279968    4.90999985    2.67000008
   12.59388828   99.15689850    4.90999985    2.67000008
   12.59499931   91.54989624    4.90999985    2.67000008
   12.59805489   92.15509796    4.90999985    2.67000008
   12.60138893   98.71970367    4.90999985    2.67000008
   12.60472298   99.40699768    4.90999985    2.66000009
   12.60777855   91.33219910    4.90999985    2.67000008
   12.61111164  100.73600006    4.90999985    2.67000008
   12.61416721   95.30159760    4.90999985    2.67000008
   12.61750031   91.22129822    4.90999985    2.67000008
   12.62361145   91.22129822    4.90999985    2.69000006
   12.62777805   85.03459930    4.90999985    2.69000006
   12.63083363   99.58399963    4.90999985    2.67000008
   12.63416672   95.33979797    4.90999985    2.67000008
   12.63722229   93.81500244    4.90999985    2.67000008
   12.64055538   93.81849670    4.90999985    2.67000008
   12.64388847  100.93299866    4.90999985    2.67000008
   12.64694405  103.01599884    4.90999985    2.69000006
   12.65027714   99.14209747    4.90999985    2.69000006
   12.65361118  108.98500061    4.90999985    2.69000006
   12.65666676   99.97029877    4.90999985    2.69000006
   12.65999985   98.06980133    4.90999985    2.67000008
   12.66055489   85.92880249    4.90999985    2.67000008
   12.66638851   85.92880249    4.90999985    2.69000006
   12.67055607   94.32009888    4.90999985    2.69000006
   12.67361164  101.56500244    4.90999985    2.69000006
   12.67694473   88.42729950    4.90999985    2.67000008
   12.68027782   89.81479645    4.90999985    2.67000008
   12.68333340   91.68789673    4.90999985    2.69000006
   12.68666649   95.48239899    4.90999985    2.69000006
   12.69000053   85.70749664    4.90999985    2.69000006
   12.69305515   93.60030365    4.90999985    2.67000008
   12.69388866   86.09449768    4.90999985    2.71000004
   12.69666672   92.59380341    4.90999985    2.69000006
   12.69972229   91.94390106    4.90999985    2.69000006
   12.70305538   89.17839813    4.90999985    2.69000006
   12.70916653   89.17839813    4.90999985    2.69000006
   12.71333313   94.30410004    4.90999985    2.67000008
   12.71666622   93.84919739    4.90999985    2.69000006
   12.71972179   96.82630157    4.90999985    2.69000006
   12.72305489   88.70179749    4.90999985    2.69000006
   12.72638798   94.70939636    4.90999985    2.69000006
   12.72722149   97.20570374    4.90999985    2.69000006
   12.72999954   88.62400055    4.90999985    2.69000006
   12.73305511   92.93370056    4.90999985    2.69000006
   12.73638916   91.72689819    4.90999985    2.69000006
   12.73972225   91.69270325    4.90999985    2.69000006
   12.74277782   92.48190308    4.90999985    2.69000006
   12.74611092   96.41999817    4.90999985    2.69000006
   12.75194454   96.41999817    4.90999985    2.69000006
   12.75611115   92.06330109    4.90999985    2.69000006
   12.75944424   95.84600067    4.90999985    2.69000006
   12.76055527   91.56230164    4.90999985    2.71000004
   12.76305580   95.75420380    4.90999985    2.71000004
   12.76611137   93.85320282    4.90999985    2.69000006
   12.76944447   95.84339905    4.90999985    2.69000006
   12.77277756   93.59120178    4.90999985    2.69000006
   12.77583313   91.66269684    4.90999985    2.69000006
   12.77916622   94.23239899    4.90999985    2.71000004
   12.78249931   91.92649841    4.90999985    2.69000006
   12.78555584   88.43779755    4.90999985    2.71000004
   12.78888893  104.76399994    4.90999985    2.69000006
   12.79500008  104.76399994    4.90999985    2.71000004
   12.79916668   91.32579803    4.90999985    2.71000004
   12.80222225   95.89679718    4.90999985    2.69000006
   12.80555534   92.01239777    4.90999985    2.71000004
   12.80861092  101.08799744    4.90999985    2.69000006
   12.81194496   95.19860077    4.90999985    2.69000006
   12.81527805   92.99900055    4.90999985    2.69000006
   12.81833363   99.43219757    4.90999985    2.69000006
   12.82166672  107.01499939    4.90999985    2.71000004
   12.82499981   87.90429688    4.90999985    2.69000006
   12.82722187   90.16230011    4.90999985    2.71000004
   12.82861137  101.41500092    4.90999985    2.69000006
   12.83166695   93.13539886    4.90999985    2.69000006
   12.83777714   93.13539886    4.90999985    2.69000006
   12.84194374   91.06410217    4.90999985    2.69000006
   12.84499931  102.08200073    4.90999985    2.69000006
   12.84833336   89.35859680    4.90999985    2.71000004
   12.85166740   90.90670013    4.90999985    2.71000004
   12.85472298   91.53420258    4.90999985    2.69000006
   12.85805607   83.20659637    4.90999985    2.71000004
   12.86055565   91.89520264    4.90999985    2.69000006
   12.86166668   84.17520142    4.90999985    2.69000006
   12.86472225   95.80239868    4.90999985    2.71000004
   12.86805534   84.65959930    4.90999985    2.71000004
   12.87138939   96.63050079    4.90999985    2.71000004
   12.87444496   93.74690247    4.90999985    2.71000004
   12.88055611   93.74690247    4.90999985    2.71000004
   12.88472176   85.31240082    4.90999985    2.71000004
   12.88805580   91.87899780    4.90999985    2.71000004
   12.89111137   96.88939667    4.90999985    2.71000004
   12.89416695   93.50810242    4.90999985    2.71000004
   12.89611053   90.15139771    4.90999985    2.71000004
   12.89972210   96.15110016    4.90999985    2.71000004
   12.90305519  108.19200134    4.90999985    2.71000004
   12.90611076   99.48919678    4.90999985    2.71000004
   12.90944386   97.06150055    4.90999985    2.73000002
   12.91333294   92.81230164    4.90999985    2.71000004
   12.91666698  103.85299683    4.90999985    2.71000004
   12.91972256  108.37300110    4.90999985    2.71000004
   12.92388916  108.37300110    4.90999985    2.73000002
   12.92805576  102.66100311    4.90999985    2.73000002
   12.93138885   94.80000305    4.90999985    2.71000004
   12.93444443  104.10700226    4.90999985    2.71000004
   12.93777752  102.51000214    4.90999985    2.71000004
   12.94111156  100.13999939    4.90999985    2.71000004
   12.94416714   98.62560272    4.90999985    2.73000002
   12.94750023   89.97480011    4.90999985    2.71000004
   12.95055580  104.63099670    4.90999985    2.71000004
   12.95388889   98.40930176    4.90999985    2.71000004
   12.95722198   97.36730194    4.90999985    2.73000002
   12.96027756   93.00620270    4.90999985    2.73000002
   12.96083355  100.15599823    4.90999985    2.73000002
   12.96666622  100.15599823    4.90999985    2.73000002
   12.97083282   96.75499725    4.90999985    2.71000004
   12.97416592   98.71939850    4.90999985    2.73000002
   12.97749996   97.29499817    4.90999985    2.71000004
   12.98055553  103.85900116    4.90999985    2.73000002
   12.98388958   95.46150208    4.90999985    2.73000002
   12.98722267   95.22049713    4.90999985    2.73000002
   12.99027824  103.22200012    4.90999985    2.73000002
   12.99361134   84.81479645    4.90999985    2.71000004
   12.99416733   80.72499847    4.90999985    2.73000002
   12.99722290   85.76480103    4.90999985    2.71000004
   13.00055599   99.46659851    4.90999985    2.71000004
   13.00361156  100.85299683    4.90999985    2.73000002
   13.00972176  100.85299683    4.88999987    2.73000002
   13.01388931  105.21900177    4.88999987    2.73000002
   13.01694393   95.54499817    4.88999987    2.71000004
   13.02027798   91.54199982    4.88999987    2.73000002
   13.02333355  102.85600281    4.88999987    2.73000002
   13.02666664   94.87200165    4.88999987    2.71000004
   13.02750015  105.26399994    4.88999987    2.73000002
   13.03027725   99.41870117    4.88999987    2.73000002
   13.03361130   90.78700256    4.88999987    2.73000002
   13.03666687   88.03690338    4.88999987    2.73000002
   13.04000092   93.88529968    4.90999985    2.73000002
   13.04305553  101.67600250    4.90999985    2.75000000
   13.04638958   96.63189697    4.90999985    2.73000002
   13.05249977   96.63189697    4.90999985    2.73000002
   13.05666733   99.64489746    4.90999985    2.73000002
   13.05972195   98.94470215    4.90999985    2.73000002
   13.06083393  101.90599823    4.88999987    2.73000002
   13.06361103  105.56800079    4.88999987    2.73000002
   13.06694412   87.74269867    4.88999987    2.75000000
   13.06999969   88.97810364    4.86999989    2.73000002
   13.07333374   92.80650330    4.86999989    2.73000002
   13.07638836   96.11920166    4.84999990    2.75000000
   13.07972240   96.74790192    4.84999990    2.73000002
   13.08305550  102.87200165    4.84999990    2.73000002
   13.08611107   89.91429901    4.84999990    2.73000002
   13.08944416   87.71019745    4.82999992    2.73000002
   13.09527779   87.71019745    4.84999990    2.73000002
   13.09944439   96.54850006    4.82999992    2.75000000
   13.10277843   82.15540314    4.82999992    2.73000002
   13.10583401   96.77459717    4.82999992    2.75000000
   13.10916710  107.41999817    4.82999992    2.73000002
   13.11250019   96.84390259    4.82999992    2.75000000
   13.11555576  104.68000031    4.82999992    2.75000000
   13.11888885  105.40200043    4.82999992    2.73000002
   13.12194443   86.89510345    4.82999992    2.73000002
   13.12527752   96.06839752    4.82999992    2.73000002
   13.12750053   94.15859985    4.82999992    2.73000002
   13.12888908   91.03649902    4.84999990    2.73000002
   13.13194466   97.62750244    4.82999992    2.75000000
   13.13805580   97.62750244    4.82999992    2.75000000
   13.14222240   97.73989868    4.82999992    2.73000002
   13.14555550   93.93939972    4.82999992    2.75000000
   13.14861107  108.32599640    4.82999992    2.73000002
   13.15194416   89.38729858    4.84999990    2.73000002
   13.15527725   98.52410126    4.82999992    2.73000002
   13.15833282  103.91899872    4.82999992    2.75000000
   13.16083336   95.08619690    4.82999992    2.73000002
   13.16222191   86.06020355    4.80000019    2.73000002
   13.16527748   94.09310150    4.80000019    2.75000000
   13.16861153  104.25299835    4.78000021    2.73000002
   13.17194462   91.60820007    4.78000021    2.73000002
   13.17500019   96.69760132    4.78000021    2.73000002
   13.18111134   96.69760132    4.76000023    2.75000000
   13.18500042   87.14409637    4.76000023    2.73000002
   13.18833351   97.20449829    4.76000023    2.75000000
   13.19166660   93.15260315    4.76000023    2.73000002
   13.19416714   92.69719696    4.76000023    2.73000002
   13.19527817   93.89029694    4.76000023    2.73000002
   13.19861126   96.99060059    4.73999977    2.76999998
   13.20166683   87.77420044    4.76000023    2.73000002
   13.20499992   86.12210083    4.73999977    2.75000000
   13.20805550   97.62889862    4.73999977    2.75000000
   13.21138859   87.79319763    4.71999979    2.75000000
   13.21472168   82.52700043    4.71999979    2.73000002
   13.21777725   88.67530060    4.71999979    2.73000002
   13.22388840   88.67530060    4.71999979    2.75000000
   13.22805500   81.56459808    4.69999981    2.73000002
   13.23111057  101.98500061    4.67999983    2.75000000
   13.23444462   88.98220062    4.69999981    2.73000002
   13.23777771   93.95149994    4.67999983    2.73000002
   13.24083328  100.60700226    4.67999983    2.73000002
   13.24416733   93.38210297    4.65999985    2.75000000
   13.24750042   97.18049622    4.65999985    2.73000002
   13.25055599   88.27050018    4.65999985    2.75000000
   13.25388908   91.27400208    4.65999985    2.75000000
   13.25694466   91.91699982    4.65999985    2.75000000
   13.26027775   82.85639954    4.63999987    2.75000000
   13.26083374   83.55030060    4.63999987    2.75000000
   13.26666641   83.55030060    4.63999987    2.75000000
   13.27083302   90.18460083    4.61999989    2.75000000
   13.27416611   87.50630188    4.61999989    2.75000000
   13.27722168   93.34929657    4.63999987    2.75000000
   13.29444504   86.96399689    4.61999989    2.75000000
   13.29722309   83.66349792    4.61999989    2.75000000
   13.30055618   92.18830109    4.61999989    2.75000000
   13.30361176   90.51139832    4.61999989    2.75000000
   13.30972195   90.51139832    4.61999989    2.75000000
   13.31388950   75.07340240    4.59999990    2.75000000
   13.31694412   86.99810028    4.61999989    2.75000000
   13.32027817   93.43949890    4.59999990    2.75000000
   13.32361126   92.61329651    4.59999990    2.75000000
   13.32666683   89.88339996    4.59999990    2.75000000
   13.32777786   97.10630035    4.59999990    2.75000000
   13.33055592   85.36260223    4.59999990    2.75000000
   13.33361053   90.06649780    4.59999990    2.75000000
   13.33694458   94.57820129    4.59999990    2.75000000
   13.34027767   83.70559692    4.59999990    2.75000000
   13.34333324   85.47869873    4.59999990    2.75000000
   13.34666634   81.76920319    4.59999990    2.75000000
   13.35249996   81.76920319    4.57999992    2.75000000
   13.35666752   93.13729858    4.57999992    2.75000000
   13.36000061   99.15920258    4.57999992    2.75000000
   13.36111164   92.69190216    4.57999992    2.75000000
   13.36361122   92.24469757    4.57999992    2.76999998
   13.36666679   81.12480164    4.57999992    2.76999998
   13.36999989   96.27420044    4.57999992    2.75000000
   13.37333393   96.22280121    4.55999994    2.75000000
   13.37638855   92.22949982    4.55999994    2.75000000
   13.37972260   89.71600342    4.55999994    2.75000000
   13.38305569   97.79940033    4.55999994    2.75000000
   13.38611126   88.28559875    4.53999996    2.75000000
   13.38944435   91.27089691    4.55999994    2.75000000
   13.39555550   91.27089691    4.53999996    2.75000000
   13.39944458   96.01399994    4.55999994    2.75000000
   13.40277767   86.93419647    4.53999996    2.75000000
   13.40611076   84.67849731    4.53999996    2.76999998
   13.40916634   87.87840271    4.53999996    2.75000000
   13.41249943   81.93119812    4.53999996    2.75000000
   13.41583252   85.08730316    4.53999996    2.75000000
   13.41888905   98.86699677    4.53999996    2.75000000
   13.42222214   90.34449768    4.53999996    2.76999998
   13.42555618   83.24849701    4.53999996    2.75000000
   13.42777824   91.68119812    4.53999996    2.75000000
   13.42916679   97.74880219    4.53999996    2.76999998
   13.43222237   92.95469666    4.53999996    2.75000000
   13.43833351   92.95469666    4.53000021    2.76999998
   13.44250011   98.33300018    4.53999996    2.75000000
   13.44555569   80.34770203    4.53999996    2.76999998
   13.44888878   83.73789978    4.53000021    2.76999998
   13.45194435   84.74310303    4.53999996    2.75000000
   13.45527744   84.83860016    4.53000021    2.75000000
   13.45861053   87.24140167    4.53000021    2.76999998
   13.46111107   78.74960327    4.53000021    2.75000000
   13.46222210   87.93250275    4.53000021    2.75000000
   13.46527767   77.19550323    4.53000021    2.75000000
   13.46861076   89.68759918    4.53000021    2.75000000
   13.47194386   85.26419830    4.53000021    2.75000000
   13.47499943   81.03549957    4.51000023    2.76999998
   13.48111057   81.03549957    4.53000021    2.75000000
   13.48527813   88.36889648    4.51000023    2.75000000
   13.48833370   88.92150116    4.51000023    2.75000000
   13.49166679   93.28700256    4.51000023    2.76999998
   13.49444485   86.02819824    4.51000023    2.75000000
   13.49527836   81.09130096    4.51000023    2.75000000
   13.49861145   79.55819702    4.48999977    2.75000000
   13.50166702   79.96479797    4.48999977    2.76999998
   13.50500011   83.06369781    4.48999977    2.76999998
   13.50805569   81.30410004    4.48999977    2.76999998
   13.51138878   95.28520203    4.48999977    2.76999998
   13.51472187   88.80529785    4.48999977    2.76999998
   13.51777744   85.01670074    4.48999977    2.76999998
   13.52388859   85.01670074    4.46999979    2.76999998
   13.52805519   88.23639679    4.46999979    2.78999996
   13.53138828   89.71920013    4.46999979    2.76999998
   13.53444481   82.20629883    4.44999981    2.76999998
   13.53777790   81.73439789    4.44999981    2.76999998
   13.54111195   86.16069794    4.44999981    2.76999998
   13.54416752   86.18209839    4.44999981    2.76999998
   13.54750061   84.04540253    4.44999981    2.76999998
   13.55055618   88.47989655    4.44999981    2.76999998
   13.55388927   84.01069641    4.44999981    2.76999998
   13.55722237   89.58119965    4.44999981    2.76999998
   13.56027794   85.78739929    4.44999981    2.78999996
   13.56111145   92.06919861    4.44999981    2.76999998
   13.56666660   92.06919861    4.42999983    2.76999998
   13.57083321   91.64199829    4.44999981    2.78999996
   13.57416630   93.30639648    4.42999983    2.75000000
   13.57750034   85.89980316    4.42999983    2.76999998
   13.58055592   77.29530334    4.42999983    2.76999998
   13.58388901   86.90280151    4.42999983    2.76999998
   13.58694458   89.12989807    4.40999985    2.76999998
   13.59027767   84.65709686    4.40999985    2.76999998
   13.59361076   87.47920227    4.38999987    2.76999998
   13.59444427   94.95069885    4.38999987    2.75000000
   13.59722233   92.77320099    4.38999987    2.76999998
   13.60027790   88.56759644    4.38999987    2.76999998
   13.60361195   89.67539978    4.38999987    2.76999998
   13.60972214   89.67539978    4.38999987    2.78999996
   13.61388969   89.04519653    4.38999987    2.75000000
   13.61694431   90.57939911    4.38999987    2.78999996
   13.62027836   81.83319855    4.38999987    2.78999996
   13.62333393   85.88459778    4.36999989    2.76999998
   13.62666702   83.37850189    4.38999987    2.78999996
   13.62777805   85.72139740    4.36999989    2.76999998
   13.63027763   87.56459808    4.36999989    2.76999998
   13.63333321   87.26290131    4.36999989    2.76999998
   13.63666630   84.40689850    4.36999989    2.76999998
   13.64000034   83.99629974    4.38999987    2.78999996
   13.64305496   80.55660248    4.38999987    2.78999996
   13.64638901   84.58000183    4.38999987    2.78999996
   13.65249920   84.58000183    4.38999987    2.78999996
   13.65666676   91.54609680    4.40999985    2.76999998
   13.65972137   89.66210175    4.40999985    2.76999998
   13.66111088   86.52179718    4.38999987    2.76999998
   13.66361046   79.44470215    4.38999987    2.76999998
   13.66694450   79.27210236    4.40999985    2.78999996
   13.67000008   92.16069794    4.40999985    2.76999998
   13.67333412   90.49710083    4.40999985    2.76999998
   13.67666721   84.31600189    4.40999985    2.76999998
   13.67972279   82.72879791    4.40999985    2.76999998
   13.68305588   87.87419891    4.40999985    2.76999998
   13.68611145   90.40409851    4.40999985    2.78999996
   13.68944454   88.37850189    4.40999985    2.76999998
   13.69527817   88.37850189    4.40999985    2.76999998
   13.69944477   90.66829681    4.38999987    2.76999998
   13.70277786   90.57869720    4.38999987    2.76999998
   13.70583344   98.35310364    4.38999987    2.76999998
   13.70916653   85.01069641    4.36999989    2.76999998
   13.71249962   84.58260345    4.36999989    2.78999996
   13.71555519   86.04350281    4.36999989    2.76999998
   13.71888828   79.36280060    4.36999989    2.78999996
   13.72194386   89.74340057    4.36999989    2.76999998
   13.72527695   92.84700012    4.36999989    2.76999998
   13.72777748   86.89559937    4.36999989    2.78999996
   13.72888851   79.98500061    4.34999990    2.78999996
   13.73194408   96.81469727    4.34999990    2.76999998
   13.73805618   96.81469727    4.32999992    2.78999996
   13.74222279   86.86019897    4.32999992    2.76999998
   13.74555588   88.21820068    4.32999992    2.78999996
   13.74861145   83.98600006    4.30999994    2.76999998
   13.75194454   85.10449982    4.30999994    2.78999996
   13.75527763   91.55429840    4.30999994    2.78999996
   13.75833321   85.73789978    4.30999994    2.78999996
   13.76111126   91.01750183    4.30999994    2.78999996
   13.76222229   93.14510345    4.30999994    2.76999998
   13.76527786   90.20379639    4.30999994    2.76999998
   13.76861095   86.60949707    4.30999994    2.76999998
   13.77194405   89.73919678    4.28999996    2.78999996
   13.77499962   94.98090363    4.28999996    2.76999998
   13.78111076   94.98090363    4.26999998    2.78999996
   13.78500080   86.44149780    4.26999998    2.78999996
   13.78833389   85.93530273    4.26999998    2.78999996
   13.79166698   88.79470062    4.26000023    2.78999996
   13.79444504   91.00630188    4.26000023    2.78999996
   13.79527855   85.58860016    4.26000023    2.78999996
   13.79833412   86.41510010    4.26000023    2.78999996
   13.80166721   91.05840302    4.26000023    2.80999994
   13.80500031   91.66660309    4.26000023    2.78999996
   13.80805588   83.08979797    4.26000023    2.78999996
   13.81138897   91.17849731    4.26000023    2.78999996
   13.81472206   97.91629791    4.26000023    2.78999996
   13.81777763   85.57839966    4.26999998    2.78999996
   13.82388878   85.57839966    4.26000023    2.78999996
   13.82805538   89.99369812    4.26000023    2.76999998
   13.83138847   78.70269775    4.26000023    2.78999996
   13.83444405   84.89189911    4.26000023    2.78999996
   13.83777714   83.20349884    4.26000023    2.76999998
   13.84083271   85.03849792    4.26000023    2.76999998
   13.84416676   79.73680115    4.26000023    2.78999996
   13.84749985   82.20339966    4.26000023    2.78999996
   13.85055637   84.36900330    4.26000023    2.78999996
   13.85388947   84.29440308    4.26000023    2.78999996
   13.85722256   87.45729828    4.23999977    2.78999996
   13.86027813   87.68710327    4.23999977    2.78999996
   13.86111164   85.24739838    4.23999977    2.80999994
   13.86666679   85.24739838    4.26000023    2.78999996
   13.87083340   88.41919708    4.23999977    2.78999996
   13.87416649   82.72550201    4.23999977    2.78999996
   13.87722206   85.12509918    4.19999981    2.78999996
   13.88055611   91.07060242    4.19999981    2.78999996
   13.88361073   92.31739807    4.17999983    2.78999996
   13.88694477   91.75520325    4.17999983    2.80999994
   13.89027786   81.96089935    4.17999983    2.78999996
   13.89333344   88.82510376    4.15999985    2.78999996
   13.89444447   83.85520172    4.15999985    2.78999996
   13.89694405   88.40959930    4.15999985    2.78999996
   13.90027714   92.91459656    4.15999985    2.78999996
   13.90333271   88.02680206    4.13999987    2.78999996
   13.90944386   88.02680206    4.13999987    2.78999996
   13.91361046   90.02619934    4.13999987    2.78999996
   13.91694450   89.08910370    4.13999987    2.80999994
   13.92027855   87.51840210    4.13999987    2.78999996
   13.92333412   92.70890045    4.13999987    2.80999994
   13.92666721   90.65470123    4.13999987    2.78999996
   13.92777824   92.77770233    4.13999987    2.78999996
   13.93027782   89.76080322    4.13999987    2.78999996
   13.93361092   79.44860077    4.15999985    2.78999996
   13.93666649   82.40579987    4.13999987    2.78999996
   13.94000053   86.08769989    4.13999987    2.78999996
   13.94305515   87.43389893    4.13999987    2.80999994
   13.94638920   89.68309784    4.13999987    2.78999996
   13.95249939   89.68309784    4.13999987    2.78999996
   13.95638847   83.64800262    4.13999987    2.78999996
   13.95972157   84.36930084    4.13999987    2.78999996
   13.96111107   86.02929688    4.13999987    2.80999994
   13.96333313   83.39550018    4.13999987    2.80999994
   13.96666622   88.00440216    4.15999985    2.80999994
   13.96972179   92.94940186    4.15999985    2.78999996
   13.97305489   89.48470306    4.13999987    2.78999996
   13.97611046   86.13520050    4.13999987    2.80999994
   13.97944355   94.29360199    4.13999987    2.78999996
   13.98277760   84.54910278    4.13999987    2.80999994
   13.98583317   82.58699799    4.13999987    2.78999996
   13.98916721   93.07330322    4.11999989    2.80999994
   13.99527836   93.07330322    4.11999989    2.78999996
   13.99944496   94.90599823    4.13999987    2.82999992
   14.00249958   89.10230255    4.13999987    2.78999996
   14.00583363   92.23339844    4.11999989    2.80999994
   14.00916672   92.67019653    4.11999989    2.78999996
   14.01222229   86.56819916    4.13999987    2.80999994
   14.01555538   90.23320007    4.11999989    2.78999996
   14.01861095   91.26719666    4.13999987    2.78999996
   14.02194405   89.27670288    4.13999987    2.78999996
   14.02527714   91.23780060    4.13999987    2.78999996
   14.02777767   94.20529938    4.13999987    2.80999994
   14.02888870   90.89230347    4.15999985    2.78999996
   14.03222179   88.54019928    4.13999987    2.78999996
   14.03805637   88.54019928    4.15999985    2.78999996
   14.04222298   80.99620056    4.15999985    2.80999994
   14.04555607   80.24990082    4.15999985    2.78999996
   14.04861164   81.67169952    4.15999985    2.80999994
   14.05194473   89.59989929    4.17999983    2.80999994
   14.05500031   91.26589966    4.15999985    2.78999996
   14.05833340   85.01740265    4.13999987    2.80999994
   14.06111145   87.56199646    4.13999987    2.80999994
   14.06194496   84.95839691    4.13999987    2.78999996
   14.06527805   86.81729889    4.13999987    2.80999994
   14.06833363   85.22329712    4.13999987    2.80999994
   14.07166672   88.92079926    4.13999987    2.80999994
   14.07472229   83.01850128    4.13999987    2.80999994
   14.08083344   83.01850128    4.11999989    2.78999996
   14.08500004   87.81430054    4.11999989    2.78999996
   14.08833313   86.05789948    4.11999989    2.78999996
   14.09138870   89.46029663    4.11999989    2.78999996
   14.09444427   88.75830078    4.09999990    2.78999996
   14.09527779   93.32399750    4.09999990    2.78999996
   14.09861088   94.38200378    4.09999990    2.78999996
   14.10166740   84.30919647    4.09999990    2.80999994
   14.10500050   92.22309875    4.09999990    2.82999992
   14.10805607   87.63760376    4.07999992    2.80999994
   14.11138916   86.10839844    4.05999994    2.80999994
   14.11472225   89.88839722    4.07999992    2.82999992
   14.11777782   86.88490295    4.07999992    2.80999994
   14.12388897   86.88490295    4.07999992    2.80999994
   14.12777805   91.33719635    4.05999994    2.80999994
   14.13111115   89.54609680    4.05999994    2.80999994
   14.13444424  101.83000183    4.05999994    2.80999994
   14.13749981   89.87180328    4.05999994    2.80999994
   14.14083290   95.32369995    4.05999994    2.80999994
   14.14416695   88.69429779    4.07999992    2.80999994
   14.14722252   85.88009644    4.07999992    2.80999994
   14.15055561   83.32759857    4.05999994    2.80999994
   14.15361118   87.25980377    4.03999996    2.80999994
   14.15694427   96.03810120    4.03999996    2.80999994
   14.16027737   87.26779938    4.01999998    2.80999994
   14.16111088   86.00340271    4.03999996    2.80999994
   14.16666698   86.00340271    4.01999998    2.80999994
   14.17083359   84.25879669    4.00000000    2.80999994
   14.17388916   86.44840240    4.00000000    2.80999994
   14.17722225   90.10399628    3.99000001    2.80999994
   14.18055630   88.97779846    3.99000001    2.78999996
   14.18361092   78.22979736    3.99000001    2.78999996
   14.18694496   76.09989929    3.97000003    2.80999994
   14.19027805   79.90399933    3.97000003    2.82999992
   14.19333363   80.07669830    3.97000003    2.80999994
   14.19444466   81.47760010    3.97000003    2.80999994
   14.19694424   85.48429871    3.99000001    2.80999994
   14.20027733   80.34929657    3.97000003    2.78999996
   14.20333290   78.07389832    3.97000003    2.82999992
   14.20944405   78.07389832    3.97000003    2.82999992
   14.21361065   82.10500336    3.97000003    2.80999994
   14.21694374   86.66950226    3.97000003    2.80999994
   14.21999931   84.14589691    3.97000003    2.80999994
   14.22333336   79.82180023    3.95000005    2.80999994
   14.22638798   83.80879974    3.97000003    2.80999994
   14.22777748   82.13069916    3.97000003    2.80999994
   14.22999954   83.29579926    3.97000003    2.80999994
   14.23333359   77.32689667    3.97000003    2.82999992
   14.23638916   75.23950195    3.97000003    2.80999994
   14.23972225   77.11679840    3.97000003    2.80999994
   14.24305534   80.47290039    3.97000003    2.82999992
   14.24611092   78.07830048    3.97000003    2.82999992
   14.25222206   78.07830048    3.97000003    2.80999994
   14.25638866   83.43199921    3.97000003    2.82999992
   14.25972176   77.82089996    3.97000003    2.80999994
   14.26111126   79.62509918    3.97000003    2.80999994
   14.26333332   76.99220276    3.97000003    2.82999992
   14.26666641   79.58129883    3.97000003    2.80999994
   14.26972198   83.99559784    3.95000005    2.80999994
   14.27305508   78.72319794    3.95000005    2.82999992
   14.27638817   84.55239868    3.95000005    2.80999994
   14.27944374   84.33049774    3.97000003    2.82999992
   14.28277779   76.16510010    3.95000005    2.80999994
   14.28583336   79.06230164    3.95000005    2.82999992
   14.28916740   77.36350250    3.97000003    2.82999992
   14.31166649   90.57520294    3.93000007    2.82999992
   14.31194496   84.69180298    3.93000007    2.82999992
   14.31527805   87.89160156    3.93000007    2.82999992
   14.31861115   94.35639954    3.93000007    2.82999992
   14.32166672   87.25309753    3.93000007    2.80999994
   14.32499981   92.92289734    3.89000010    2.82999992
   14.32777786   80.92549896    3.89000010    2.80999994
   14.32861137   83.44809723    3.89000010    2.80999994
   14.33194447   89.74720001    3.86999989    2.80999994
   14.33805561   89.74720001    3.82999992    2.82999992
   14.34222221   88.89070129    3.80999994    2.82999992
   14.34527779   81.77149963    3.80999994    2.80999994
   14.34861088   80.67700195    3.80999994    2.82999992
   14.35194492   85.48449707    3.80999994    2.82999992
   14.35500050   86.43489838    3.78999996    2.82999992
   14.35833359   85.73179626    3.78999996    2.82999992
   14.36138916   84.37429810    3.78999996    2.82999992
   14.36194515   86.61450195    3.78999996    2.82999992
   14.36527824   84.15589905    3.78999996    2.80999994
   14.36861134   80.78199768    3.78999996    2.82999992
   14.37166691   84.47769928    3.78999996    2.82999992
   14.37500000   88.44920349    3.78999996    2.82999992
   14.38083363   88.44920349    3.78999996    2.82999992
   14.38500023   88.90879822    3.78999996    2.82999992
   14.38833332   83.02149963    3.78999996    2.82999992
   14.39138889   87.50720215    3.76999998    2.82999992
   14.39472198   83.16750336    3.78999996    2.82999992
   14.39499950   86.74780273    3.78999996    2.82999992
   14.39833355   82.76760101    3.78999996    2.80999994
   14.40138817   82.38870239    3.78999996    2.82999992
   14.40472221   83.86139679    3.76999998    2.80999994
   14.40805531   96.08519745    3.75000000    2.82999992
   14.41111088   89.80290222    3.75000000    2.80999994
   14.41444397   89.29759979    3.75000000    2.82999992
   14.41750050   84.62470245    3.75000000    2.80999994
   14.42388916   84.62470245    3.75000000    2.82999992
   14.42805576   86.21489716    3.75000000    2.82999992
   14.42833328   92.26080322    3.75000000    2.82999992
   14.43166733   82.97859955    3.75000000    2.82999992
   14.43472195   83.16220093    3.75000000    2.82999992
   14.43805599   86.57569885    3.75000000    2.80999994
   14.44138908   87.65309906    3.75000000    2.82999992
   14.44444466   85.11430359    3.75000000    2.82999992
   14.44777775   82.83419800    3.73000002    2.82999992
   14.45111084   80.41020203    3.72000003    2.80999994
   14.45416641   82.41169739    3.72000003    2.82999992
   14.45749950   88.02629852    3.72000003    2.82999992
   14.46055508   82.21170044    3.70000005    2.82999992
   14.46138859   86.51329803    3.72000003    2.84999990
   14.46666622   86.51329803    3.72000003    2.82999992
   14.47083282   89.15519714    3.72000003    2.84999990
   14.47388840   79.69259644    3.72000003    2.84999990
   14.47722149   77.90920258    3.72000003    2.82999992
   14.48027706   76.12180328    3.72000003    2.82999992
   14.48361111   80.01650238    3.70000005    2.82999992
   14.48694515   83.98130035    3.68000007    2.84999990
   14.49000072   91.19670105    3.70000005    2.84999990
   14.49333382   83.73699951    3.68000007    2.82999992
   14.49472237   80.36820221    3.68000007    2.82999992
   14.49694443   84.01260376    3.68000007    2.84999990
   14.50027752   87.57409668    3.68000007    2.82999992
   14.50333309   87.53970337    3.68000007    2.82999992
   14.50944424   87.53970337    3.68000007    2.84999990
   14.51361084   86.94470215    3.68000007    2.82999992
   14.51666641   81.13600159    3.68000007    2.82999992
   14.51999950   80.32700348    3.68000007    2.84999990
   14.52333355   78.79290009    3.66000009    2.84999990
   14.52638817   77.51439667    3.66000009    2.84999990
   14.52805519   76.14610291    3.66000009    2.84999990
   14.52999973   81.91369629    3.66000009    2.82999992
   14.53333378   81.75250244    3.64000010    2.84999990
   14.53638935   78.05729675    3.64000010    2.80999994
   14.53972244   81.65360260    3.61999989    2.84999990
   14.54305553   79.69730377    3.61999989    2.82999992
   14.54611111   82.54100037    3.61999989    2.84999990
   14.55222225   82.54100037    3.57999992    2.82999992
   14.55638885   84.96610260    3.57999992    2.84999990
   14.55972195   80.55079651    3.57999992    2.82999992
   14.56138897   83.88529968    3.57999992    2.82999992
   14.56333351   78.60199738    3.57999992    2.82999992
   14.56666660   81.44709778    3.59999990    2.82999992
   14.56972218   83.37979889    3.59999990    2.82999992
   14.57305527   84.25209808    3.59999990    2.84999990
   14.57638836   83.57330322    3.59999990    2.82999992
   14.57944393   87.50499725    3.59999990    2.84999990
   14.58277798   81.41000366    3.59999990    2.82999992
   14.58611107   86.32800293    3.61999989    2.82999992
   14.58916664   79.36340332    3.64000010    2.82999992
   14.59499931   79.36340332    3.66000009    2.82999992
   14.59916592   86.55619812    3.66000009    2.82999992
   14.60249996   82.92189789    3.66000009    2.84999990
   14.60583401   82.75599670    3.66000009    2.82999992
   14.60888958   85.58809662    3.68000007    2.82999992
   14.61222267   80.65789795    3.66000009    2.84999990
   14.61555576   80.90519714    3.66000009    2.82999992
   14.61861134   78.06590271    3.64000010    2.82999992
   14.62194443   76.92829895    3.64000010    2.84999990
   14.62500000   79.48280334    3.61999989    2.82999992
   14.62805557   78.93250275    3.61999989    2.84999990
   14.62861156   79.54570007    3.61999989    2.84999990
   14.63194466   81.36859894    3.59999990    2.84999990
   14.63805580   81.36859894    3.57999992    2.82999992
   14.64222240   82.73439789    3.55999994    2.84999990
   14.64527798   77.72139740    3.53999996    2.84999990
   14.64861107   76.61949921    3.51999998    2.82999992
   14.65166664   79.46530151    3.50000000    2.82999992
   14.65499973   79.00720215    3.50000000    2.82999992
   14.65833282   81.52239990    3.48000002    2.82999992
   14.66138840   80.49790192    3.48000002    2.82999992
   14.66194439   80.92900085    3.48000002    2.84999990
   14.66527748   78.86119843    3.48000002    2.82999992
   14.66861153   85.27890015    3.48000002    2.84999990
   14.67166710   80.76360321    3.48000002    2.84999990
   14.67500019   84.36820221    3.48000002    2.84999990
   14.68083382   84.36820221    3.46000004    2.82999992
   14.68500042   83.79170227    3.48000002    2.84999990
   14.68805599   82.80410004    3.48000002    2.84999990
   14.69138908   80.58010101    3.46000004    2.84999990
   14.69472218   81.46600342    3.46000004    2.82999992
   14.69499969   84.21589661    3.46000004    2.82999992
   14.69833374   82.50450134    3.46000004    2.84999990
   14.70138836   82.92849731    3.45000005    2.84999990
   14.70472240   83.15160370    3.46000004    2.86999989
   14.70805550   78.07969666    3.48000002    2.84999990
   14.71111107   82.36879730    3.46000004    2.82999992
   14.71444416   79.64119720    3.46000004    2.84999990
   14.71777725   79.91380310    3.46000004    2.84999990
   14.72361088   79.91380310    3.46000004    2.84999990
   14.72777748   83.49369812    3.48000002    2.82999992
   14.72833252   81.13809967    3.48000002    2.82999992
   14.73166656   76.41429901    3.48000002    2.82999992
   14.73472214   83.58219910    3.48000002    2.82999992
   14.73805618   82.48169708    3.48000002    2.82999992
   14.74138927   83.67130280    3.48000002    2.82999992
   14.74444485   87.43009949    3.48000002    2.84999990
   14.74777794   85.23539734    3.48000002    2.86999989
   14.75083351   80.93470001    3.48000002    2.84999990
   14.75416660   82.59369659    3.48000002    2.84999990
   14.75749969   81.80130005    3.48000002    2.84999990
   14.76055527   85.84230042    3.48000002    2.84999990
   14.76166630   82.19439697    3.48000002    2.82999992
   14.76638889   82.19439697    3.48000002    2.84999990
   14.77055550   78.12200165    3.48000002    2.82999992
   14.77388859   83.91889954    3.48000002    2.84999990
   14.77722168   86.76699829    3.48000002    2.84999990
   14.78027725   80.92739868    3.48000002    2.84999990
   14.78361130   79.98580170    3.48000002    2.84999990
   14.78694534   80.74770355    3.48000002    2.84999990
   14.79000092   80.44779968    3.48000002    2.84999990
   14.79333401   82.49160004    3.50000000    2.84999990
   14.79500008   84.17060089    3.50000000    2.84999990
   14.79694462   86.06089783    3.50000000    2.84999990
   14.80000019   84.91459656    3.50000000    2.82999992
   14.80333328   82.03869629    3.50000000    2.82999992
   14.80944443   82.03869629    3.51999998    2.84999990
   14.81361103   79.91169739    3.51999998    2.84999990
   14.81666660   78.86389923    3.51999998    2.84999990
   14.81999969   83.50620270    3.51999998    2.84999990
   14.82305527   82.53649902    3.51999998    2.84999990
   14.82638836   80.14409637    3.51999998    2.82999992
   14.82833290   82.31289673    3.51999998    2.84999990
   14.82999992   81.63150024    3.51999998    2.84999990
   14.83305550   80.62229919    3.50000000    2.84999990
   14.83638859   83.14340210    3.50000000    2.84999990
   14.83972168   84.84459686    3.50000000    2.82999992
   14.84277725   83.02510071    3.50000000    2.84999990
   14.84611034   82.52030182    3.50000000    2.84999990
   14.85222244   82.52030182    3.50000000    2.84999990
   14.85638905   83.72360229    3.51999998    2.84999990
   14.85944462   82.53469849    3.51999998    2.84999990
   14.86166668   80.36209869    3.51999998    2.84999990
   14.86333370   82.17099762    3.51999998    2.84999990
   14.86638927   81.46649933    3.50000000    2.84999990
   14.86972237   79.10310364    3.50000000    2.86999989
   14.87305546   84.49659729    3.50000000    2.84999990
   14.87611103   88.79380035    3.48000002    2.82999992
   14.87944412   78.59739685    3.48000002    2.84999990
   14.88277817   77.24130249    3.48000002    2.86999989
   14.88583279   80.42790222    3.48000002    2.84999990
   14.88916683   76.90910339    3.46000004    2.84999990
   14.89499950   76.90910339    3.43000007    2.84999990
   14.89916611   80.29699707    3.43000007    2.84999990
   14.90249920   82.45860291    3.41000009    2.84999990
   14.90555477   79.67590332    3.41000009    2.84999990
   14.90888882   79.95649719    3.41000009    2.84999990
   14.91222191   78.97869873    3.39000010    2.84999990
   14.91527748   83.30819702    3.39000010    2.84999990
   14.91861153   77.48829651    3.39000010    2.86999989
   14.92166710   85.22350311    3.39000010    2.84999990
   14.92500019   79.38580322    3.36999989    2.84999990
   14.92833328   80.40489960    3.34999990    2.84999990
   14.92888927   80.68160248    3.34999990    2.84999990
   14.93194485   81.14389801    3.34999990    2.84999990
   14.93777752   81.14389801    3.32999992    2.84999990
   14.94194412   81.01280212    3.32999992    2.84999990
   14.94527817   78.86509705    3.30999994    2.84999990
   14.94861126   84.73490143    3.30999994    2.84999990
   14.95166683   78.95259857    3.30999994    2.84999990
   14.95499992   78.08769989    3.30999994    2.86999989
   14.95805550   76.66649628    3.30999994    2.84999990
   14.96138859   85.82050323    3.30999994    2.86999989
   14.96222210   84.71019745    3.32999992    2.82999992
   14.96500015   78.89849854    3.32999992    2.84999990
   14.96833324   79.75219727    3.32999992    2.84999990
   14.97166634   78.11569977    3.32999992    2.82999992
   14.97472191   81.54290009    3.34999990    2.84999990
   14.98083305   81.54290009    3.34999990    2.84999990
   14.98500061   80.27890015    3.34999990    2.84999990
   14.98805618   79.23539734    3.36999989    2.86999989
   14.99138927   78.34200287    3.36999989    2.84999990
   14.99444485   82.60340118    3.36999989    2.84999990
   14.99555588   88.77559662    3.36999989    2.84999990
   14.99805546   83.65059662    3.39000010    2.84999990
   15.00138855   81.90760040    3.41000009    2.84999990
   15.00472260   84.66410065    3.41000009    2.84999990
   15.00777817   86.61160278    3.41000009    2.84999990
   15.01111126   78.34929657    3.39000010    2.84999990
   15.01416683   79.07060242    3.36999989    2.84999990
   15.01749992   83.72419739    3.39000010    2.84999990
   15.02361107   83.72419739    3.41000009    2.84999990
   15.02777767   84.08380127    3.39000010    2.84999990
   15.02888870   82.13639832    3.39000010    2.86999989
   15.03138828   82.62870026    3.36999989    2.84999990
   15.03472233   80.99970245    3.36999989    2.84999990
   15.03805637   79.52259827    3.36999989    2.84999990
   15.04111195   84.59169769    3.39000010    2.84999990
   15.04444504   82.27500153    3.39000010    2.84999990
   15.14916611   -1.00000000   -1.00000000   -1.00000000
   15.24527836   -1.00000000   -1.00000000   -1.00000000
   15.34611034   -1.00000000   -1.00000000   -1.00000000
   15.45888901   78.50219727    3.23000002    2.84999990
   15.46194458   81.97530365    3.23000002    2.86999989
   15.46527767   81.70480347    3.21000004    2.86999989
   15.46861076   78.38539886    3.23000002    2.84999990
   15.47166634   87.01080322    3.21000004    2.84999990
   15.47499943   87.74839783    3.20000005    2.84999990
   15.47916603   87.74839783    3.21000004    2.86999989
   15.48333359   83.19180298    3.21000004    2.86999989
   15.48638916   77.86869812    3.20000005    2.86999989
   15.48972225   82.59249878    3.20000005    2.84999990
   15.49194431   79.65760040    3.21000004    2.86999989
   15.49333382   76.57409668    3.21000004    2.84999990
   15.49666691   77.55590057    3.21000004    2.84999990
   15.49972248   80.49929810    3.21000004    2.86999989
   15.50305557   74.42739868    3.21000004    2.84999990
   15.50638866   82.20040131    3.21000004    2.84999990
   15.50944424   84.28179932    3.21000004    2.84999990
   15.51277733   89.40709686    3.20000005    2.84999990
   15.51583290   84.66369629    3.21000004    2.86999989
   15.52194405   84.66369629    3.21000004    2.86999989
   15.52611065   87.72570038    3.21000004    2.84999990
   15.52944374   78.02339935    3.20000005    2.84999990
   15.53249931   75.13410187    3.20000005    2.89000010
   15.53583336   88.79180145    3.20000005    2.84999990
   15.53916740   85.05039978    3.16000009    2.84999990
   15.54222298   78.72360229    3.14000010    2.86999989
   15.54555607   77.04429626    3.14000010    2.86999989
   15.54888916   82.04109955    3.14000010    2.86999989
   15.55194473   80.21440125    3.11999989    2.84999990
   15.55527782   80.26750183    3.11999989    2.86999989
   15.55833340   80.79100037    3.09999990    2.86999989
   15.55888939   79.39320374    3.09999990    2.86999989
   15.56472206   79.39320374    3.09999990    2.86999989
   15.56888866   78.56870270    3.09999990    2.84999990
   15.57222176   77.18659973    3.09999990    2.86999989
   15.57527733   74.70490265    3.09999990    2.84999990
   15.57861137   76.42810059    3.11999989    2.86999989
   15.58194447   73.58219910    3.11999989    2.84999990
   15.58500004   75.29740143    3.11999989    2.84999990
   15.58833313   75.94819641    3.11999989    2.86999989
   15.59166622   73.89649963    3.11999989    2.86999989
   15.59222221   76.63130188    3.11999989    2.86999989
   15.59527779   72.96420288    3.09999990    2.86999989
   15.59861088   75.57640076    3.11999989    2.84999990
   15.60166740   77.23239899    3.11999989    2.86999989
   15.60777855   77.23239899    3.09999990    2.84999990
   15.61166668   81.80999756    3.07999992    2.86999989
   15.61500072   84.12390137    3.07999992    2.86999989
   15.61833382   84.36370087    3.05999994    2.86999989
   15.62138939   87.12740326    3.03999996    2.86999989
   15.62472248   81.32969666    3.03999996    2.86999989
   15.62555599   84.86979675    3.01999998    2.86999989
   15.62833309   82.76450348    3.00000000    2.86999989
   15.63166714   81.35949707    2.98000002    2.86999989
   15.63472176   81.22740173    2.98000002    2.86999989
   15.63805580   83.25099945    2.98000002    2.84999990
   15.64138889   81.78430176    2.96000004    2.86999989
   15.64444447   81.58570099    2.94000006    2.84999990
   15.65055561   81.58570099    2.94000006    2.86999989
   15.65472221   83.50679779    2.93000007    2.86999989
   15.65777779   85.87689972    2.93000007    2.86999989
   15.65888882   85.61840057    2.94000006    2.86999989
   15.66138840   80.58699799    2.94000006    2.86999989
   15.66472149   77.69000244    2.93000007    2.86999989
   15.66777802   79.76059723    2.93000007    2.86999989
   15.67111111   78.94979858    2.94000006    2.86999989
   15.67444515   87.94629669    2.91000009    2.86999989
   15.67750072   81.80609894    2.91000009    2.84999990
   15.68083382   83.84179688    2.89000010    2.86999989
   15.68388939   79.81089783    2.89000010    2.86999989
   15.68722248   80.60510254    2.86999989    2.86999989
   15.69333363   80.60510254    2.86999989    2.86999989
   15.69750023   79.98840332    2.86999989    2.86999989
   15.70083332   78.40000153    2.86999989    2.86999989
   15.70388889   80.50140381    2.86999989    2.86999989
   15.70722198   84.32649994    2.86999989    2.86999989
   15.71027756   85.59259796    2.89000010    2.86999989
   15.71361065   84.60060120    2.89000010    2.86999989
   15.71694374   81.01979828    2.89000010    2.86999989
   15.71999931   83.56310272    2.89000010    2.86999989
   15.72333336   85.89189911    2.91000009    2.86999989
   15.72555542   85.55999756    2.91000009    2.86999989
   15.72694397   83.71649933    2.91000009    2.86999989
   15.73027706   84.41310120    2.91000009    2.86999989
   15.73611164   84.41310120    2.91000009    2.86999989
   15.74027824   82.43129730    2.91000009    2.86999989
   15.74361134   81.90969849    2.93000007    2.86999989
   15.74666691   83.77140045    2.93000007    2.86999989
   15.75000000   79.28659821    2.93000007    2.86999989
   15.75333309   76.79989624    2.94000006    2.86999989
   15.75638866   76.34200287    2.93000007    2.84999990
   15.75888920   78.82879639    2.91000009    2.84999990
   15.76000023   75.55410004    2.91000009    2.86999989
   15.76333332   77.31379700    2.91000009    2.86999989
   15.76638889   77.87169647    2.93000007    2.86999989
   15.76972198   76.76719666    2.93000007    2.84999990
   15.77305508   82.31050110    2.94000006    2.86999989
   15.77916622   82.31050110    2.96000004    2.86999989
   15.78305531   85.34429932    2.98000002    2.86999989
   15.78638935   84.86250305    3.00000000    2.86999989
   15.78972244   83.65100098    3.01999998    2.86999989
   15.79222298   82.42539978    3.03999996    2.86999989
   15.79333401   79.54599762    3.03999996    2.84999990
   15.79666710   85.22489929    3.03999996    2.86999989
   15.79972267   82.19259644    3.05999994    2.86999989
   15.80305576   77.76850128    3.03999996    2.86999989
   15.80638885   87.63909912    3.03999996    2.86999989
   15.80944443   81.03160095    3.05999994    2.86999989
   15.81277752   84.85729980    3.05999994    2.86999989
   15.81583309   80.02140045    3.05999994    2.86999989
   15.82194424   80.02140045    3.05999994    2.89000010
   15.82611084   78.10510254    3.05999994    2.86999989
   15.82916641   81.50209808    3.05999994    2.86999989
   15.83249950   77.94930267    3.05999994    2.86999989
   15.83583260   77.95770264    3.03999996    2.86999989
   15.83888817   75.12750244    3.03999996    2.86999989
   15.84222221   75.37590027    3.01999998    2.86999989
   15.84527779   77.72969818    3.01999998    2.84999990
   15.84861088   82.88870239    3.01999998    2.86999989
   15.85194492   80.51210022    3.01999998    2.84999990
   15.85500050   80.18659973    3.01999998    2.86999989
   15.85833359   78.18840027    3.00000000    2.84999990
   15.85888958   80.57920074    3.00000000    2.84999990
   15.86472225   80.57920074    2.98000002    2.86999989
   15.86888885   79.18229675    2.98000002    2.86999989
   15.87222195   82.18190002    2.98000002    2.86999989
   15.87527752   80.13909912    2.98000002    2.86999989
   15.87861156   76.38580322    2.98000002    2.86999989
   15.88194466   81.77349854    2.96000004    2.89000010
   15.88500023   84.81449890    2.96000004    2.86999989
   15.88833332   80.29759979    2.96000004    2.86999989
   15.89138889   87.82360077    2.96000004    2.86999989
   15.89222240   77.10720062    2.96000004    2.84999990
   15.89499950   76.14839935    2.94000006    2.84999990
   15.89833355   76.43000031    2.94000006    2.86999989
   15.90138817   77.98120117    2.93000007    2.86999989
   15.90749931   77.98120117    2.86999989    2.86999989
   15.91166592   81.33930206    2.84999990    2.86999989
   15.91499996   84.35060120    2.82999992    2.86999989
   15.91805553   84.69680023    2.82999992    2.86999989
   15.92138958   86.22039795    2.82999992    2.86999989
   15.92472267   83.96820068    2.82999992    2.86999989
   15.92555618   81.69519806    2.82999992    2.86999989
   15.92833328   82.27729797    2.82999992    2.89000010
   15.93166733   79.88200378    2.82999992    2.86999989
   15.93472195   80.18060303    2.80999994    2.86999989
   15.93805599   82.18360138    2.80999994    2.89000010
   15.94138908   81.90440369    2.80999994    2.86999989
   15.94444466   90.31439972    2.80999994    2.86999989
   15.95027733   90.31439972    2.78999996    2.89000010
   15.95444393   78.77310181    2.76999998    2.86999989
   15.95777798   80.60489655    2.75000000    2.86999989
   15.95916653   84.90619659    2.75000000    2.86999989
   15.96138859   81.10700226    2.75000000    2.86999989
   15.96472168   84.07250214    2.73000002    2.89000010
   15.96777725   86.76540375    2.71000004    2.86999989
   15.97111034   83.43240356    2.71000004    2.86999989
   15.97444439   80.71040344    2.69000006    2.86999989
   15.97749996   85.34220123    2.69000006    2.86999989
   15.98083305   80.58480072    2.69000006    2.86999989
   15.98416710   80.77519989    2.67000008    2.86999989
   15.98722267   82.41439819    2.69000006    2.86999989
   15.99333382   82.41439819    2.69000006    2.86999989
   15.99750042   82.35749817    2.67000008    2.86999989
   16.00055504   78.40579987    2.66000009    2.86999989
   16.00388908   85.64579773    2.67000008    2.86999989
   16.00722313   84.94429779    2.67000008    2.86999989
   16.01027870   83.48960114    2.67000008    2.86999989
   16.01361084   87.62149811    2.67000008    2.86999989
   16.01666641   79.48979950    2.67000008    2.86999989
   16.02000046   80.08339691    2.67000008    2.86999989
   16.02333260   75.91110229    2.66000009    2.86999989
   16.02583313   81.37180328    2.66000009    2.86999989
   16.02694511   84.44879913    2.67000008    2.86999989
   16.03027725   80.24449921    2.67000008    2.86999989
   16.03610992   80.24449921    2.69000006    2.86999989
   16.04027748   86.25129700    2.71000004    2.86999989
   16.04361153   79.27539825    2.73000002    2.86999989
   16.04666710   77.40750122    2.75000000    2.86999989
   16.04999924   78.81089783    2.75000000    2.89000010
   16.05305481   81.64309692    2.76999998    2.86999989
   16.05638885   77.11180115    2.78999996    2.89000010
   16.05916595   76.80860138    2.80999994    2.86999989
   16.06027794   79.94200134    2.80999994    2.86999989
   16.06333351   84.54389954    2.80999994    2.89000010
   16.06666756   80.22070313    2.80999994    2.86999989
   16.07000160   85.05570221    2.82999992    2.86999989
   16.07305717   84.56700134    2.82999992    2.86999989
   16.07888985   84.56700134    2.80999994    2.86999989
   16.08305550   78.45800018    2.82999992    2.89000010
   16.08638954   81.27580261    2.82999992    2.86999989
   16.08944511   80.22409821    2.84999990    2.86999989
   16.09250069   86.07740021    2.86999989    2.86999989
   16.09305573   78.37059784    2.86999989    2.86999989
   16.09638977   83.78780365    2.89000010    2.89000010
   16.09944534   83.83339691    2.86999989    2.86999989
   16.10277748   80.69460297    2.86999989    2.89000010
   16.10611153   81.13349915    2.86999989    2.89000010
   16.10916710   82.58020020    2.86999989    2.86999989
   16.11250114   80.92250061    2.89000010    2.86999989
   16.11583328   80.82980347    2.89000010    2.86999989
   16.12166595   80.82980347    2.86999989    2.86999989
   16.12583351   79.48500061    2.84999990    2.86999989
   16.12916756   84.21900177    2.82999992    2.89000010
   16.13249969   82.77400208    2.80999994    2.86999989
   16.13555527   87.47080231    2.78999996    2.86999989
   16.13888931   88.87799835    2.78999996    2.86999989
   16.14194489   79.93589783    2.78999996    2.86999989
   16.14527702   81.90689850    2.76999998    2.86999989
   16.14861107   82.97090149    2.75000000    2.86999989
   16.15166664   79.24849701    2.75000000    2.86999989
   16.15499878   80.24469757    2.75000000    2.89000010
   16.15833282   83.28220367    2.75000000    2.86999989
   16.15916634   86.47440338    2.73000002    2.86999989
   16.16472244   86.47440338    2.71000004    2.86999989
   16.16888809   85.54019928    2.67000008    2.86999989
   16.17194366   76.80729675    2.66000009    2.89000010
   16.17527771   85.47949982    2.66000009    2.86999989
   16.17833328   74.70059967    2.67000008    2.86999989
   16.18166542   78.62940216    2.67000008    2.86999989
   16.18499947   88.22840118    2.69000006    2.89000010
   16.18805504   82.01309967    2.69000006    2.89000010
   16.19138718   84.29180145    2.69000006    2.86999989
   16.19249916   86.17230225    2.67000008    2.89000010
   16.19499969   81.99690247    2.67000008    2.89000010
   16.19833183   82.24530029    2.64000010    2.86999989
   16.20166779   84.70379639    2.64000010    2.89000010
   16.20750046   84.70379639    2.64000010    2.86999989
   16.21166801   84.89270020    2.61999989    2.86999989
   16.21472359   81.00620270    2.61999989    2.86999989
   16.21805573   80.49279785    2.59999990    2.86999989
   16.22138977   78.83959961    2.59999990    2.86999989
   16.22472191   86.62729645    2.57999992    2.89000010
   16.22583389   95.65039825    2.57999992    2.86999989
   16.22805595   80.23190308    2.57999992    2.89000010
   16.23139000   87.78420258    2.57999992    2.86999989
   16.23472214   88.10060120    2.53999996    2.89000010
   16.23777771   84.76149750    2.51999998    2.86999989
   16.24111176   80.69709778    2.51999998    2.89000010
   16.24416733   79.50640106    2.51999998    2.89000010
   16.25027847   79.50640106    2.51999998    2.86999989
   16.25444412   81.21170044    2.55999994    2.89000010
   16.25777817   83.73709869    2.55999994    2.89000010
   16.25916672   86.96269989    2.55999994    2.86999989
   16.26111031   73.92710114    2.59999990    2.86999989
   16.26444435   81.56529999    2.61999989    2.86999989
   16.26777840   82.22229767    2.69000006    2.89000010
   16.27083397   87.24970245    2.75000000    2.86999989
   16.27416611   74.78820038    2.76999998    2.89000010
   16.27722168   81.27010345    2.78999996    2.89000010
   16.28055573   83.32499695    2.80999994    2.86999989
   16.28388786   79.16719818    2.82999992    2.86999989
   16.28694344   79.01200104    2.82999992    2.86999989
   16.29305458   79.01200104    2.80999994    2.89000010
   16.29722214   80.37429810    2.78999996    2.89000010
   16.30055428   84.66179657    2.78999996    2.89000010
   16.30388832   88.12090302    2.78999996    2.89000010
   16.30694389   80.36239624    2.75000000    2.86999989
   16.31027794   76.29769897    2.75000000    2.89000010
   16.31361008   81.52349854    2.71000004    2.89000010
   16.31666756   81.94599915    2.71000004    2.89000010
   16.32000160   82.00849915    2.71000004    2.86999989
   16.32333374   77.25350189    2.71000004    2.89000010
   16.32583427   83.16510010    2.69000006    2.89000010
   16.32666779   82.24680328    2.67000008    2.89000010
   16.33000183   79.48249817    2.66000009    2.89000010
   16.33611107   79.48249817    2.59999990    2.86999989
   16.34027863   85.57379913    2.57999992    2.89000010
   16.34333420   83.60530090    2.57999992    2.89000010
   16.34666824   82.25949860    2.57999992    2.91000009
   16.35000038   79.00820160    2.57999992    2.89000010
   16.35305595   82.85990143    2.59999990    2.89000010
   16.35639000   79.60340118    2.59999990    2.86999989
   16.35916710   84.06539917    2.59999990    2.89000010
   16.36000061   82.10870361    2.59999990    2.89000010
   16.36333466   81.01309967    2.61999989    2.89000010
   16.36666679   80.73660278    2.64000010    2.86999989
   16.36972237   85.01719666    2.64000010    2.86999989
   16.37305641   90.60160065    2.61999989    2.86999989
   16.37888908   90.60160065    2.59999990    2.89000010
   16.38305473   80.84690094    2.55999994    2.89000010
   16.38611031   82.89360046    2.57999992    2.89000010
   16.38944435   87.76249695    2.59999990    2.89000010
   16.39249992   82.23600006    2.64000010    2.86999989
   16.39305496   82.67040253    2.64000010    2.89000010
   16.39638901   84.19740295    2.66000009    2.89000010
   16.39972115   89.17330170    2.67000008    2.89000010
   16.40277672   77.15470123    2.67000008    2.89000010
   16.40611076   78.77960205    2.69000006    2.86999989
   16.40916634   83.61150360    2.73000002    2.86999989
   16.41250038   78.22299957    2.75000000    2.86999989
   16.41583252   79.47709656    2.71000004    2.89000010
   16.42166519   79.47709656    2.71000004    2.86999989
   16.42583275   77.53430176    2.69000006    2.89000010
   16.42916679   85.26480103    2.69000006    2.86999989
   16.43222237   77.28359985    2.67000008    2.89000010
   16.43555450   85.17849731    2.67000008    2.89000010
   16.43888855   80.61260223    2.67000008    2.89000010
   16.44194412   82.84790039    2.67000008    2.89000010
   16.44527626   82.12950134    2.64000010    2.89000010
   16.44833183   79.86109924    2.64000010    2.89000010
   16.45166779   82.82569885    2.66000009    2.89000010
   16.45499992   83.43530273    2.71000004    2.89000010
   16.45805550   78.12310028    2.73000002    2.86999989
   16.45916748   83.41120148    2.73000002    2.89000010
   16.47972298   83.41120148    2.78999996    2.86999989
   16.48388863   81.63059998    2.75000000    2.89000010
   16.48722267   80.49810028    2.71000004    2.89000010
   16.49027824   76.67220306    2.67000008    2.89000010
   16.49250031   78.30380249    2.64000010    2.86999989
   16.49388885   78.41149902    2.64000010    2.89000010
   16.49722290   77.25379944    2.64000010    2.86999989
   16.50055504   77.27549744    2.66000009    2.86999989
   16.50361061   78.51280212    2.67000008    2.86999989
   16.50694466   83.82219696    2.67000008    2.89000010
   16.51027870   89.59670258    2.69000006    2.89000010
   16.51333427   86.09220123    2.69000006    2.89000010
   16.51666641   88.76879883    2.66000009    2.86999989
   16.52249908   88.76879883    2.64000010    2.89000010
   16.52666664   84.08889771    2.64000010    2.89000010
   16.53000069   82.05970001    2.64000010    2.86999989
   16.53305435   86.12329865    2.64000010    2.89000010
   16.53638840   82.04229736    2.61999989    2.86999989
   16.53972244   83.61209869    2.64000010    2.86999989
   16.54277802   87.51270294    2.64000010    2.89000010
   16.54611015   80.45140076    2.64000010    2.91000009
   16.54916573   85.70320129    2.61999989    2.86999989
   16.55249977   89.71219635    2.61999989    2.89000010
   16.55583191   80.72750092    2.61999989    2.89000010
   16.55888748   82.02239990    2.61999989    2.86999989
   16.55944443   77.88339996    2.61999989    2.86999989
   16.56527710   77.88339996    2.61999989    2.86999989
   16.56944466   78.85489655    2.66000009    2.89000010
   16.57277870   80.08280182    2.66000009    2.86999989
   16.57611275   79.08619690    2.66000009    2.89000010
   16.57916832   83.25260162    2.67000008    2.89000010
   16.58250046   85.01550293    2.67000008    2.89000010
   16.58555603   77.23609924    2.67000008    2.89000010
   16.58889008   78.13400269    2.71000004    2.86999989
   16.59222221   82.51899719    2.71000004    2.89000010
   16.59277916   79.49299622    2.71000004    2.86999989
   16.59583473   79.02429962    2.69000006    2.89000010
   16.59916687   78.17669678    2.73000002    2.89000010
   16.60222244   75.37220001    2.73000002    2.86999989
   16.60833359   75.37220001    2.73000002    2.86999989
   16.61250114   76.70230103    2.73000002    2.89000010
   16.61555672   82.46589661    2.75000000    2.89000010
   16.61888885   81.93460083    2.75000000    2.89000010
   16.62194443   80.31430054    2.75000000    2.86999989
   16.62527847   82.05809784    2.76999998    2.89000010
   16.62611198   81.50420380    2.76999998    2.89000010
   16.62888908   79.02310181    2.75000000    2.89000010
   16.63222313   74.83129883    2.73000002    2.89000010
   16.63527679   79.33260345    2.73000002    2.89000010
   16.63861084   80.21330261    2.76999998    2.86999989
   16.64166641   83.85500336    3.00000000    2.86999989
   16.64500046   81.86579895    3.14000010    2.89000010
   16.65111160   81.86579895    2.91000009    2.91000009
   16.65527725   77.29699707    2.86999989    2.89000010
   16.65833282   78.14769745    2.84999990    2.89000010
   16.65944481   82.95200348    2.82999992    2.89000010
   16.66222191   75.19329834    2.82999992    2.89000010
   16.66555595   78.39080048    2.80999994    2.89000010
   16.66860962   83.66909790    2.80999994    2.89000010
   16.67194366   81.25630188    2.80999994    2.89000010
   16.67499924   81.99600220    2.80999994    2.89000010
   16.67833328   85.40910339    2.80999994    2.89000010
   16.68166542   85.30590057    2.80999994    2.89000010
   16.68472099   78.79989624    2.80999994    2.89000010
   16.68805504   80.38300323    2.82999992    2.86999989
   16.69388771   80.38300323    2.80999994    2.89000010
   16.69805527   79.94519806    2.80999994    2.86999989
   16.70138931   80.90370178    2.80999994    2.86999989
   16.70444489   76.94940186    2.82999992    2.86999989
   16.70777893   77.12010193    2.84999990    2.91000009
   16.71111107   80.56030273    2.86999989    2.86999989
   16.71416664   83.08229828    2.89000010    2.84999990
   16.71750069   83.72530365    2.84999990    2.89000010
   16.72055626   88.24449921    2.84999990    2.86999989
   16.72389030   80.22070313    2.82999992    2.86999989
   16.72611237   80.49700165    2.82999992    2.89000010
   16.72750092   84.91619873    2.84999990    2.86999989
   16.73083305   81.73329926    2.82999992    2.86999989
   16.73666763   81.73329926    2.84999990    2.86999989
   16.74083328   82.48320007    2.86999989    2.86999989
   16.74416733   85.06459808    2.86999989    2.89000010
   16.74749947   85.37629700    2.86999989    2.86999989
   16.75055504   83.53679657    2.86999989    2.89000010
   16.75388908   84.19059753    2.86999989    2.86999989
   16.75694466   81.49340057    2.91000009    2.86999989
   16.75944519   84.00910187    2.89000010    2.89000010
   16.76083374   81.27700043    2.91000009    2.86999989
   16.76416588   75.93830109    2.84999990    2.89000010
   16.76722145   81.09480286    2.84999990    2.86999989
   16.77055550   76.73850250    2.84999990    2.86999989
   16.77361107   81.90039825    2.82999992    2.86999989
   16.77972221   81.90039825    2.76999998    2.86999989
   16.78388786   82.84049988    2.76999998    2.89000010
   16.78694344   79.67990112    2.76999998    2.89000010
   16.79027748   85.11979675    2.76999998    2.89000010
   16.79277802   84.64929962    2.78999996    2.89000010
   16.79388809   84.44149780    2.78999996    2.86999989
   16.79722214   79.33059692    2.80999994    2.89000010
   16.80027771   82.98370361    2.82999992    2.86999989
   16.80360985   83.60639954    2.89000010    2.86999989
   16.80666542   80.25779724    2.98000002    2.86999989
   16.80999947   77.81960297    2.98000002    2.86999989
   16.81333351   83.10659790    2.98000002    2.86999989
   16.81666756   80.75070190    2.98000002    2.89000010
   16.82250023   80.75070190    2.94000006    2.86999989
   16.82666779   79.65390015    2.91000009    2.89000010
   16.82972336   79.67209625    2.89000010    2.89000010
   16.83305550   76.73999786    2.86999989    2.86999989
   16.83638954   84.96510315    2.84999990    2.89000010
   16.83944511   81.18299866    2.84999990    2.89000010
   16.84277916   86.03600311    2.84999990    2.86999989
   16.84611130   81.21420288    2.84999990    2.86999989
   16.84916687   81.81649780    2.84999990    2.86999989
   16.85250092   80.35769653    2.82999992    2.86999989
   16.85555649   80.84320068    2.82999992    2.86999989
   16.85888863   86.31649780    2.84999990    2.86999989
   16.85944557   85.01390076    2.84999990    2.86999989
   16.86527824   85.01390076    2.89000010    2.86999989
   16.86944389   94.30130005    2.89000010    2.86999989
   16.87277794   84.99600220    2.91000009    2.86999989
   16.87583351   85.73030090    2.89000010    2.89000010
   16.87916756   82.14040375    2.91000009    2.89000010
   16.88222313   85.71810150    2.93000007    2.89000010
   16.88555527   80.40399933    2.93000007    2.86999989
   16.88888931   81.52259827    2.91000009    2.86999989
   16.89194489   84.09639740    2.91000009    2.86999989
   16.89277840   84.48259735    2.91000009    2.86999989
   16.89555550   82.09880066    2.89000010    2.89000010
   16.89888954   85.39129639    2.89000010    2.86999989
   16.90194321   76.63919830    2.89000010    2.89000010
   16.90805435   76.63919830    2.86999989    2.89000010
   16.91222191   80.52850342    2.89000010    2.86999989
   16.91555595   82.68939972    2.89000010    2.86999989
   16.91860962   80.48680115    2.89000010    2.86999989
   16.92194366   76.97450256    2.86999989    2.89000010
   16.92527771   75.12550354    2.84999990    2.89000010
   16.92611122   83.61109924    2.84999990    2.86999989
   16.92888832   80.64610291    2.84999990    2.86999989
   16.93222237   86.43620300    2.82999992    2.86999989
   16.93527603   80.34940338    2.80999994    2.86999989
   16.93861008   84.94750214    2.80999994    2.86999989
   16.94194412   86.81549835    2.80999994    2.86999989
   16.94499969   88.85939789    2.82999992    2.89000010
   16.95111275   88.85939789    2.78999996    2.86999989
   16.95527840   81.26609802    2.78999996    2.86999989
   16.95833397   92.74549866    2.78999996    2.89000010
   16.95944595   81.67449951    2.78999996    2.86999989
   16.96194458   86.82510376    2.78999996    2.86999989
   16.96527863   89.01979828    2.76999998    2.89000010
   16.96833420   86.92849731    2.73000002    2.89000010
   16.97166634   89.91239929    2.71000004    2.86999989
   16.97500038   83.47949982    2.71000004    2.86999989
   16.97805595   89.99310303    2.69000006    2.89000010
   16.98139000   84.69550323    2.71000004    2.86999989
   16.98472214   79.63549805    2.69000006    2.86999989
   16.98777771   83.72119904    2.71000004    2.89000010
   16.99388885   83.72119904    2.73000002    2.86999989
   16.99805641   85.69799805    2.73000002    2.89000010
   17.00111198   82.71640015    2.75000000    2.89000010
   17.00444412   78.98629761    2.76999998    2.86999989
   17.00777817   84.95279694    2.78999996    2.89000010
   17.01083374   81.85559845    2.78999996    2.86999989
   17.01416588   85.64659882    2.78999996    2.86999989
   17.01749992   79.98590088    2.80999994    2.86999989
   17.02055550   75.89219666    2.80999994    2.86999989
   17.02388954   79.86170197    2.80999994    2.86999989
   17.02611160   85.37570190    2.80999994    2.89000010
   17.02750015   84.05149841    2.80999994    2.89000010
   17.03083229   80.11419678    2.80999994    2.89000010
   17.03666687   80.11419678    2.82999992    2.86999989
   17.04083252   79.21700287    2.82999992    2.86999989
   17.04388809   81.28420258    2.82999992    2.89000010
   17.04722214   83.84970093    2.82999992    2.89000010
   17.05055428   85.04029846    2.80999994    2.89000010
   17.05360985   80.84230042    2.82999992    2.86999989
   17.05694389   79.85019684    2.80999994    2.86999989
   17.05944443   86.31549835    2.80999994    2.86999989
   17.06055450   85.79049683    2.80999994    2.89000010
   17.06388855   95.68150330    2.80999994    2.86999989
   17.06694603   89.38780212    2.82999992    2.89000010
   17.07027817   87.78079987    2.84999990    2.89000010
   17.07333374   86.06800079    2.84999990    2.86999989
   17.07944489   86.06800079    2.78999996    2.86999989
   17.08361244   88.88899994    2.76999998    2.86999989
   17.08694458   93.52320099    2.76999998    2.86999989
   17.09000015   89.52380371    2.76999998    2.86999989
   17.09277916   81.19200134    2.76999998    2.89000010
   17.09361267   88.82530212    2.76999998    2.86999989
   17.09694481   77.77790070    2.76999998    2.89000010
   17.10000038   87.21209717    2.76999998    2.86999989
   17.10333443   84.73690033    2.75000000    2.89000010
   17.10639000   78.70110321    2.73000002    2.89000010
   17.10972214   87.91230011    2.71000004    2.89000010
   17.11305618   88.13729858    2.69000006    2.89000010
   17.11611176   79.46499634    2.69000006    2.89000010
   17.12249947   79.46499634    2.69000006    2.86999989
   17.12638855   91.52570343    2.69000006    2.89000010
   17.12972260   88.01550293    2.71000004    2.86999989
   17.13305473   84.72380066    2.71000004    2.89000010
   17.13611031   84.86969757    2.69000006    2.86999989
   17.13944435   85.64869690    2.69000006    2.86999989
   17.14277840   87.61730194    2.69000006    2.86999989
   17.14583397   87.49199677    2.71000004    2.86999989
   17.14916611   83.84300232    2.71000004    2.89000010
   17.15222168   89.55740356    2.71000004    2.86999989
   17.15555573   84.96009827    2.69000006    2.89000010
   17.15888786   83.06199646    2.69000006    2.89000010
   17.15944481   81.56999969    2.69000006    2.89000010
   17.16527748   81.56999969    2.73000002    2.89000010
   17.16944313   82.12229919    2.75000000    2.89000010
   17.17249870   85.03440094    2.75000000    2.86999989
   17.17583275   82.36340332    2.73000002    2.86999989
   17.17888832   82.35790253    2.75000000    2.86999989
   17.18222237   84.22440338    2.78999996    2.86999989
   17.18555450   80.53970337    2.82999992    2.86999989
   17.18861008   84.22399902    2.82999992    2.86999989
   17.19194412   81.72789764    2.82999992    2.89000010
   17.19277763   81.71779633    2.82999992    2.86999989
   17.19555473   80.14409637    2.84999990    2.86999989
   17.19888878   81.82240295    2.82999992    2.89000010
   17.20194435   84.57830048    2.80999994    2.89000010
   17.20805550   84.57830048    2.78999996    2.86999989
   17.21222305   84.48169708    2.78999996    2.86999989
   17.21527863   90.13300323    2.78999996    2.86999989
   17.21861076   90.91719818    2.78999996    2.86999989
   17.22194481   90.59889984    2.75000000    2.86999989
   17.22500038   94.78350067    2.73000002    2.89000010
   17.22611237   95.57920074    2.73000002    2.89000010
   17.22861099   92.37770081    2.73000002    2.89000010
   17.23194504   92.14600372    2.71000004    2.89000010
   17.23500061   88.84780121    2.67000008    2.86999989
   17.23833275   87.74259949    2.67000008    2.89000010
   17.24166679   94.25080109    2.67000008    2.86999989
   17.24472237   85.67829895    2.67000008    2.89000010
   17.25083351   85.67829895    2.71000004    2.89000010
   17.25499916   93.57389832    2.71000004    2.89000010
   17.25833321   85.82579803    2.69000006    2.86999989
   17.25944519   90.75890350    2.67000008    2.86999989
   17.26194382   90.00070190    2.69000006    2.86999989
   17.26527786   95.51480103    2.71000004    2.89000010
   17.26833344   86.79090118    2.71000004    2.86999989
   17.27166557   86.89800262    2.76999998    2.89000010
   17.27499962   77.39900208    2.78999996    2.86999989
   17.27805519   92.47290039    2.76999998    2.86999989
   17.28138924   89.85910034    2.73000002    2.86999989
   17.28444481   92.79759979    2.73000002    2.89000010
   17.28777695   95.84149933    2.75000000    2.86999989
   17.29388809   95.84149933    2.78999996    2.89000010
   17.29805565   90.83779907    2.78999996    2.89000010
   17.30111122   85.55850220    2.78999996    2.86999989
   17.30444336   76.81590271    2.78999996    2.89000010
   17.30777740   91.72889709    2.78999996    2.86999989
   17.31083298   86.73609924    2.80999994    2.86999989
   17.31416512   83.01509857    2.80999994    2.86999989
   17.31750107   84.64510345    2.80999994    2.89000010
   17.32055664   90.42710114    2.80999994    2.89000010
   17.32389069   78.04260254    2.82999992    2.86999989
   17.32638931   79.55290222    2.82999992    2.89000010
   17.32750130   85.27700043    2.82999992    2.89000010
   17.33083344   84.63189697    2.82999992    2.89000010
   17.33666801   84.63189697    2.78999996    2.89000010
   17.34083366   79.63770294    2.75000000    2.89000010
   17.34388924   79.55860138    2.73000002    2.89000010
   17.34722328   80.18769836    2.75000000    2.89000010
   17.35027885   84.41850281    2.75000000    2.89000010
   17.35361099   81.08660126    2.75000000    2.89000010
   17.35694504   76.87460327    2.75000000    2.89000010
   17.35972214   87.69400024    2.75000000    2.89000010
   17.36055565   83.53639984    2.76999998    2.86999989
   17.36388969   81.44750214    2.78999996    2.86999989
   17.36722183   80.50099945    2.78999996    2.89000010
   17.37027740   84.16570282    2.76999998    2.86999989
   17.37361145   84.85230255    2.71000004    2.89000010
   17.37944412   84.85230255    2.64000010    2.89000010
   17.38361168   85.89140320    2.61999989    2.89000010
   17.38694382   82.94850159    2.59999990    2.89000010
   17.38999939   82.22840118    2.59999990    2.89000010
   17.39305496   87.86779785    2.64000010    2.86999989
   17.39361191   81.02950287    2.64000010    2.86999989
   17.39694405   79.71890259    2.66000009    2.89000010
   17.40027809   81.05719757    2.66000009    2.86999989
   17.40333366   80.68900299    2.66000009    2.89000010
   17.40666580   80.16329956    2.66000009    2.86999989
   17.40972137   84.63140106    2.69000006    2.86999989
   17.41305542   81.54039764    2.76999998    2.86999989
   17.41638756   82.32279968    2.80999994    2.86999989
   17.42222214   82.32279968    2.91000009    2.86999989
   17.42638779   78.34249878    2.96000004    2.86999989
   17.42972183   88.88079834    3.00000000    2.86999989
   17.43277740   80.73490143    3.03999996    2.86999989
   17.43610954   78.78430176    3.07999992    2.86999989
   17.43944359   82.55220032    3.09999990    2.84999990
   17.44249916   80.85639954    3.14000010    2.84999990
   17.44583321   81.31559753    3.16000009    2.86999989
   17.44888878   81.91549683    3.18000007    2.86999989
   17.45222282   82.04129791    3.18000007    2.84999990
   17.45555687   84.03440094    3.18000007    2.86999989
   17.45861244   83.85700226    3.16000009    2.86999989
   17.45972252   82.88770294    3.16000009    2.86999989
   17.46527863   82.88770294    3.14000010    2.86999989
   17.46916771   83.79109955    3.11999989    2.86999989
   17.47249985   83.17910004    3.09999990    2.86999989
   17.47583389   83.58640289    3.09999990    2.86999989
   17.49333382   85.83489990    2.98000002    2.86999989
   17.49583435   79.60079956    3.01999998    2.86999989
   17.49888992   80.97470093    3.01999998    2.89000010
   17.50222206   76.62229919    3.03999996    2.86999989
   17.50805473   76.62229919    3.07999992    2.86999989
   17.51222229   79.05329895    3.05999994    2.86999989
   17.51555634   83.14510345    3.05999994    2.86999989
   17.51861000   89.79720306    3.01999998    2.86999989
   17.52194405   90.07859802    2.98000002    2.86999989
   17.52527809   88.54010010    2.96000004    2.89000010
   17.52666664   82.95770264    2.96000004    2.86999989
   17.52888870   87.62619781    2.94000006    2.86999989
   17.53222275   85.45420074    2.89000010    2.86999989
   17.53527641   87.05930328    2.91000009    2.86999989
   17.53861046   88.09929657    2.91000009    2.86999989
   17.54194450   85.01699829    2.86999989    2.86999989
   17.54500008   84.17800140    2.84999990    2.86999989
   17.55111122   84.17800140    2.78999996    2.86999989
   17.55499840   87.08560181    2.78999996    2.86999989
   17.55833244   86.73049927    2.80999994    2.84999990
   17.55999947   81.31539917    2.82999992    2.86999989
   17.56194305   83.32260132    2.82999992    2.86999989
   17.56527710   85.11910248    2.84999990    2.86999989
   17.56861115   85.69010162    2.82999992    2.86999989
   17.57166672   83.14399719    2.80999994    2.86999989
   17.57500076   79.85160065    2.80999994    2.86999989
   17.57833481   84.68029785    2.82999992    2.86999989
   17.58139038   79.21440125    2.84999990    2.86999989
   17.58472252   79.49079895    2.84999990    2.86999989
   17.58777809   81.07550049    2.84999990    2.86999989
   17.59388924   81.07550049    2.86999989    2.86999989
   17.59805679   77.99859619    2.86999989    2.89000010
   17.60111237   91.92089844    2.86999989    2.86999989
   17.60444450   78.96990204    2.86999989    2.86999989
   17.60777855   75.21009827    2.89000010    2.86999989
   17.61083412   80.63890076    2.93000007    2.89000010
   17.61416626   78.57050323    2.94000006    2.86999989
   17.61722183   81.42410278    2.94000006    2.86999989
   17.62055588   83.79979706    2.98000002    2.86999989
   17.62388992   82.07389832    2.96000004    2.86999989
   17.62666702   81.55860138    2.96000004    2.86999989
   17.62750053   80.81860352    2.96000004    2.86999989
   17.63083267   81.31569672    2.96000004    2.86999989
   17.63666725   81.31569672    2.94000006    2.86999989
   17.64083290   81.66850281    2.93000007    2.86999989
   17.64416695   81.54409790    2.93000007    2.86999989
   17.64722252   77.52770233    2.93000007    2.86999989
   17.65055466   82.38990021    2.91000009    2.86999989
   17.65361023   86.92449951    2.93000007    2.86999989
   17.65694427   83.25150299    2.93000007    2.89000010
   17.65999985   85.14119720    2.93000007    2.86999989
   17.66055489   91.87159729    2.93000007    2.86999989
   17.66388893   81.93070221    2.94000006    2.86999989
   17.66722107   84.50959778    2.96000004    2.86999989
   17.67027664   83.10559845    2.96000004    2.86999989
   17.67361069   85.52040100    2.94000006    2.86999989
   17.67944336   85.52040100    2.94000006    2.86999989
   17.68361092   78.05490112    2.94000006    2.86999989
   17.68694305   87.15650177    2.96000004    2.86999989
   17.68999863   81.75849915    2.98000002    2.86999989
   17.69333267   80.18229675    2.98000002    2.86999989
   17.69361115   81.00199890    2.98000002    2.86999989
   17.69694328   80.78359985    2.96000004    2.86999989
   17.70027924   82.36679840    2.94000006    2.86999989
   17.70333481   85.71469879    2.93000007    2.86999989
   17.70666695   79.28150177    2.91000009    2.86999989
   17.70972252   81.27570343    2.91000009    2.86999989
   17.71305656   81.80429840    2.89000010    2.86999989
   17.71638870   85.29160309    2.91000009    2.86999989
   17.72249985   85.29160309    2.94000006    2.86999989
   17.72666740   91.49579620    2.93000007    2.84999990
   17.72694588   82.87220001    2.93000007    2.84999990
   17.73027802   89.71299744    2.94000006    2.86999989
   17.73361206   90.50849915    2.91000009    2.86999989
   17.73666763   92.17449951    2.86999989    2.89000010
   17.73999977   80.24610138    2.84999990    2.86999989
   17.74305534   94.63240051    2.84999990    2.86999989
   17.74638939   88.66970062    2.82999992    2.86999989
   17.74972153   85.58660126    2.76999998    2.86999989
   17.75277710   85.64749908    2.71000004    2.86999989
   17.75611115   85.02929688    2.67000008    2.86999989
   17.75944519   79.09919739    2.67000008    2.86999989
   17.76000023   81.68219757    2.69000006    2.86999989
   17.76527786   81.68219757    2.71000004    2.84999990
   17.76944351   86.16699982    2.73000002    2.86999989
   17.77249908   85.71330261    2.73000002    2.86999989
   17.77583313   87.80400085    2.71000004    2.86999989
   17.77916718   77.83789825    2.67000008    2.86999989
   17.78222275   77.62449646    2.69000006    2.89000010
   17.78555489   79.90090179    2.69000006    2.86999989
   17.78861046   81.56150055    2.73000002    2.86999989
   17.79194450   83.36669922    2.76999998    2.86999989
   17.79333305   81.30290222    2.76999998    2.86999989
   17.79555511   91.11470032    2.82999992    2.86999989
   17.79888916   85.82170105    2.89000010    2.89000010
   17.80222130   92.36160278    2.98000002    2.86999989
   17.80805397   92.36160278    3.21000004    2.84999990
   17.81222153   84.97270203    3.28999996    2.86999989
   17.81555557   81.62599945    3.30999994    2.86999989
   17.81861115   89.15779877    3.32999992    2.84999990
   17.82194519   85.45249939    3.34999990    2.84999990
   17.82500076   82.08129883    3.34999990    2.84999990
   17.82666779   79.99269867    3.36999989    2.84999990
   17.82861137   78.35590363    3.36999989    2.84999990
   17.83194542   86.65450287    3.36999989    2.84999990
   17.83527756   87.51529694    3.41000009    2.84999990
   17.83833313   92.30950165    3.45000005    2.84999990
   17.84166718   87.99079895    3.45000005    2.86999989
   17.84500122   85.93329620    3.48000002    2.84999990
   17.85083389   85.93329620    3.51999998    2.86999989
   17.85499954   83.28700256    3.51999998    2.84999990
   17.85833359   85.02590179    3.53999996    2.86999989
   17.86000061   88.74320221    3.55999994    2.84999990
   17.86194420   83.41979980    3.55999994    2.84999990
   17.86527824   85.36299896    3.55999994    2.84999990
   17.86861038   82.21130371    3.53999996    2.84999990
   17.87166595   84.03340149    3.51999998    2.84999990
   17.87500000   80.23819733    3.48000002    2.84999990
   17.87833405   81.63259888    3.46000004    2.84999990
   17.88138962   81.31359863    3.45000005    2.86999989
   17.88472176   82.73940277    3.45000005    2.84999990
   17.88777733   77.60949707    3.43000007    2.86999989
   17.89388847   77.60949707    3.41000009    2.86999989
   17.89777756   80.97429657    3.39000010    2.84999990
   17.90111160   88.87419891    3.36999989    2.84999990
   17.90444374   76.24729919    3.32999992    2.84999990
   17.90749931   80.24900055    3.30999994    2.84999990
   17.91083336   88.39469910    3.26999998    2.84999990
   17.91416550   89.90579987    3.25000000    2.84999990
   17.91722107   81.98290253    3.23000002    2.86999989
   17.92055511   82.69909668    3.21000004    2.86999989
   17.92388916   78.48950195    3.23000002    2.84999990
   17.92666626   79.56130219    3.25000000    2.84999990
   17.92722130   75.24340057    3.25000000    2.84999990
   17.93055534   81.05560303    3.25000000    2.84999990
   17.93666649   81.05560303    3.26999998    2.84999990
   17.94083214   80.58100128    3.25000000    2.86999989
   17.94388771   77.37210083    3.23000002    2.84999990
   17.94722176   80.61150360    3.23000002    2.86999989
   17.95027924   79.18389893    3.23000002    2.84999990
   17.95361137   84.76010132    3.21000004    2.86999989
   17.95694542   78.93109894    3.20000005    2.86999989
   17.96000099   77.62650299    3.18000007    2.86999989
   17.96027946   85.90670013    3.18000007    2.84999990
   17.96361160   82.41459656    3.16000009    2.84999990
   17.96694565   81.29239655    3.16000009    2.86999989
   17.97000122   83.67469788    3.16000009    2.84999990
   17.97333336   83.15529633    3.18000007    2.84999990
   17.97944450   83.15529633    3.18000007    2.86999989
   17.98361206   82.01770020    3.18000007    2.84999990
   17.98694420   90.92340088    3.18000007    2.86999989
   17.98999977   80.47650146    3.18000007    2.86999989
   17.99333382   88.05310059    3.16000009    2.86999989
   17.99361229   86.07720184    3.16000009    2.84999990
   17.99694443   83.52210236    3.16000009    2.86999989
   18.00027847   82.34929657    3.14000010    2.84999990
   18.00333405   86.13210297    3.14000010    2.86999989
   18.00666618   79.72239685    3.11999989    2.84999990
   18.01000023   82.80220032    3.07999992    2.84999990
   18.01305580   81.24579620    3.05999994    2.86999989
   18.01638794   80.70330048    3.01999998    2.84999990
   18.02222252   80.70330048    2.98000002    2.86999989
   18.02638817   80.11509705    3.00000000    2.84999990
   18.02694511   83.35310364    3.00000000    2.84999990
   18.03027725   78.38939667    3.00000000    2.86999989
   18.03333282   76.43009949    3.01999998    2.84999990
   18.03666687   76.81020355    3.05999994    2.86999989
   18.03999901   84.18689728    3.09999990    2.86999989
   18.04305458   84.38690186    3.11999989    2.84999990
   18.04638863   79.49130249    3.14000010    2.86999989
   18.04944420   82.22370148    3.14000010    2.84999990
   18.05277634   85.70739746    3.16000009    2.84999990
   18.05611038   84.34269714    3.18000007    2.84999990
   18.05916595   84.29080200    3.18000007    2.86999989
   18.06027794   76.90820313    3.18000007    2.84999990
   18.06527710   76.90820313    3.16000009    2.86999989
   18.06916809   80.38339996    3.11999989    2.84999990
   18.07250023   79.56250000    3.09999990    2.84999990
   18.07583427   80.81469727    3.07999992    2.86999989
   18.07888985   74.80429840    3.07999992    2.86999989
   18.08222389   85.74749756    3.09999990    2.84999990
   18.08555603   85.24579620    3.07999992    2.84999990
   18.08861160   79.98590088    3.05999994    2.84999990
   18.09194565   78.95439911    3.03999996    2.86999989
   18.09361267   76.57499695    3.03999996    2.86999989
   18.09555626   86.53260040    3.01999998    2.86999989
   18.09861183   86.95349884    3.01999998    2.86999989
   18.10194397   84.44809723    3.01999998    2.86999989
   18.10805511   84.44809723    3.03999996    2.84999990
   18.11222267   85.01219940    3.01999998    2.84999990
   18.11527824   79.59220123    3.01999998    2.84999990
   18.11861038   81.62210083    3.01999998    2.84999990
   18.12166595   77.80480194    3.01999998    2.86999989
   18.12500000   81.85890198    3.03999996    2.86999989
   18.12694550   83.12870026    3.01999998    2.84999990
   18.12888908   79.99330139    3.01999998    2.84999990
   18.13194466   87.89530182    3.01999998    2.86999989
   18.13527679   80.85260010    3.01999998    2.84999990
   18.13861084   82.56919861    3.03999996    2.84999990
   18.14166641   81.97509766    3.07999992    2.84999990
   18.14500046   81.87889862    3.07999992    2.84999990
   18.15083313   81.87889862    3.11999989    2.84999990
   18.15499878   86.18470001    3.16000009    2.84999990
   18.15805435   79.95449829    3.18000007    2.84999990
   18.16027832   80.19719696    3.18000007    2.84999990
   18.16194344   81.34420013    3.18000007    2.84999990
   18.16499901   82.24479675    3.18000007    2.84999990
   18.16833305   87.02690125    3.16000009    2.84999990
   18.17166519   80.06420135    3.16000009    2.84999990
   18.17472076   85.29589844    3.14000010    2.86999989
   18.17805481   87.12680054    3.16000009    2.84999990
   18.18111038   84.80870056    3.14000010    2.84999990
   18.18444443   83.26580048    3.11999989    2.84999990
   18.18777657   78.64420319    3.14000010    2.84999990
   18.19361115   78.64420319    3.18000007    2.84999990
   18.19777679   81.55650330    3.20000005    2.84999990
   18.20111275   81.58920288    3.18000007    2.84999990
   18.20416832   82.20999908    3.18000007    2.86999989
   18.20750046   84.13880157    3.18000007    2.84999990
   18.21083450   81.95600128    3.18000007    2.84999990
   18.21389008   77.99680328    3.18000007    2.84999990
   18.21722221   82.08200073    3.16000009    2.84999990
   18.22027779   88.30269623    3.16000009    2.84999990
   18.22361183   87.44419861    3.14000010    2.84999990
   18.22694588   85.59429932    3.16000009    2.84999990
   18.22750092   86.51889801    3.16000009    2.84999990
   18.23055649   81.87349701    3.21000004    2.84999990
   18.23638916   81.87349701    3.25000000    2.84999990
   18.24055672   87.41110229    3.26999998    2.84999990
   18.24388885   86.69349670    3.28999996    2.84999990
   18.24722290   81.60639954    3.30999994    2.84999990
   18.25027847   84.01000214    3.30999994    2.84999990
   18.25361061   77.50260162    3.32999992    2.84999990
   18.25666618   81.18379974    3.32999992    2.84999990
   18.26000023   88.74549866    3.34999990    2.84999990
   18.26083374   88.45739746    3.34999990    2.84999990
   18.26361084   89.40270233    3.34999990    2.84999990
   18.26694489   88.03279877    3.34999990    2.84999990
   18.27027702   83.63610077    3.36999989    2.84999990
   18.27333260   82.84169769    3.36999989    2.84999990
   18.27944374   82.84169769    3.36999989    2.84999990
   18.28361130   76.71029663    3.39000010    2.84999990
   18.28666687   80.07869720    3.39000010    2.84999990
   18.28999901   90.76560211    3.36999989    2.84999990
   18.29305458   82.66970062    3.36999989    2.84999990
   18.29416656   85.56420135    3.36999989    2.84999990
   18.29666710   91.18150330    3.36999989    2.84999990
   18.29999924   78.36489868    3.39000010    2.84999990
   18.30333328   79.46150208    3.39000010    2.84999990
   18.30638885   92.03790283    3.41000009    2.84999990
   18.30972099   77.86900330    3.41000009    2.84999990
   18.31277657   82.25550079    3.43000007    2.84999990
   18.31611061   79.03389740    3.45000005    2.84999990
   18.32222366   79.03389740    3.46000004    2.84999990
   18.32638931   83.45760345    3.50000000    2.84999990
   18.32750130   77.18139648    3.50000000    2.84999990
   18.33000183   79.74299622    3.50000000    2.84999990
   18.33333397   79.16590118    3.50000000    2.84999990
   18.33666801   78.51460266    3.48000002    2.84999990
   18.33972359   82.49040222    3.46000004    2.84999990
   18.34305573   79.77899933    3.48000002    2.84999990
   18.34611130   82.53669739    3.48000002    2.84999990
   18.34944534   80.65850067    3.50000000    2.84999990
   18.35277748   77.57669830    3.50000000    2.82999992
   18.35583305   79.62740326    3.51999998    2.84999990
   18.35916710   80.77790070    3.53999996    2.84999990
   18.36083412   81.34819794    3.53999996    2.82999992
   18.36499977   81.34819794    3.53999996    2.82999992
   18.36916733   82.68119812    3.57999992    2.84999990
   18.37249947   78.86170197    3.57999992    2.84999990
   18.37555504   79.49359894    3.57999992    2.84999990
   18.37888908   84.86750031    3.57999992    2.82999992
   18.38222313   86.47579956    3.55999994    2.84999990
   18.38527679   82.24530029    3.53999996    2.82999992
   18.38861084   81.53440094    3.53999996    2.82999992
   18.39166641   79.60949707    3.53999996    2.82999992
   18.39416695   82.26399994    3.53999996    2.82999992
   18.39527702   85.26439667    3.53999996    2.82999992
   18.39861107   83.46910095    3.53999996    2.84999990
   18.40194321   78.11859894    3.51999998    2.84999990
   18.40777779   78.11859894    3.50000000    2.82999992
   18.41194344   78.82440186    3.48000002    2.82999992
   18.41527748   92.03340149    3.46000004    2.84999990
   18.41860962   81.11180115    3.43000007    2.84999990
   18.42166519   83.44470215    3.41000009    2.82999992
   18.42499924   81.40080261    3.39000010    2.84999990
   18.42749977   84.25890350    3.36999989    2.84999990
   18.42860985   81.41190338    3.36999989    2.84999990
   18.43194389   84.62190247    3.34999990    2.84999990
   18.43527603   81.46540070    3.32999992    2.82999992
   18.43833160   81.26689911    3.30999994    2.84999990
   18.44166565   78.85959625    3.26999998    2.84999990
   18.44472122   82.70729828    3.25000000    2.84999990
   18.45083427   82.70729828    3.21000004    2.84999990
   18.45499992   76.55449677    3.20000005    2.84999990
   18.45805550   83.43859863    3.20000005    2.84999990
   18.46083450   81.69689941    3.20000005    2.84999990
   18.46166801   82.49410248    3.18000007    2.84999990
   18.46500015   79.34400177    3.18000007    2.84999990
   18.46833420   83.19000244    3.20000005    2.84999990
   18.47138977   82.21189880    3.18000007    2.84999990
   18.47472191   79.42780304    3.18000007    2.82999992
   18.47777748   77.13690186    3.20000005    2.84999990
   18.48111153   78.84580231    3.20000005    2.86999989
   18.48444557   80.73249817    3.23000002    2.84999990
   18.48750114   79.20800018    3.26999998    2.84999990
   18.49361229   79.20800018    3.34999990    2.84999990
   18.51194382   81.03569794    3.53999996    2.82999992
   18.51527786   79.84919739    3.55999994    2.82999992
   18.51833344   81.54669952    3.55999994    2.82999992
   18.52166557   85.00820160    3.59999990    2.84999990
   18.52499962   86.70899963    3.64000010    2.82999992
   18.52805519   85.80010223    3.64000010    2.82999992
   18.53138924   87.24549866    3.66000009    2.82999992
   18.53666687   87.24549866    3.64000010    2.84999990
   18.54083252   80.91030121    3.61999989    2.82999992
   18.54416656   79.95069885    3.61999989    2.82999992
   18.54500008   78.89790344    3.59999990    2.84999990
   18.54777718   82.89479828    3.59999990    2.82999992
   18.55083275   81.74839783    3.57999992    2.82999992
   18.55416679   85.58010101    3.55999994    2.82999992
   18.55749893   85.23750305    3.53999996    2.82999992
   18.56055450   88.46420288    3.51999998    2.82999992
   18.56388855   83.45880127    3.51999998    2.82999992
   18.56694603   78.06960297    3.48000002    2.80999994
   18.57027817   80.74160004    3.46000004    2.82999992
   18.57361221   78.78769684    3.45000005    2.84999990
   18.57944489   78.78769684    3.39000010    2.82999992
   18.58361244   76.87449646    3.36999989    2.82999992
   18.58694458   84.22570038    3.34999990    2.82999992
   18.59000015   85.03269958    3.34999990    2.82999992
   18.59333420   79.24710083    3.34999990    2.84999990
   18.59666824   82.16850281    3.32999992    2.84999990
   18.60000038   78.39710236    3.30999994    2.84999990
   18.60305595   85.27600098    3.28999996    2.82999992
   18.60639000   79.33969879    3.28999996    2.82999992
   18.60944557   82.93229675    3.28999996    2.82999992
   18.61166763   82.33280182    3.30999994    2.82999992
   18.61333466   80.83879852    3.30999994    2.82999992
   18.61638832   80.20870209    3.30999994    2.84999990
   18.62249947   80.20870209    3.32999992    2.82999992
   18.62638855   76.41719818    3.32999992    2.84999990
   18.62972260   76.57569885    3.36999989    2.84999990
   18.63305473   78.16719818    3.43000007    2.84999990
   18.63611031   78.98819733    3.50000000    2.82999992
   18.63944435   85.71620178    3.57999992    2.82999992
   18.64277840   80.30259705    3.64000010    2.82999992
   18.64500046   77.22989655    3.68000007    2.82999992
   18.64638901   87.42060089    3.68000007    2.80999994
   18.64944458   84.95089722    3.72000003    2.82999992
   18.65277672   84.54479980    3.75000000    2.82999992
   18.65611076   85.04119873    3.75000000    2.82999992
   18.65916634   85.97090149    3.76999998    2.82999992
   18.66527748   85.97090149    3.82999992    2.82999992
   18.66944313   80.11609650    3.82999992    2.82999992
   18.67249870   79.45649719    3.82999992    2.82999992
   18.67583275   84.59510040    3.82999992    2.82999992
   18.67833328   79.18289948    3.82999992    2.80999994
   18.67944336   84.73400116    3.82999992    2.82999992
   18.68249893   81.38819885    3.82999992    2.80999994
   18.68583298   78.35410309    3.80999994    2.82999992
   18.68916512   83.50160217    3.78999996    2.82999992
   18.69222069   84.65840149    3.78999996    2.80999994
   18.69555473   89.52829742    3.78999996    2.82999992
   18.69888878   81.64350128    3.76999998    2.82999992
   18.70194435   83.31099701    3.76999998    2.82999992
   18.70805550   83.31099701    3.75000000    2.80999994
   18.71222305   77.76930237    3.72000003    2.82999992
   18.71555710   78.08609772    3.70000005    2.80999994
   18.71861076   84.79859924    3.70000005    2.82999992
   18.72194481   81.38749695    3.68000007    2.82999992
   18.72500038   78.35089874    3.64000010    2.82999992
   18.72833443   78.48539734    3.64000010    2.82999992
   18.73166656   81.50050354    3.59999990    2.82999992
   18.73472214   81.43039703    3.57999992    2.82999992
   18.73805618   78.95629883    3.55999994    2.82999992
   18.74138832   77.39389801    3.55999994    2.80999994
   18.74444389   79.16089630    3.55999994    2.82999992
   18.74500084   81.07489777    3.55999994    2.82999992
   18.75083351   81.07489777    3.55999994    2.82999992
   18.75499916   83.10990143    3.55999994    2.82999992
   18.75833321   81.55130005    3.55999994    2.80999994
   18.76138878   81.47689819    3.53999996    2.82999992
   18.76472282   82.71150208    3.50000000    2.82999992
   18.76805496   79.47560120    3.46000004    2.82999992
   18.77111053   79.86479950    3.45000005    2.82999992
   18.77444458   81.33489990    3.43000007    2.82999992
   18.77777672   79.00700378    3.43000007    2.82999992
   18.77833366   80.89080048    3.43000007    2.82999992
   18.78138924   75.79340363    3.41000009    2.82999992
   18.78472137   78.28579712    3.39000010    2.82999992
   18.78777695   78.03869629    3.39000010    2.82999992
   18.79388809   78.03869629    3.34999990    2.82999992
   18.79777718   79.24320221    3.34999990    2.82999992
   18.80111122   80.02339935    3.34999990    2.82999992
   18.80444336   82.30570221    3.34999990    2.82999992
   18.80749893   84.05460358    3.34999990    2.82999992
   18.81083298   79.38379669    3.36999989    2.82999992
   18.81166649   80.80860138    3.34999990    2.84999990
   18.81444359   79.84149933    3.36999989    2.82999992
   18.81777954   77.63770294    3.39000010    2.82999992
   18.82083511   78.44129944    3.41000009    2.82999992
   18.82416725   84.85559845    3.43000007    2.80999994
   18.82722282   83.27760315    3.45000005    2.82999992
   18.83055687   79.35590363    3.48000002    2.82999992
   18.83666801   79.35590363    3.51999998    2.82999992
   18.84083366   82.63839722    3.55999994    2.82999992
   18.84388924   81.38359833    3.57999992    2.80999994
   18.84500122   84.05519867    3.59999990    2.82999992
   18.84777832   85.18080139    3.61999989    2.80999994
   18.85111237   83.78189850    3.64000010    2.80999994
   18.85416794   83.57469940    3.66000009    2.80999994
   18.85750008   76.91519928    3.68000007    2.80999994
   18.86055565   86.37329865    3.68000007    2.80999994
   18.86388969   79.65550232    3.68000007    2.80999994
   18.86722183   81.37879944    3.68000007    2.82999992
   18.87027740   80.11080170    3.70000005    2.82999992
   18.87361145   85.34120178    3.70000005    2.82999992
   18.87944412   85.34120178    3.72000003    2.82999992
   18.88361168   86.58290100    3.72000003    2.80999994
   18.88666725   83.28639984    3.73000002    2.80999994
   18.88999939   84.36930084    3.75000000    2.80999994
   18.89333344   83.26719666    3.75000000    2.80999994
   18.89638901   77.86949921    3.76999998    2.80999994
   18.89972115   84.38310242    3.76999998    2.80999994
   18.90305519   84.56320190    3.76999998    2.78999996
   18.90611076   85.47640228    3.76999998    2.82999992
   18.90944481   81.76560211    3.75000000    2.82999992
   18.91166687   86.41799927    3.75000000    2.82999992
   18.91305542   79.50520325    3.76999998    2.82999992
   18.91638756   80.20659637    3.76999998    2.80999994
   18.92222214   80.20659637    3.82999992    2.80999994
   18.92638779   85.03559875    3.86999989    2.80999994
   18.92972183   94.25509644    3.91000009    2.80999994
   18.93277740   97.37529755    3.91000009    2.80999994
   18.93610954   85.17849731    3.93000007    2.80999994
   18.93944359   79.33830261    3.95000005    2.78999996
   18.94249916   81.23090363    3.97000003    2.80999994
   18.94499969   76.52980042    3.95000005    2.80999994
   18.94610977   81.66500092    3.97000003    2.82999992
   18.94944382   81.70600128    3.95000005    2.80999994
   18.95250130   80.16500092    3.93000007    2.80999994
   18.95583344   83.03859711    3.93000007    2.80999994
   18.95888901   83.74669647    3.91000009    2.80999994
   18.96500015   83.74669647    3.86999989    2.80999994
   18.96916771   81.08619690    3.84999990    2.80999994
   18.97249985   82.92320251    3.82999992    2.80999994
   18.97583389   78.24669647    3.82999992    2.80999994
   18.97833443   77.82849884    3.80999994    2.80999994
   18.97944450   80.75229645    3.80999994    2.80999994
   18.98277855   84.38050079    3.78999996    2.82999992
   18.98583412   82.47930145    3.76999998    2.80999994
   18.98916626   81.87239838    3.76999998    2.80999994
   18.99222183   82.58139801    3.75000000    2.80999994
   18.99555588   86.47339630    3.75000000    2.80999994
   18.99888992   84.47350311    3.75000000    2.80999994
   19.00194359   78.91239929    3.73000002    2.80999994
   19.00805473   78.91239929    3.68000007    2.80999994
   19.01222229   82.02940369    3.64000010    2.82999992
   19.01527786   81.74639893    3.61999989    2.80999994
   19.01861000   82.59649658    3.57999992    2.82999992
   19.02194405   89.90499878    3.57999992    2.80999994
   19.02499962   84.63269806    3.55999994    2.80999994
   19.02833366   89.78669739    3.55999994    2.80999994
   19.03138924   87.27739716    3.55999994    2.80999994
   19.03472137   77.24060059    3.53999996    2.80999994
   19.03805542   82.90350342    3.51999998    2.80999994
   19.04111099   81.59110260    3.50000000    2.80999994
   19.04444313   77.39150238    3.48000002    2.82999992
   19.04500008   82.52040100    3.48000002    2.82999992
   19.05083275   82.52040100    3.45000005    2.82999992
   19.05499840   84.03220367    3.43000007    2.82999992
   19.05805397   84.88559723    3.41000009    2.80999994
   19.06138802   82.60250092    3.41000009    2.80999994
   19.06472206   86.40509796    3.41000009    2.80999994
   19.06777954   82.32399750    3.41000009    2.80999994
   19.07111168   83.81159973    3.41000009    2.80999994
   19.07444572   90.01619720    3.41000009    2.82999992
   19.07750130   86.03130341    3.43000007    2.80999994
   19.07833481   87.39959717    3.43000007    2.80999994
   19.08111191   86.00250244    3.41000009    2.80999994
   19.08444595   82.72239685    3.43000007    2.80999994
   19.08750153   85.89309692    3.41000009    2.80999994
   19.09361267   85.89309692    3.46000004    2.82999992
   19.09777832   81.66020203    3.48000002    2.80999994
   19.10111237   86.58779907    3.51999998    2.80999994
   19.10416794   87.87409973    3.53999996    2.80999994
   19.10750008   89.94499969    3.57999992    2.78999996
   19.11083412   88.33609772    3.59999990    2.80999994
   19.11166763   85.59259796    3.59999990    2.80999994
   19.11444473   87.66510010    3.64000010    2.80999994
   19.11777878   83.83429718    3.68000007    2.80999994
   19.12083435   86.50579834    3.75000000    2.80999994
   19.12416649   92.61119843    3.80999994    2.80999994
   19.12722206   82.96399689    3.89000010    2.80999994
   19.13055611   81.45749664    3.97000003    2.78999996
   19.13638878   81.45749664    4.03999996    2.78999996
   19.14055634   86.77089691    4.05999994    2.80999994
   19.14388847   85.86579895    4.07999992    2.78999996
   19.14500046   91.88719940    4.09999990    2.80999994
   19.14749908   86.30879974    4.09999990    2.78999996
   19.15083313   82.97250366    4.11999989    2.78999996
   19.15388870   82.59380341    4.13999987    2.80999994
   19.15722275   86.24700165    4.13999987    2.78999996
   19.16055489   83.16840363    4.15999985    2.78999996
   19.16361046   83.84100342    4.13999987    2.78999996
   19.16694450   82.46350098    4.11999989    2.80999994
   19.17000008   81.99410248    4.11999989    2.78999996
   19.17333221   87.61350250    4.11999989    2.78999996
   19.17944336   87.61350250    4.07999992    2.78999996
   19.18361092   79.28220367    4.07999992    2.78999996
   19.18666649   85.95069885    4.07999992    2.78999996
   19.18999863   84.44010162    4.07999992    2.78999996
   19.19305420   85.94000244    4.07999992    2.78999996
   19.19638824   85.62750244    4.07999992    2.78999996
   19.19972038   86.24389648    4.07999992    2.78999996
   19.20277786   77.56600189    4.05999994    2.78999996
   19.20611191   80.33499908    4.05999994    2.78999996
   19.20944595   82.78720093    4.03999996    2.78999996
   19.21166801   78.94650269    4.03999996    2.78999996
   19.21305656   90.23950195    4.01999998    2.78999996
   19.21638870   86.94609833    4.01999998    2.78999996
   19.22222328   86.94609833    4.00000000    2.78999996
   19.22638893   86.61049652    4.00000000    2.78999996
   19.22944450   89.49030304    3.99000001    2.78999996
   19.23277855   96.79070282    3.97000003    2.78999996
   19.23611069   84.11540222    3.97000003    2.78999996
   19.23916626   83.64630127    3.97000003    2.78999996
   19.24250031   88.54119873    3.95000005    2.78999996
   19.24500084   86.76920319    3.91000009    2.78999996
   19.24611092   87.42600250    3.93000007    2.78999996
   19.24944496   86.11350250    3.91000009    2.80999994
   19.25250053   78.46710205    3.89000010    2.78999996
   19.25583267   76.96459961    3.86999989    2.78999996
   19.25916672   82.54720306    3.84999990    2.78999996
   19.26499939   82.54720306    3.82999992    2.78999996
   19.26916695   83.67130280    3.84999990    2.78999996
   19.27249908   80.73110199    3.84999990    2.78999996
   19.27555466   81.73570251    3.89000010    2.78999996
   19.27833366   83.87870026    3.91000009    2.78999996
   19.27916718   82.08480072    3.91000009    2.78999996
   19.28249931   83.30480194    3.93000007    2.78999996
   19.28555489   81.88680267    3.95000005    2.78999996
   19.28888893   82.42330170    3.97000003    2.78999996
   19.29222107   82.56590271    3.95000005    2.78999996
   19.29527664   81.86139679    3.97000003    2.78999996
   19.29861069   83.61869812    3.97000003    2.78999996
   19.30166626   84.50589752    3.97000003    2.78999996
   19.30777740   84.50589752    3.99000001    2.76999998
   19.31194305   80.49610138    4.00000000    2.76999998
   19.31527710   79.28720093    4.00000000    2.76999998
   19.31861115   79.81479645    4.01999998    2.78999996
   19.32166672   75.40460205    4.03999996    2.78999996
   19.32500076   81.80879974    4.03999996    2.76999998
   19.32805634   84.83020020    4.05999994    2.78999996
   19.33139038   77.82260132    4.05999994    2.76999998
   19.33472252   84.14550018    4.05999994    2.78999996
   19.33777809   76.98400116    4.05999994    2.78999996
   19.34111214   81.30339813    4.05999994    2.78999996
   19.34444427   78.90499878    4.05999994    2.78999996
   19.34500122   82.85710144    4.05999994    2.78999996
   19.35083389   82.85710144    4.03999996    2.76999998
   19.35499954   81.48349762    4.03999996    2.78999996
   19.35805511   76.97190094    4.03999996    2.76999998
   19.36138916   79.80059814    4.03999996    2.76999998
   19.36444473   81.88210297    4.01999998    2.78999996
   19.36777878   83.03099823    4.01999998    2.78999996
   19.37111092   93.49510193    4.00000000    2.78999996
   19.37444496   83.56569672    4.00000000    2.78999996
   19.37750053   80.88510132    3.99000001    2.78999996
   19.37833405   76.80789948    3.99000001    2.76999998
   19.38111115   84.88970184    4.00000000    2.76999998
   19.38444519   84.73629761    4.00000000    2.78999996
   19.38750076   79.56030273    4.00000000    2.76999998
   19.39361191   79.56030273    4.00000000    2.76999998
   19.39777756   76.96119690    4.00000000    2.78999996
   19.40083313   84.32749939    4.00000000    2.76999998
   19.40416718   78.06199646    3.99000001    2.78999996
   19.40749931   84.50260162    3.99000001    2.78999996
   19.41055489   82.79499817    3.99000001    2.78999996
   19.41166687   76.81860352    3.99000001    2.76999998
   19.41416550   79.64720154    4.00000000    2.78999996
   19.41749954   81.16549683    4.00000000    2.78999996
   19.42055511   81.05020142    4.01999998    2.76999998
   19.42388916   84.38030243    4.03999996    2.76999998
   19.42722130   85.06120300    4.03999996    2.76999998
   19.43027687   82.80780029    4.03999996    2.76999998
   19.43638802   82.80780029    4.03999996    2.78999996
   19.44055557   84.45880127    4.05999994    2.78999996
   19.44388771   80.95829773    4.05999994    2.76999998
   19.44527626   89.22280121    4.05999994    2.78999996
   19.44749832   82.48190308    4.05999994    2.78999996
   19.45083427   84.38939667    4.07999992    2.76999998
   19.45388985   91.31670380    4.07999992    2.76999998
   19.45722389   90.09649658    4.07999992    2.76999998
   19.46055603   89.39289856    4.09999990    2.76999998
   19.46361160   92.93280029    4.11999989    2.78999996
   19.46694565   80.53479767    4.11999989    2.76999998
   19.47027779   83.16850281    4.13999987    2.76999998
   19.47333336   77.07839966    4.13999987    2.76999998
   19.47916794   77.07839966    4.15999985    2.78999996
   19.48333359   82.50219727    4.15999985    2.78999996
   19.48666763   80.54190063    4.17999983    2.76999998
   19.48999977   83.19950104    4.15999985    2.76999998
   19.49305534   89.76450348    4.17999983    2.76999998
   19.49638939   86.08869934    4.17999983    2.76999998
   19.49944496   89.10459900    4.17999983    2.76999998
   19.50277710   83.42410278    4.17999983    2.76999998
   19.50611115   81.67510223    4.17999983    2.76999998
   19.50916672   79.80690002    4.19999981    2.76999998
   19.51194382   84.26210022    4.19999981    2.76999998
   19.53249931   84.26210022    4.19999981    2.75000000
   19.53666687   87.55770111    4.19999981    2.76999998
   19.53972244   89.31210327    4.21999979    2.76999998
   19.54305458  101.40399933    4.21999979    2.76999998
   19.54527664   84.06479645    4.21999979    2.75000000
   19.54666710   88.16159821    4.21999979    2.76999998
   19.54999924   82.69309998    4.23999977    2.76999998
   19.55333328   79.65709686    4.21999979    2.76999998
   19.55638885   84.35970306    4.21999979    2.76999998
   19.55972099   81.26509857    4.21999979    2.76999998
   19.56305504   84.72799683    4.21999979    2.76999998
   19.56611061   78.19499969    4.23999977    2.76999998
   19.56944466   80.23970032    4.23999977    2.76999998
   19.57527924   80.23970032    4.26999998    2.75000000
   19.57944489   85.06369781    4.26000023    2.75000000
   19.58250046   85.08190155    4.26999998    2.76999998
   19.58583450   87.29190063    4.26999998    2.76999998
   19.58889008   85.64830017    4.26999998    2.76999998
   19.59222221   89.10919952    4.26999998    2.75000000
   19.59555626   85.18329620    4.28999996    2.76999998
   19.59861183   80.41130066    4.28999996    2.76999998
   19.60194397   84.13059998    4.26999998    2.76999998
   19.60527802   86.38410187    4.26999998    2.75000000
   19.60833359   82.46849823    4.26000023    2.76999998
   19.61166763   89.77639771    4.26000023    2.75000000
   19.61222267   86.87460327    4.26000023    2.76999998
   19.61805534   86.87460327    4.26000023    2.76999998
   19.62222290   87.98190308    4.26000023    2.76999998
   19.62527847   86.25540161    4.26999998    2.75000000
   19.62861061   92.80960083    4.26999998    2.75000000
   19.63194466   92.81990051    4.28999996    2.76999998
   19.63500023   89.10890198    4.30999994    2.75000000
   19.63833237   88.87860107    4.30999994    2.75000000
   19.64166641   85.16880035    4.34999990    2.75000000
   19.64472198   84.21640015    4.34999990    2.75000000
   19.64555550   88.45480347    4.34999990    2.75000000
   19.64833260   87.26360321    4.36999989    2.75000000
   19.65166664   81.71289825    4.36999989    2.75000000
   19.65499878   80.21089935    4.36999989    2.76999998
   19.66083336   80.21089935    4.38999987    2.75000000
   19.66499901   86.88120270    4.40999985    2.75000000
   19.66833305   90.06529999    4.40999985    2.75000000
   19.67138863   90.79530334    4.42999983    2.75000000
   19.67472076   89.16549683    4.42999983    2.75000000
   19.67805481   83.72139740    4.42999983    2.75000000
   19.67888832   80.82869720    4.42999983    2.75000000
   19.68138885   78.63410187    4.40999985    2.76999998
   19.68472099   79.74019623    4.40999985    2.75000000
   19.68805504   81.17189789    4.38999987    2.75000000
   19.69111061   86.19889832    4.38999987    2.75000000
   19.69444275   77.68769836    4.38999987    2.75000000
   19.69777679   81.10949707    4.38999987    2.75000000
   19.70361137   81.10949707    4.36999989    2.75000000
   19.70777893   83.58059692    4.34999990    2.75000000
   19.71111107   84.55889893    4.32999992    2.75000000
   19.71222305   78.79039764    4.32999992    2.75000000
   19.71472359   79.46289825    4.32999992    2.75000000
   19.71805573   79.65470123    4.30999994    2.75000000
   19.72138977   83.59369659    4.30999994    2.75000000
   19.72444534   83.20600128    4.28999996    2.75000000
   19.72777748   79.20709991    4.28999996    2.75000000
   19.73111153   79.84230042    4.28999996    2.75000000
   19.73416710   84.77839661    4.28999996    2.75000000
   19.73750114   79.56439972    4.30999994    2.75000000
   19.74055672   84.09420013    4.28999996    2.75000000
   19.74666786   84.09420013    4.28999996    2.75000000
   19.75083351   83.70059967    4.28999996    2.75000000
   19.75388908   81.26159668    4.26999998    2.75000000
   19.75722313   83.23059845    4.26999998    2.75000000
   19.76027870   78.72740173    4.26999998    2.75000000
   19.76361084   82.97460175    4.26999998    2.75000000
   19.76694489   79.87619781    4.26999998    2.75000000
   19.77000046   85.43920135    4.26999998    2.75000000
   19.77333260   86.20590210    4.26999998    2.75000000
   19.77666664   79.97299957    4.26999998    2.75000000
   19.77888870   81.11380005    4.26999998    2.75000000
   19.78000069   81.34110260    4.28999996    2.75000000
   19.78333282   82.98349762    4.28999996    2.75000000
   19.78944397   82.98349762    4.28999996    2.73000002
   19.79361153   77.76490021    4.26999998    2.75000000
   19.79666710   87.65059662    4.28999996    2.75000000
   19.79999924   79.13200378    4.26999998    2.75000000
   19.80333328   78.67160034    4.26999998    2.73000002
   19.80638885   76.20249939    4.26999998    2.75000000
   19.80972099   84.13459778    4.26999998    2.73000002
   19.81222153   82.32810211    4.26999998    2.75000000
   19.81333351   80.79419708    4.26999998    2.75000000
   19.81666756   82.50730133    4.26999998    2.75000000
   19.82000160   81.24299622    4.26999998    2.75000000
   19.82305717   82.64749908    4.26999998    2.75000000
   19.82638931   79.80599976    4.26999998    2.75000000
   19.83222389   79.80599976    4.26999998    2.75000000
   19.83638954   84.81659698    4.30999994    2.73000002
   19.83972359   80.66909790    4.30999994    2.75000000
   19.84277916   81.70339966    4.34999990    2.75000000
   19.84555626   83.34249878    4.34999990    2.75000000
   19.84638977   79.57879639    4.32999992    2.75000000
   19.84972191   78.59609985    4.32999992    2.75000000
   19.85305595   82.79470062    4.32999992    2.73000002
   19.85611153   79.88919830    4.30999994    2.73000002
   19.85944557   83.80539703    4.30999994    2.73000002
   19.86277771   80.90950012    4.28999996    2.73000002
   19.86583328   83.83080292    4.28999996    2.75000000
   19.86916733   91.85700226    4.26999998    2.75000000
   19.87500000   91.85700226    4.28999996    2.75000000
   19.87916756   82.55960083    4.30999994    2.73000002
   19.88249969   86.17469788    4.32999992    2.73000002
   19.88583374   83.68530273    4.32999992    2.73000002
   19.88888931   81.90869904    4.32999992    2.73000002
   19.89222145   77.26499939    4.34999990    2.73000002
   19.89527702   81.64569855    4.34999990    2.73000002
   19.89861107   79.32700348    4.36999989    2.75000000
   19.90194321   91.52040100    4.38999987    2.73000002
   19.90499878   89.02639771    4.40999985    2.73000002
   19.90833282   77.95110321    4.40999985    2.73000002
   19.91166687   83.69770050    4.44999981    2.73000002
   19.91222191   84.48750305    4.44999981    2.73000002
   19.91805458   84.48750305    4.48999977    2.73000002
   19.92222214   85.33740234    4.51000023    2.75000000
   19.92527771   84.79940033    4.53000021    2.73000002
   19.92860985   88.34359741    4.53000021    2.73000002
   19.93166542   82.17600250    4.53999996    2.73000002
   19.93499947   79.40010071    4.55999994    2.73000002
   19.93833160   87.10870361    4.57999992    2.73000002
   19.94138718   86.51619720    4.59999990    2.73000002
   19.94472122   77.81199646    4.61999989    2.71000004
   19.94555473   84.61879730    4.61999989    2.71000004
   19.94833183   84.72049713    4.61999989    2.73000002
   19.95138931   85.97530365    4.63999987    2.73000002
   19.95472336   86.45310211    4.65999985    2.71000004
   19.96083450   86.45310211    4.65999985    2.71000004
   19.96500015   83.46309662    4.65999985    2.73000002
   19.96833420   81.74569702    4.65999985    2.71000004
   19.97138977   81.95780182    4.67999983    2.73000002
   19.97472191   79.52420044    4.67999983    2.73000002
   19.97777748   83.34040070    4.67999983    2.73000002
   19.97888947   82.59770203    4.67999983    2.73000002
   19.98166656   84.20169830    4.67999983    2.73000002
   19.98472214   86.96859741    4.69999981    2.71000004
   19.98805618   83.77300262    4.69999981    2.73000002
   19.99111176   77.63510132    4.67999983    2.73000002
   19.99444389   83.27819824    4.67999983    2.71000004
   19.99777794   83.15180206    4.67999983    2.71000004
   20.00361061   83.15180206    4.67999983    2.71000004
   20.00777817   81.32969666    4.69999981    2.71000004
   20.01111031   85.26869965    4.67999983    2.71000004
   20.01222229   78.63849640    4.67999983    2.71000004
   20.01472282   77.19940186    4.69999981    2.71000004
   20.01777840   82.74929810    4.67999983    2.71000004
   20.02111053   79.03079987    4.67999983    2.71000004
   20.02416611   80.97409821    4.67999983    2.71000004
   20.02750015   78.58760071    4.67999983    2.71000004
   20.03083229   78.56600189    4.65999985    2.71000004
   20.03388786   81.83560181    4.65999985    2.71000004
   20.03722191   76.91329956    4.65999985    2.71000004
   20.04055595   78.94570160    4.67999983    2.71000004
   20.04638863   78.94570160    4.65999985    2.73000002
   20.05055428   81.79440308    4.65999985    2.71000004
   20.05388832   85.48349762    4.65999985    2.71000004
   20.05722237   87.40540314    4.65999985    2.71000004
   20.06027794   87.03569794    4.65999985    2.71000004
   20.06361008   86.06980133    4.63999987    2.71000004
   20.06666756   85.19259644    4.61999989    2.71000004
   20.07000160   82.46379852    4.61999989    2.71000004
   20.07333374   78.32769775    4.61999989    2.71000004
   20.07638931   79.34580231    4.61999989    2.71000004
   20.07888985   75.69660187    4.59999990    2.71000004
   20.08027840   74.27729797    4.59999990    2.71000004
   20.08333397   80.78540039    4.59999990    2.71000004
   20.08944511   80.78540039    4.61999989    2.71000004
   20.09361267   81.56890106    4.59999990    2.71000004
   20.09666824   83.38649750    4.61999989    2.71000004
   20.10000038   85.29460144    4.63999987    2.71000004
   20.10305595   80.68830109    4.65999985    2.71000004
   20.10639000   81.21679688    4.67999983    2.71000004
   20.10972214   84.24230194    4.67999983    2.71000004
   20.11222267   83.43160248    4.69999981    2.71000004
   20.11333466   78.62699890    4.69999981    2.71000004
   20.11638832   82.65940094    4.69999981    2.71000004
   20.11972237   77.93730164    4.73999977    2.71000004
   20.12277794   79.52369690    4.73999977    2.71000004
   20.12611198   91.30850220    4.76000023    2.69000006
   20.13222313   91.30850220    4.78000021    2.69000006
   20.13638878   86.45069885    4.80000019    2.69000006
   20.13944435   88.52030182    4.80000019    2.69000006
   20.14277840   84.31690216    4.80999994    2.69000006
   20.14555550   83.51909637    4.82999992    2.69000006
   20.14666748   89.38960266    4.82999992    2.71000004
   20.14972115   91.26159668    4.82999992    2.69000006
   20.15305519   85.15190125    4.84999990    2.71000004
   20.15611076   81.63079834    4.86999989    2.71000004
   20.15944481   84.98930359    4.86999989    2.69000006
   20.16277695   85.30809784    4.88999987    2.69000006
   20.16583252   88.27059937    4.88999987    2.69000006
   20.16916656   82.44830322    4.88999987    2.69000006
   20.17499924   82.44830322    4.90999985    2.69000006
   20.17916679   88.66950226    4.90999985    2.69000006
   20.18249893   86.34649658    4.90999985    2.69000006
   20.18555450   87.95500183    4.90999985    2.69000006
   20.18888855   86.99199677    4.90999985    2.69000006
   20.19222069   91.75420380    4.90999985    2.69000006
   20.19527626   79.36090088    4.90999985    2.69000006
   20.19861031   87.54109955    4.90999985    2.69000006
   20.20166779   84.31469727    4.90999985    2.69000006
   20.20499992   86.58940125    4.90999985    2.69000006
   20.20833397   81.81099701    4.90999985    2.69000006
   20.21138954   87.33540344    4.90999985    2.69000006
   20.21222305   85.36419678    4.90999985    2.67000008
   20.21777916   85.36419678    4.90999985    2.69000006
   20.22194481   88.88140106    4.90999985    2.69000006
   20.22527885   84.91880035    4.90999985    2.69000006
   20.22861099   82.40280151    4.90999985    2.67000008
   20.23166656   80.08329773    4.90999985    2.69000006
   20.23500061   77.38610077    4.90999985    2.67000008
   20.23833275   78.34799957    4.90999985    2.67000008
   20.24138832   77.63349915    4.90999985    2.67000008
   20.24472237   82.46640015    4.90999985    2.69000006
   20.24555588   83.28919983    4.90999985    2.69000006
   20.24833298   89.00240326    4.90999985    2.69000006
   20.25138855   81.61599731    4.90999985    2.69000006
   20.25472260   83.82070160    4.90999985    2.67000008
   20.26083374   83.82070160    4.90999985    2.69000006
   20.26499939   90.01629639    4.90999985    2.67000008
   20.26805496   78.51689911    4.90999985    2.69000006
   20.27138901   86.68450165    4.90999985    2.69000006
   20.27444458   81.91570282    4.90999985    2.67000008
   20.27777672   86.52629852    4.90999985    2.69000006
   20.27888870   82.22979736    4.90999985    2.67000008
   20.28138924   84.48829651    4.90999985    2.69000006
   20.28444481   85.46170044    4.90999985    2.69000006
   20.28777695   80.67829895    4.90999985    2.67000008
   20.29111099   86.35070038    4.90999985    2.67000008
   20.29416656   98.18009949    4.90999985    2.69000006
   20.29749870   91.17459869    4.90999985    2.67000008
   20.30360985   91.17459869    4.90999985    2.69000006
   20.30777740   83.63559723    4.90999985    2.67000008
   20.31110954   86.54229736    4.90999985    2.67000008
   20.31222153   87.44909668    4.90999985    2.67000008
   20.31472206   86.37110138    4.90999985    2.67000008
   20.31777954   84.28050232    4.90999985    2.67000008
   20.32111168   80.79029846    4.90999985    2.67000008
   20.32444572   85.42310333    4.90999985    2.67000008
   20.32750130   79.59120178    4.90999985    2.67000008
   20.33083344   82.78079987    4.90999985    2.67000008
   20.33388901   87.61910248    4.90999985    2.67000008
   20.33722305   82.82839966    4.90999985    2.67000008
   20.34055710   85.96189880    4.90999985    2.67000008
   20.34638977   85.96189880    4.90999985    2.67000008
   20.35055542   82.31819916    4.90999985    2.67000008
   20.35388947   84.66380310    4.90999985    2.67000008
   20.35694504   85.19029999    4.90999985    2.67000008
   20.36027908   85.10990143    4.90999985    2.67000008
   20.36361122   88.57089996    4.90999985    2.67000008
   20.36666679   83.95220184    4.90999985    2.67000008
   20.37000084   88.46309662    4.90999985    2.67000008
   20.37305641   83.74299622    4.90999985    2.67000008
   20.37638855   84.28949738    4.90999985    2.67000008
   20.37888908   85.63439941    4.90999985    2.67000008
   20.38000107   93.28410339    4.90999985    2.67000008
   20.38305473   82.69589996    4.90999985    2.67000008
   20.38916588   82.69589996    4.90999985    2.67000008
   20.39333344   92.66850281    4.90999985    2.66000009
   20.39666748   83.47910309    4.90999985    2.67000008
   20.39999962   83.10030365    4.90999985    2.67000008
   20.40305519   83.52030182    4.90999985    2.66000009
   20.40638924   88.09760284    4.90999985    2.67000008
   20.40972137   86.90039825    4.90999985    2.67000008
   20.41222191   85.41110229    4.90999985    2.67000008
   20.41333389   93.64640045    4.90999985    2.66000009
   20.41638756   88.41519928    4.90999985    2.66000009
   20.41972160   85.96530151    4.90999985    2.67000008
   20.42305565   90.79579926    4.90999985    2.66000009
   20.42611122   88.97290039    4.90999985    2.67000008
   20.43222237   88.97290039    4.90999985    2.67000008
   20.43638802   91.26979828    4.90999985    2.66000009
   20.43944359   86.14360046    4.90999985    2.67000008
   20.44277763   86.86199951    4.90999985    2.66000009
   20.44555473   84.63220215    4.90999985    2.66000009
   20.44638824   88.39270020    4.90999985    2.66000009
   20.44944382   86.23359680    4.90999985    2.66000009
   20.45277786   85.06099701    4.90999985    2.66000009
   20.45611191   85.02639771    4.90999985    2.66000009
   20.45916748   90.39689636    4.90999985    2.66000009
   20.46250153   80.81590271    4.90999985    2.66000009
   20.46555710   82.40570068    4.90999985    2.66000009
   20.46888924   88.38110352    4.90999985    2.66000009
   20.47500038   88.38110352    4.90999985    2.66000009
   20.47916794   85.23719788    4.90999985    2.66000009
   20.48222351   81.65509796    4.90999985    2.66000009
   20.48555565   82.21099854    4.90999985    2.66000009
   20.48888969   80.15579987    4.90999985    2.64000010
   20.49194527   83.86380005    4.90999985    2.66000009
   20.49527740   80.62380219    4.90999985    2.66000009
   20.49861145   83.27359772    4.90999985    2.66000009
   20.50166702   86.49510193    4.90999985    2.66000009
   20.50499916   84.30719757    4.90999985    2.66000009
   20.50805473   91.02839661    4.90999985    2.64000010
   20.51138878   94.18370056    4.90999985    2.66000009
   20.51222229   88.89890289    4.90999985    2.66000009
   20.51777840   88.89890289    4.90999985    2.64000010
   20.52194405   83.64589691    4.90999985    2.66000009
   20.52527809   86.38870239    4.90999985    2.64000010
   20.52833366   91.44000244    4.90999985    2.64000010
   20.54583359   85.78450012    4.90999985    2.64000010
   20.54833221   93.50959778    4.90999985    2.64000010
   20.55166626   86.90139771    4.90999985    2.64000010
   20.55472183   88.77919769    4.90999985    2.64000010
   20.56083298   88.77919769    4.90999985    2.64000010
   20.56499863   83.88670349    4.90999985    2.64000010
   20.56833458   86.22850037    4.90999985    2.64000010
   20.57139015   88.48539734    4.90999985    2.64000010
   20.57472229   88.21669769    4.90999985    2.64000010
   20.57777786   86.15859985    4.90999985    2.64000010
   20.57916832   83.28540039    4.90999985    2.64000010
   20.58166695   89.08820343    4.90999985    2.64000010
   20.58500099   84.98419952    4.90999985    2.64000010
   20.58805656   85.48040009    4.90999985    2.64000010
   20.59138870   88.88189697    4.90999985    2.61999989
   20.59472275   84.28379822    4.90999985    2.64000010
   20.59777832   86.49189758    4.90999985    2.61999989
   20.60361099   86.49189758    4.90999985    2.61999989
   20.60777855   85.52230072    4.90999985    2.64000010
   20.61111069   86.29399872    4.90999985    2.61999989
   20.61250114   87.88790131    4.90999985    2.61999989
   20.61472321   90.11730194    4.90999985    2.64000010
   20.61777878   96.23880005    4.90999985    2.61999989
   20.62111092   87.93859863    4.90999985    2.61999989
   20.62444496   89.13300323    4.90999985    2.61999989
   20.62750053   87.95269775    4.90999985    2.61999989
   20.63083267   89.57959747    4.90999985    2.61999989
   20.63416672   99.53330231    4.90999985    2.61999989
   20.63722229   86.90570068    4.90999985    2.61999989
   20.64055634   92.24420166    4.90999985    2.61999989
   20.64666748   92.24420166    4.90999985    2.61999989
   20.65055466   84.04180145    4.90999985    2.64000010
   20.65388870   83.93180084    4.90999985    2.61999989
   20.65722275   96.06839752    4.90999985    2.61999989
   20.66027832   85.84449768    4.90999985    2.61999989
   20.66361046   83.92949677    4.90999985    2.61999989
   20.66694450   89.12390137    4.90999985    2.61999989
   20.67000008   94.35279846    4.90999985    2.61999989
   20.67333221   85.54419708    4.90999985    2.61999989
   20.67638779   90.17120361    4.90999985    2.61999989
   20.67916679   93.72309875    4.90999985    2.61999989
   20.68027687   90.49569702    4.90999985    2.61999989
   20.68361092   89.85189819    4.90999985    2.61999989
   20.68944359   89.85189819    4.90999985    2.61999989
   20.69361115   97.57219696    4.90999985    2.59999990
   20.69666672   96.53980255    4.90999985    2.61999989
   20.70000076  103.44599915    4.90999985    2.59999990
   20.70333481   91.00640106    4.90999985    2.61999989
   20.70639038   90.00440216    4.90999985    2.59999990
   20.70972252   95.86229706    4.90999985    2.59999990
   20.71250153  226.38200378    4.90999985    2.59999990
   20.71333504  102.66899872    4.90999985    2.59999990
   20.71666718   93.59529877    4.90999985    2.59999990
   20.71972275   93.69100189    4.90999985    2.59999990
   20.72305679   87.85299683    4.90999985    2.61999989
   20.72611237   91.98220062    4.90999985    2.59999990
   20.73222351   91.98220062    4.90999985    2.59999990
   20.73638916   94.77719879    4.90999985    2.59999990
   20.73972321   87.09870148    4.90999985    2.61999989
   20.74277878   87.38020325    4.90999985    2.59999990
   20.74583435   86.47489929    4.90999985    2.59999990
   20.74638939   93.35260010    4.90999985    2.59999990
   20.74972153   87.72070313    4.90999985    2.59999990
   20.75277710   90.24459839    4.90999985    2.59999990
   20.75611115   85.36979675    4.90999985    2.59999990
   20.75944519   83.75730133    4.90999985    2.59999990
   20.76250076   83.51309967    4.90999985    2.59999990
   20.76583290   83.66359711    4.90999985    2.59999990
   20.76916695   92.29010010    4.90999985    2.57999992
   20.77499962   92.29010010    4.90999985    2.57999992
   20.77916718   85.86769867    4.90999985    2.57999992
   20.77972221   91.34580231    4.90999985    2.57999992
   20.78305435   91.85140228    4.90999985    2.57999992
   20.78610992   90.30130005    4.90999985    2.59999990
   20.78944397   82.67070007    4.90999985    2.57999992
   20.79249954   85.18599701    4.90999985    2.57999992
   20.79583359   89.67359924    4.90999985    2.57999992
   20.79916573   91.93859863    4.90999985    2.57999992
   20.80222130   90.38150024    4.90999985    2.57999992
   20.80555534   85.72139740    4.90999985    2.57999992
   20.80888748   88.23339844    4.90999985    2.57999992
   20.81194305   91.62940216    4.90999985    2.57999992
   20.81250000   88.36889648    4.90999985    2.57999992
   20.81805611   88.36889648    4.90999985    2.57999992
   20.82194519   89.67630005    4.90999985    2.57999992
   20.82527924   88.63829803    4.90999985    2.57999992
   20.82861137   86.08329773    4.90999985    2.57999992
   20.83166695   88.66580200    4.90999985    2.57999992
   20.83500099   90.20269775    4.90999985    2.57999992
   20.83833313   85.29579926    4.90999985    2.55999994
   20.84138870   86.31919861    4.90999985    1.55999994
   20.84472275   98.40209961    4.90999985    2.57999992
   20.84583473   89.66829681    4.90999985    2.57999992
   20.84833336   86.26229858    4.90999985    2.57999992
   20.85166740   86.78919983    4.90999985    2.55999994
   20.85472298   89.63710022    4.90999985    2.57999992
   20.86083412   89.63710022    4.90999985    2.55999994
   20.86499977   87.74099731    4.90999985    2.55999994
   20.86805534   97.81629944    4.90999985    2.55999994
   20.87138939   83.93080139    4.90999985    2.53999996
   20.87472153   84.25489807    4.90999985    2.55999994
   20.87777710   88.01460266    4.90999985    2.55999994
   20.87916756   84.66609955    4.90999985    2.55999994
   20.88138962   81.84010315    4.90999985    2.55999994
   20.88472176   83.24770355    4.90999985    2.55999994
   20.88777733   88.12760162    4.90999985    2.55999994
   20.89111137   86.31950378    4.90999985    2.55999994
   20.89444351   87.15260315    4.90999985    2.53999996
   20.89749908   86.53469849    4.90999985    2.55999994
   20.90361023   86.53469849    4.90999985    2.55999994
   20.90777779   88.23819733    4.90999985    2.55999994
   20.91110992   88.07369995    4.90999985    2.53999996
   20.91250038   91.89700317    4.90999985    2.53999996
   20.91472244   88.17150116    4.90999985    2.53999996
   20.91805458   87.19090271    4.90999985    2.53999996
   20.92111015   84.32070160    4.90999985    2.55999994
   20.92444420   90.18440247    4.90999985    2.53999996
   20.92777634   89.63800049    4.90999985    2.53999996
   20.93083191   92.86900330    4.90999985    2.53999996
   20.93416595   92.10690308    4.90999985    2.53999996
   20.93722153   90.62729645    4.90999985    2.55999994
   20.94055557   84.93669891    4.90999985    2.55999994
   20.94638824   84.93669891    4.90999985    2.53999996
   20.95055580   86.06800079    4.90999985    2.53999996
   20.95388985   90.59860229    4.90999985    2.53999996
   20.95694542   85.16380310    4.90999985    2.53999996
   20.96027946   91.07420349    4.90999985    2.53999996
   20.96361160   84.78260040    4.90999985    2.53999996
   20.96666718   83.42289734    4.90999985    2.51999998
   20.97000122   78.96009827    4.90999985    2.53999996
   20.97333336   82.02020264    4.90999985    2.53999996
   20.97638893   84.24330139    4.90999985    2.53999996
   20.97916794   81.15889740    4.90999985    2.53999996
   20.98000145   83.49420166    4.90999985    2.51999998
   20.98333359   88.82890320    4.90999985    2.53999996
   20.98916626   88.82890320    4.90999985    2.53999996
   20.99333382   86.36160278    4.90999985    2.53999996
   20.99666786   85.04689789    4.90999985    2.51999998
   21.00000000   83.57180023    4.90999985    2.51999998
   21.00305557   87.47760010    4.90999985    2.51999998
   21.00638962   90.63110352    4.90999985    2.51999998
   21.00972176   87.43930054    4.90999985    2.53999996
   21.01250076   88.26460266    4.90999985    2.51999998
   21.01333427   85.31510162    4.90999985    2.51999998
   21.01666641   88.67209625    4.90999985    2.51999998
   21.01972198   82.97409821    4.90999985    2.51999998
   21.02305603   96.67199707    4.90999985    2.51999998
   21.02611160   85.55370331    4.90999985    2.51999998
   21.03222275   85.55370331    4.90999985    2.50000000
   21.03638840   88.61239624    4.90999985    2.50000000
   21.03944397   85.18959808    4.90999985    2.50000000
   21.04277802   85.75499725    4.90999985    2.51999998
   21.04583359   84.30370331    4.90999985    2.50000000
   21.04638863   84.27269745    4.90999985    2.50000000
   21.04972076   84.01409912    4.90999985    2.51999998
   21.05277634   88.02179718    4.90999985    2.51999998
   21.05611038   87.75000000    4.90999985    2.50000000
   21.05916595   84.59349823    4.90999985    2.50000000
   21.06250000   89.97380066    4.90999985    2.50000000
   21.06583214   93.40799713    4.90999985    2.50000000
   21.06888962   90.74299622    4.90999985    2.50000000
   21.07500076   90.74299622    4.90999985    2.50000000
   21.07916832   99.66139984    4.90999985    2.50000000
   21.07972336   86.26740265    4.90999985    2.48000002
   21.08305550   95.84359741    4.90999985    2.50000000
   21.08611107   95.03659821    4.90999985    2.50000000
   21.08944511   94.09719849    4.90999985    2.48000002
   21.09250069   85.79769897    4.90999985    2.48000002
   21.09583473   88.25379944    4.90999985    2.48000002
   21.09916687   87.61209869    4.90999985    2.48000002
   21.10222244   91.46289825    4.90999985    2.48000002
   21.10555649   96.52790070    4.90999985    2.48000002
   21.10888863   95.11090088    4.90999985    2.48000002
   21.11194420   92.08670044    4.90999985    2.48000002
   21.11305618   96.91660309    4.90999985    2.48000002
   21.11777878   96.91660309    4.90999985    2.48000002
   21.12194443   95.12319946    4.90999985    2.48000002
   21.12527847   91.08730316    4.90999985    2.46000004
   21.12833405   94.69969940    4.90999985    2.46000004
   21.13166618   93.27880096    4.90999985    2.48000002
   21.13500023   92.32759857    4.90999985    2.46000004
   21.13805580   94.95120239    4.90999985    2.46000004
   21.14138794   96.77929688    4.90999985    2.46000004
   21.14444351   86.86969757    4.90999985    2.46000004
   21.14638901   92.71040344    4.90999985    2.46000004
   21.14833260   94.44329834    4.90999985    2.46000004
   21.15138817   92.21499634    4.90999985    2.46000004
   21.15472221   90.79460144    4.90999985    2.46000004
   21.16055489   90.79460144    4.90999985    2.46000004
   21.16472244   93.72769928    4.90999985    2.46000004
   21.16805458   90.16079712    4.90999985    2.46000004
   21.17138863   85.25469971    4.90999985    2.46000004
   21.17444420   88.48259735    4.90999985    2.46000004
   21.17777634   88.40609741    4.90999985    2.46000004
   21.17972183   92.92520142    4.90999985    2.46000004
   21.18138885   92.77639771    4.90999985    2.46000004
   21.18444443   96.57510376    4.90999985    2.46000004
   21.18777657   87.15149689    4.90999985    2.44000006
   21.19083214   88.62030029    4.90999985    2.44000006
   21.19416618   95.58789825    4.90999985    2.44000006
   21.19749832   96.04090118    4.90999985    2.46000004
   21.20361137   96.04090118    4.90999985    2.44000006
   21.20750046   97.05509949    4.90999985    2.44000006
   21.21083450   86.78710175    4.90999985    2.44000006
   21.21305656   91.81780243    4.90999985    2.44000006
   21.21472359   91.86460114    4.90999985    2.44000006
   21.21777916   89.13150024    4.90999985    2.44000006
   21.22111130   93.01629639    4.90999985    2.44000006
   21.22416687   96.24220276    4.90999985    2.44000006
   21.22750092  100.20800018    4.90999985    2.44000006
   21.23083305  104.20700073    4.90999985    2.44000006
   21.23388863   93.32230377    4.90999985    2.42000008
   21.23722267   93.86509705    4.90999985    2.42000008
   21.24055672   97.40579987    4.90999985    2.42000008
   21.24638939   97.40579987    4.90999985    2.42000008
   21.25055504  107.46299744    4.90999985    2.42000008
   21.25361061   99.71949768    4.90999985    2.42000008
   21.25694466   91.92690277    4.90999985    2.44000006
   21.26027870   97.38790131    4.90999985    2.42000008
   21.26333427  101.31800079    4.90999985    2.44000006
   21.26666641   98.08650208    4.90999985    2.44000006
   21.26972198   96.07830048    4.90999985    2.42000008
   21.27305603   97.44730377    4.90999985    2.42000008
   21.27638817   96.61530304    4.90999985    2.42000008
   21.27944374  101.11399841    4.90999985    2.42000008
   21.28138924  103.98300171    4.90999985    2.44000006
   21.28333282   99.26219940    4.90999985    2.42000008
   21.28916550   99.26219940    4.90999985    2.42000008
   21.29333305   89.76509857    4.90999985    2.42000008
   21.29666710  101.49500275    4.90999985    2.42000008
   21.29972076   91.39600372    4.90999985    2.42000008
   21.30305481   96.79949951    4.90999985    2.42000008
   21.30611038   90.80619812    4.90999985    2.42000008
   21.30944443   95.40889740    4.90999985    2.42000008
   21.31277657  114.44000244    4.90999985    2.40000010
   21.31472206   96.10130310    4.90999985    2.42000008
   21.31638718  106.33000183    4.90999985    2.42000008
   21.31944466   97.48770142    4.90999985    2.40000010
   21.32277870  103.92099762    4.90999985    2.40000010
   21.32611275   94.22820282    4.90999985    2.40000010
   21.33194542   94.22820282    4.90999985    2.40000010
   21.33611107   87.71160126    4.90999985    2.40000010
   21.33944511   94.10410309    4.90999985    2.40000010
   21.34250069   96.59429932    4.90999985    2.40000010
   21.34583473   95.89399719    4.90999985    2.40000010
   21.34833336   95.10179901    4.90999985    2.40000010
   21.34944534   95.03620148    4.90999985    2.40000010
   21.35277748   91.92240143    4.90999985    2.40000010
   21.35611153   87.21219635    4.90999985    2.40000010
   21.35916710   91.35729980    4.90999985    2.40000010
   21.36250114   94.43419647    4.90999985    2.40000010
   21.36583328  100.58300018    4.90999985    2.40000010
   21.36888885   95.76059723    0.23000000    0.05000000
   21.37500000   95.76059723    0.23000000    0.05000000
   21.37888908   97.40940094    0.23000000    0.05000000
   21.38166618   97.05100250    0.23000000    0.05000000
   21.38249969   96.04769897    0.23000000    0.05000000
   21.38583374   96.91269684    0.23000000    0.05000000
   21.38916588  100.70600128    0.23000000    0.05000000
   21.39222145  100.16300201    0.23000000    0.05000000
   21.39555550   98.00920105    0.23000000    0.05000000
   21.39888954   91.05819702    0.23000000    0.05000000
   21.40194321  103.66799927    0.23000000    0.05000000
   21.40527725   97.48210144    0.23000000    0.05000000
   21.40833282   90.14170074    0.23000000    0.05000000
   21.41166687   92.74610138    0.23000000    0.05000000
   21.41777802   92.74610138    0.23000000    0.05000000
   21.42194366  103.72000122    0.23000000    0.05000000
   21.42499924  114.99199677    0.23000000    0.05000000
   21.42833328  115.52999878    0.23000000    0.05000000
   21.43166542  176.17100525    0.23000000    0.05000000
   21.43472099  245.98199463    0.23000000    0.05000000
   21.43805504  398.27801514    0.23000000    0.05000000
   21.43999863  415.03900146    0.23000000    0.05000000
   21.44138718  471.78201294    0.23000000    0.05000000
   21.44277763  328.28601074    0.23000000    0.05000000
   21.44416618  156.72999573    0.23000000    0.05000000
   21.44416618  398.27801514    0.23000000    0.05000000
   21.44444275   97.48210144    0.23000000    0.05000000
   21.44444275   90.14170074    0.23000000    0.05000000
   21.44444275   92.74610138    0.23000000    0.05000000
   21.44472122  103.72000122    0.23000000    0.05000000
   21.44472122  114.99199677    0.23000000    0.05000000
   21.44499969  115.52999878    0.23000000    0.05000000
   21.44499969  176.17100525    0.23000000    0.05000000
   21.44499969  245.98199463    0.23000000    0.05000000
   21.44555473  129.57200623    0.23000000    0.05000000
   21.44888878   77.88189697    0.23000000    0.05000000
   21.45194435   -1.00000000    0.23000000    0.05000000
   21.45527840   -1.00000000    0.23000000    0.05000000
   21.45861244   -1.00000000    0.23000000    0.05000000
   21.46916771   -1.00000000    0.23000000    0.05000000
   21.47222328   -1.00000000    0.23000000    0.05000000
   21.47555542   -1.00000000    0.23000000    0.05000000
   21.47888947   -1.00000000    0.23000000    0.05000000
   21.48222351   -1.00000000    0.23000000    0.05000000
   21.48555565   -1.00000000    0.23000000    0.05000000
   21.48861122   -1.00000000    0.23000000    0.05000000
   21.49194527   -1.00000000    0.23000000    0.05000000
   21.49500084   -1.00000000    0.23000000    0.05000000
   21.49833298   -1.00000000    0.23000000    0.05000000
   21.50166702   -1.00000000    0.23000000    0.05000000
   21.51194382   -1.00000000    0.23000000    0.05000000
   21.51499939   -1.00000000    0.23000000    0.05000000
   21.51833344   -1.00000000    0.23000000    0.05000000
   21.52166557   -1.00000000    0.23000000    0.05000000
   21.52472115   -1.00000000    0.23000000    0.05000000
   21.52805519   -1.00000000    0.23000000    0.05000000
   21.53138924   -1.00000000    0.23000000    0.05000000
   21.53444481   -1.00000000    0.23000000    0.05000000
   21.53777695   -1.00000000    0.23000000    0.05000000
   21.54083252   -1.00000000    0.23000000    0.05000000
   21.54416656   -1.00000000    0.23000000    0.05000000
