    HOUR (UT)   FLARE FACTOR    SKY TESTER    SUN TESTER
   11.19555569   -1.00000000   -1.00000000   -1.00000000
   11.23194408  107.73400116    4.90999985    2.46000004
   11.23527813  119.20700073    4.90999985    2.46000004
   11.23861122  119.70700073    4.90999985    2.44000006
   11.24166679  108.73799896    4.90999985    2.44000006
   11.24499989  105.89299774    4.90999985    2.46000004
   11.24805546  104.32299805    4.90999985    2.44000006
   11.25222206  104.32299805    4.90999985    2.46000004
   11.25638866  106.68800354    4.90999985    2.46000004
   11.25972176  115.23699951    4.90999985    2.46000004
   11.26277733  108.97200012    4.90999985    2.46000004
   11.26527786  106.61199951    4.90999985    2.46000004
   11.26666641  114.90599823    4.90999985    2.46000004
   11.26999950  106.90599823    4.90999985    2.46000004
   11.27305508  110.62200165    4.90999985    2.46000004
   11.27638817  112.29900360    4.90999985    2.46000004
   11.27944374  116.69300079    4.90999985    2.46000004
   11.28277779  113.38500214    4.90999985    2.48000002
   11.28611183  113.43599701    4.90999985    2.46000004
   11.28916740  106.03500366    4.90999985    2.46000004
   11.29527855  106.03500366    4.90999985    2.46000004
   11.29944515  113.03299713    4.90999985    2.46000004
   11.30249977  111.72100067    4.90999985    2.46000004
   11.30583382  108.00399780    4.90999985    2.46000004
   11.30888939  104.75299835    4.90999985    2.46000004
   11.31222248  109.85500336    4.90999985    2.46000004
   11.31555557  114.95099640    4.90999985    2.46000004
   11.31861115  113.29299927    4.90999985    2.46000004
   11.32194424  114.87599945    4.90999985    2.48000002
   11.32527733  105.30000305    4.90999985    2.46000004
   11.32833290  111.64199829    4.90999985    2.46000004
   11.33166695  114.57700348    4.90999985    2.46000004
   11.33222198  109.50800323    4.90999985    2.46000004
   11.33805561  109.50800323    4.90999985    2.46000004
   11.34222221  119.50700378    4.90999985    2.46000004
   11.34527779  110.41899872    4.90999985    2.46000004
   11.34861088  110.27600098    4.90999985    2.48000002
   11.35194492  112.02799988    4.90999985    2.46000004
   11.35500050  104.56500244    4.90999985    2.48000002
   11.35833359  109.64099884    4.90999985    2.48000002
   11.36138916  103.33999634    4.90999985    2.48000002
   11.36472225  108.09400177    4.90999985    2.48000002
   11.36555576  110.21800232    4.90999985    2.48000002
   11.36861134  112.81600189    4.90999985    2.48000002
   11.37166691  109.37999725    4.90999985    2.48000002
   11.37500000  105.69200134    4.90999985    2.48000002
   11.38083363  105.69200134    4.90999985    2.48000002
   11.38500023  104.93000031    4.90999985    2.48000002
   11.38833332  107.52600098    4.90999985    2.48000002
   11.39138889  106.65699768    4.90999985    2.48000002
   11.39472198  110.69699860    4.90999985    2.48000002
   11.39805508   99.97290039    4.90999985    2.48000002
   11.39888859  104.88999939    4.90999985    2.50000000
   11.40166664  106.89600372    4.90999985    2.48000002
   11.40472221  105.87699890    4.90999985    2.48000002
   11.40805531  103.16799927    4.90999985    2.48000002
   11.41138840  111.40000153    4.90999985    2.50000000
   11.41444397  104.78800201    4.90999985    2.48000002
   11.41777802  103.60500336    4.90999985    2.50000000
   11.42361164  103.60500336    4.90999985    2.50000000
   11.42777824  100.19200134    4.90999985    2.50000000
   11.43111134  103.16899872    4.90999985    2.50000000
   11.43222237  102.26899719    4.90999985    2.50000000
   11.43472195  104.38600159    4.90999985    2.50000000
   11.43777752   95.29060364    4.90999985    2.50000000
   11.44111156  104.42099762    4.90999985    2.50000000
   11.44444466  100.33100128    4.90999985    2.50000000
   11.44750023  100.15299988    4.90999985    2.50000000
   11.45083332  103.27600098    4.90999985    2.50000000
   11.45444393   93.65630341    4.90999985    2.50000000
   11.45749950  102.14299774    4.90999985    2.51999998
   11.46083355  100.14099884    4.90999985    2.51999998
   11.46666622  100.14099884    4.90999985    2.50000000
   11.47083282   99.91349792    4.90999985    2.50000000
   11.47388840  104.63600159    4.90999985    2.51999998
   11.47722149   98.88710022    4.90999985    2.50000000
   11.48027706   99.95420074    4.90999985    2.50000000
   11.48361111  105.13999939    4.90999985    2.50000000
   11.48694515  105.93399811    4.90999985    2.51999998
   11.49027824  100.41100311    4.90999985    2.51999998
   11.49333382  103.99199677    4.90999985    2.51999998
   11.49666691  101.36299896    4.90999985    2.51999998
   11.49888897   98.58920288    4.90999985    2.51999998
   11.50027752  110.42400360    4.90999985    2.51999998
   11.50333309   93.33049774    4.90999985    2.51999998
   11.50944424   93.33049774    4.90999985    2.51999998
   11.51361084   97.25450134    4.90999985    2.51999998
   11.51666641  101.04299927    4.90999985    2.51999998
   11.51999950   97.10919952    4.90999985    2.51999998
   11.52333355   96.95310211    4.90999985    2.51999998
   11.52638817  103.39199829    4.90999985    2.51999998
   11.52972221   99.32350159    4.90999985    2.51999998
   11.53222179   96.94309998    4.90999985    2.51999998
   11.53333378   96.51840210    4.90999985    2.51999998
   11.53638935   97.72360229    4.90999985    2.51999998
   11.53972244   94.39450073    4.90999985    2.51999998
   11.54277802   93.84290314    4.90999985    2.51999998
   11.54611111   94.25109863    4.90999985    2.51999998
   11.55222225   94.25109863    4.90999985    2.51999998
   11.55638885   95.39830017    4.90999985    2.51999998
   11.55972195   95.79689789    4.90999985    2.51999998
   11.56277752   91.84279633    4.90999985    2.51999998
   11.56555557   92.66510010    4.90999985    2.53999996
   11.56666660   91.61660004    4.90999985    2.53999996
   11.56972218   96.16359711    4.90999985    2.53999996
   11.57305527   97.39040375    4.90999985    2.51999998
   11.57611084   94.77570343    4.90999985    2.53999996
   11.57944393   97.27870178    4.90999985    2.53999996
   11.58277798  100.87899780    4.90999985    2.53999996
   11.58583260   91.95659637    4.90999985    2.53999996
   11.58916664   89.76879883    4.90999985    2.53999996
   11.59499931   89.76879883    4.90999985    2.53999996
   11.59916592   90.62760162    4.90999985    2.53999996
   11.60249996   93.60900116    4.90999985    2.53999996
   11.60555553   93.85610199    4.90999985    2.53999996
   11.60888958   93.56240082    4.90999985    2.53999996
   11.61222267   94.20500183    4.90999985    2.53999996
   11.61527824   97.93450165    4.90999985    2.53999996
   11.61861134   93.84590149    4.90999985    2.53999996
   11.62194443   95.32289886    4.90999985    2.53999996
   11.62500000   92.13430023    4.90999985    2.53999996
   11.62833309   92.86450195    4.90999985    2.53999996
   11.63138866   94.38120270    4.90999985    2.53999996
   11.63222218   92.43019867    4.90999985    2.53999996
   11.63805580   92.43019867    4.90999985    2.55999994
   11.64194393   99.30049896    4.90999985    2.55999994
   11.64527798   87.70999908    4.90999985    2.53999996
   11.64861107   96.00299835    4.90999985    2.53999996
   11.65166664   90.31880188    4.90999985    2.53999996
   11.65499973   96.00279999    4.90999985    2.53999996
   11.65833282   95.06610107    4.90999985    2.55999994
   11.66138840   94.94249725    4.90999985    2.53999996
   11.66499996   92.75360107    4.90999985    2.53999996
   11.66555500   84.34410095    4.90999985    2.53999996
   11.66861153   91.20320129    4.90999985    2.55999994
   11.67166710   93.72480011    4.90999985    2.53999996
   11.67500019   92.48899841    4.90999985    2.55999994
   11.68083382   92.48899841    4.90999985    2.53999996
   11.68500042   94.31159973    4.90999985    2.53999996
   11.68805599   94.30680084    4.90999985    2.53999996
   11.69138908   91.55359650    4.90999985    2.55999994
   11.69472218   97.91320038    4.90999985    2.53999996
   11.69777775   89.13520050    4.90999985    2.53999996
   11.69888878   94.99960327    4.90999985    2.53999996
   11.70166683   89.16280365    4.90999985    2.53999996
   11.70472240   91.38999939    4.90999985    2.53999996
   11.70805550   93.81490326    4.90999985    2.55999994
   11.71138859   84.92449951    4.90999985    2.55999994
   11.71444416   93.95709991    4.90999985    2.55999994
   11.71777725   90.79380035    4.90999985    2.55999994
   11.72361088   90.79380035    4.90999985    2.55999994
   11.72777748  100.20899963    4.90999985    2.55999994
   11.73111057   93.04070282    4.90999985    2.55999994
   11.73222160   93.68379974    4.90999985    2.55999994
   11.73472214   87.09179688    4.90999985    2.55999994
   11.73777771   94.31710052    4.90999985    2.55999994
   11.74111176   91.35009766    4.90999985    2.55999994
   11.74444485   90.34059906    4.90999985    2.55999994
   11.74750042   91.22579956    4.90999985    2.55999994
   11.75083351   92.94779968    4.90999985    2.55999994
   11.75388908   89.03589630    4.90999985    2.55999994
   11.75722218   94.63919830    4.90999985    2.55999994
   11.76055527   90.02400208    4.90999985    2.55999994
   11.76638889   90.02400208    4.90999985    2.55999994
   11.77055550   93.96649933    4.90999985    2.55999994
   11.77388859   90.80079651    4.90999985    2.55999994
   11.77694416   96.55879974    4.90999985    2.57999992
   11.78027725   94.75820160    4.90999985    2.55999994
   11.78361130   94.61910248    4.90999985    2.55999994
   11.78666687   95.97290039    4.90999985    2.55999994
   11.79000092   91.58889771    4.90999985    2.57999992
   11.79333401   92.49649811    4.90999985    2.57999992
   11.79638958   98.53019714    4.90999985    2.55999994
   11.79888916   89.79889679    4.90999985    2.55999994
   11.80027771   90.87779999    4.90999985    2.57999992
   11.80333328   89.94270325    4.90999985    2.57999992
   11.80944443   89.94270325    4.90999985    2.57999992
   11.81333351   96.19930267    4.90999985    2.57999992
   11.81666660   93.48619843    4.90999985    2.59999990
   11.81999969   91.57499695    4.90999985    2.57999992
   11.82305527   91.81610107    4.90999985    2.57999992
   11.82638836   92.43820190    4.90999985    2.57999992
   11.82972240   90.37359619    4.90999985    2.57999992
   11.83222198   94.44170380    4.90999985    2.57999992
   11.83333302   95.05519867    4.90999985    2.57999992
   11.83638859   88.26309967    4.90999985    2.57999992
   11.83972168   88.03040314    4.90999985    2.57999992
   11.84305477   86.85099792    4.90999985    2.57999992
   11.84611034   97.04679871    4.90999985    2.57999992
   11.85222244   97.04679871    4.90999985    2.57999992
   11.85638905   92.08979797    4.90999985    2.59999990
   11.85944462   95.53089905    4.90999985    2.57999992
   11.86277771   98.74279785    4.90999985    2.57999992
   11.86555576   96.16729736    4.90999985    2.57999992
   11.86638927   93.04290009    4.90999985    2.57999992
   11.86944485   89.54810333    4.90999985    2.57999992
   11.87277794   94.50140381    4.90999985    2.57999992
   11.87611103   89.68309784    4.90999985    2.57999992
   11.87916660   92.20880127    4.90999985    2.57999992
   11.88249969   90.76540375    4.90999985    2.59999990
   11.88555527   93.98239899    4.90999985    2.57999992
   11.88888836   92.59559631    4.90999985    2.57999992
   11.89499950   92.59559631    4.90999985    2.59999990
   11.89916611   89.51740265    4.90999985    2.57999992
   11.90249920   90.71410370    4.90999985    2.57999992
   11.90555477   91.04579926    4.90999985    2.57999992
   11.90888882   88.62529755    4.90999985    2.57999992
   11.91194439   87.34179688    4.90999985    2.57999992
   11.91527748   89.96430206    4.90999985    2.59999990
   11.91861153   92.08959961    4.90999985    2.59999990
   11.92166710   95.39759827    4.90999985    2.59999990
   11.92500019   88.69049835    4.90999985    2.59999990
   11.92833328   93.05549622    4.90999985    2.59999990
   11.93138885   93.86440277    4.90999985    2.59999990
   11.93222237   91.60260010    4.90999985    2.59999990
   11.93777752   91.60260010    4.90999985    2.59999990
   11.94194412   92.06159973    4.90999985    2.59999990
   11.94527817   94.88369751    4.90999985    2.59999990
   11.94833374   89.00749969    4.90999985    2.59999990
   11.95166683   92.04280090    4.90999985    2.59999990
   11.95499992   89.99800110    4.90999985    2.59999990
   11.95805550   86.39129639    4.90999985    2.59999990
   11.96138859   95.72389984    4.90999985    2.59999990
   11.96444416   88.62370300    4.90999985    2.61999989
   11.96555519   95.61730194    4.90999985    2.59999990
   11.96833324   90.93599701    4.90999985    2.59999990
   11.97138882   88.89080048    4.90999985    2.59999990
   11.97472191   86.05319977    4.90999985    2.59999990
   11.98083305   86.05319977    4.90999985    2.59999990
   11.98472214   83.40170288    4.90999985    2.59999990
   11.98805618   91.87500000    4.90999985    2.59999990
   11.99138927   85.03880310    4.90999985    2.61999989
   11.99444485   89.70189667    4.90999985    2.61999989
   11.99777794   93.91239929    4.90999985    2.59999990
   11.99888897   92.24739838    4.90999985    2.59999990
   12.00138855   91.42350006    4.90999985    2.59999990
   12.00472260   96.28450012    4.90999985    2.59999990
   12.00777817   92.28130341    4.90999985    2.59999990
   12.01111126   90.47239685    4.90999985    2.59999990
   12.01416683   89.52510071    4.90999985    2.59999990
   12.01749992   91.08039856    4.90999985    2.59999990
   12.02361107   91.08039856    4.90999985    2.59999990
   12.02777767   90.31009674    4.90999985    2.59999990
   12.03083324   91.04630280    4.90999985    2.59999990
   12.03305531   89.66600037    4.90999985    2.59999990
   12.03555584  101.51399994    4.90999985    2.61999989
   12.03861141   88.90010071    4.90999985    2.61999989
   12.04194450   95.13829803    4.90999985    2.61999989
   12.04527855   93.22100067    4.90999985    2.59999990
   12.04833412   93.56990051    4.90999985    2.61999989
   12.05166721   93.96630096    4.90999985    2.59999990
   12.05472279   97.02880096    4.90999985    2.59999990
   12.05805588   90.95860291    4.90999985    2.61999989
   12.06138897   98.41629791    4.90999985    2.61999989
   12.06638908   98.41629791    4.90999985    2.61999989
   12.07055569   98.02510071    4.90999985    2.59999990
   12.07388878   94.00430298    4.90999985    2.61999989
   12.07694435   95.04389954    4.90999985    2.61999989
   12.08027744   95.17600250    4.90999985    2.61999989
   12.08361053   89.46710205    4.90999985    2.61999989
   12.08666611   95.59429932    4.90999985    2.61999989
   12.09000015   93.01979828    4.90999985    2.61999989
   12.09305477   95.66979980    4.90999985    2.61999989
   12.09638882   95.79530334    4.90999985    2.61999989
   12.09888840   90.84200287    4.90999985    2.61999989
   12.10000038   91.70760345    4.90999985    2.61999989
   12.10305595   93.03829956    4.90999985    2.61999989
   12.10916710   93.03829956    4.90999985    2.61999989
   12.11333370   91.10009766    4.90999985    2.61999989
   12.11666679   90.97370148    4.90999985    2.61999989
   12.11999989   88.82340240    4.90999985    2.61999989
   12.12305546   86.81520081    4.90999985    2.59999990
   12.12638855   85.96160126    4.90999985    2.61999989
   12.12972260   89.00129700    4.90999985    2.61999989
   12.13249969   92.80840302    4.90999985    2.61999989
   12.13333321   91.65380096    4.90999985    2.61999989
   12.13666630   94.04969788    4.90999985    2.64000010
   12.14000034   92.13800049    4.90999985    2.61999989
   12.14305496   91.38639832    4.90999985    2.61999989
   12.14638901   94.02420044    4.90999985    2.61999989
   12.15222168   94.02420044    4.90999985    2.61999989
   12.15611076   93.50740051    4.90999985    2.61999989
   12.15944386   93.89530182    4.90999985    2.61999989
   12.16277695   95.73290253    4.90999985    2.61999989
   12.16555500   94.19339752    4.90999985    2.64000010
   12.16638851   95.31379700    4.90999985    2.64000010
   12.16972256   89.95809937    4.90999985    2.61999989
   12.17277813   93.58110046    4.90999985    2.64000010
   12.17611122   90.38839722    4.90999985    2.64000010
   12.17944431   99.83260345    4.90999985    2.64000010
   12.18249989   98.26889801    4.90999985    2.61999989
   12.18583298  101.35800171    4.90999985    2.61999989
   12.18888855  100.63400269    4.90999985    2.61999989
   12.19499969  100.63400269    4.90999985    2.61999989
   12.19916630   99.37509918    4.90999985    2.61999989
   12.20222187   91.88970184    4.90999985    2.64000010
   12.20555496   94.85880280    4.90999985    2.64000010
   12.20888901   97.74559784    4.90999985    2.64000010
   12.21194458   95.53469849    4.90999985    2.64000010
   12.21527767   95.97209930    4.90999985    2.64000010
   12.21833324   97.18840027    4.90999985    2.61999989
   12.22166634   95.81909943    4.90999985    2.64000010
   12.22499943   92.87500000    4.90999985    2.64000010
   12.22805500   97.54370117    4.90999985    2.61999989
   12.23138809   91.57199860    4.90999985    2.64000010
   12.23249912   96.98860168    4.90999985    2.61999989
   12.25305557   96.98860168    4.90999985    2.64000010
   12.25722218   97.27770233    4.90999985    2.66000009
   12.26027775   87.79460144    4.90999985    2.64000010
   12.26361084   96.92189789    4.90999985    2.64000010
   12.26555538  105.37599945    4.90999985    2.64000010
   12.26722240  100.60199738    4.90999985    2.64000010
   12.27055550   91.98149872    4.90999985    2.64000010
   12.27388859  102.28500366    4.90999985    2.64000010
   12.27694416   87.75650024    4.90999985    2.64000010
   12.28027725   98.83390045    4.90999985    2.64000010
   12.28333378   97.97689819    4.90999985    2.64000010
   12.28666687   91.99019623    4.90999985    2.64000010
   12.29000092   90.00150299    4.90999985    2.64000010
   12.29583359   90.00150299    4.90999985    2.64000010
   12.30000019   93.19010162    4.90999985    2.64000010
   12.30305576   97.88069916    4.90999985    2.64000010
   12.30638885   94.30979919    4.90999985    2.64000010
   12.30944443  100.51699829    4.90999985    2.64000010
   12.31277752   98.69290161    4.90999985    2.64000010
   12.31611156   99.82559967    4.90999985    2.64000010
   12.31916618   90.88559723    4.90999985    2.64000010
   12.32250023   95.00000000    4.90999985    2.64000010
   12.32583332   95.90609741    4.90999985    2.66000009
   12.32888889  101.46299744    4.90999985    2.66000009
   12.33222198  102.94699860    4.90999985    2.64000010
   12.33277798  101.98500061    4.90999985    2.64000010
   12.33861065  101.98500061    4.90999985    2.64000010
   12.34277725  101.30699921    4.90999985    2.66000009
   12.34583282   98.01119995    4.90999985    2.64000010
   12.34916592   97.34380341    4.90999985    2.64000010
   12.35249996   96.99909973    4.90999985    2.64000010
   12.35555553   97.79779816    4.90999985    2.64000010
   12.35888958   97.59709930    4.90999985    2.64000010
   12.36222267  101.33200073    4.90999985    2.64000010
   12.36527824   94.14230347    4.90999985    2.64000010
   12.36611176   98.86969757    4.90999985    2.64000010
   12.36888885   96.00289917    4.90999985    2.66000009
   12.37222195   96.95040131    4.90999985    2.66000009
   12.37555599   97.79460144    4.90999985    2.64000010
   12.38138866   97.79460144    4.90999985    2.66000009
   12.38555527  104.46399689    4.90999985    2.66000009
   12.38888836   94.33070374    4.90999985    2.66000009
   12.39194393  108.40899658    4.90999985    2.66000009
   12.39527798   98.60030365    4.90999985    2.66000009
   12.39861107  102.68499756    4.90999985    2.66000009
   12.39944458  100.40699768    4.90999985    2.66000009
   12.40194416  105.38800049    4.90999985    2.66000009
   12.40527725   97.79779816    4.90999985    2.66000009
   12.40861034  103.18900299    4.90999985    2.66000009
   12.41166592   93.78959656    4.90999985    2.66000009
   12.41499996  104.21700287    4.90999985    2.66000009
   12.41833401   95.87750244    4.90999985    2.64000010
   12.42416668   95.87750244    4.90999985    2.66000009
   12.42833328   93.16020203    4.90999985    2.66000009
   12.43166733   97.22460175    4.90999985    2.66000009
   12.43277836   92.57050323    4.90999985    2.66000009
   12.43500042   92.09940338    4.90999985    2.67000008
   12.43833351   96.76329803    4.90999985    2.66000009
   12.44166660   87.78479767    4.90999985    2.66000009
   12.44472218   88.87799835    4.90999985    2.66000009
   12.44805527   92.87909698    4.90999985    2.66000009
   12.45138836   92.12729645    4.90999985    2.67000008
   12.45444393   95.54679871    4.90999985    2.66000009
   12.45777798   90.24579620    4.90999985    2.67000008
   12.46083355   92.43170166    4.90999985    2.66000009
   12.46722221   92.43170166    4.90999985    2.66000009
   12.47138882  109.40699768    4.90999985    2.66000009
   12.47472191  112.98100281    4.90999985    2.66000009
   12.47888851   96.23899841    4.90999985    2.67000008
   12.48194408   96.47799683    4.90999985    2.67000008
   12.48527813   96.82250214    4.90999985    2.67000008
   12.48861122   86.82720184    4.90999985    2.67000008
   12.49166679   94.36119843    4.90999985    2.67000008
   12.49499989  100.92800140    4.90999985    2.66000009
   12.49916649  100.92800140    4.90999985    2.66000009
   12.50333309   94.69989777    4.90999985    2.66000009
   12.50638866   95.75730133    4.90999985    2.67000008
   12.50972176   98.29989624    4.90999985    2.67000008
   12.51222229   98.22820282    4.90999985    2.66000009
   12.51333332   92.04299927    4.90999985    2.66000009
   12.51666641   93.88999939    4.90999985    2.67000008
   12.51999950   97.81649780    4.90999985    2.67000008
   12.52305508   91.44629669    4.90999985    2.66000009
   12.52638817  102.99400330    4.90999985    2.67000008
   12.52972221   93.12300110    4.90999985    2.67000008
   12.53277779  105.05999756    4.90999985    2.67000008
   12.53611183   98.24549866    4.90999985    2.67000008
   12.54194450   98.24549866    4.90999985    2.66000009
   12.54611111   95.87740326    4.90999985    2.67000008
   12.54944515   95.24410248    4.90999985    2.66000009
   12.55249977   95.10549927    4.90999985    2.66000009
   12.55583382  100.07700348    4.90999985    2.66000009
   12.55888939  103.71800232    4.90999985    2.67000008
   12.56222248   98.20099640    4.90999985    2.67000008
   12.56555557  103.33300018    4.90999985    2.67000008
   12.56861115   97.66519928    4.90999985    2.66000009
   12.57194424   99.73609924    4.90999985    2.67000008
   12.57527733  104.21099854    4.90999985    2.67000008
   12.57833290  103.00800323    4.90999985    2.66000009
   12.57888889  106.59899902    4.90999985    2.67000008
   12.58472157  106.59899902    4.90999985    2.67000008
   12.58888817  102.68000031    4.90999985    2.66000009
   12.59222221   98.08450317    4.90999985    2.66000009
   12.59527779   97.73220062    4.90999985    2.67000008
   12.59861088  102.35900116    4.90999985    2.67000008
   12.60194492  102.17299652    4.90999985    2.67000008
   12.60500050   99.78540039    4.90999985    2.67000008
   12.60833359   99.82209778    4.90999985    2.67000008
   12.61166668  102.10399628    4.90999985    2.67000008
   12.61222267   97.51750183    4.90999985    2.67000008
   12.61527824   96.19219971    4.90999985    2.67000008
   12.61833382  101.50399780    4.90999985    2.67000008
   12.62166691   93.90609741    4.90999985    2.67000008
   12.62777805   93.90609741    4.90999985    2.67000008
   12.63166714   95.38619995    4.90999985    2.67000008
   12.63500023   94.92590332    4.90999985    2.67000008
   12.63833332   97.87750244    4.90999985    2.67000008
   12.64138889  103.12000275    4.90999985    2.67000008
   12.64472198   99.40059662    4.90999985    2.67000008
   12.64555550  101.97799683    4.90999985    2.67000008
   12.64833355   88.97679901    4.90999985    2.66000009
   12.65138817   99.02780151    4.90999985    2.67000008
   12.65472221   98.79479980    4.90999985    2.67000008
   12.65805531  100.81199646    4.90999985    2.67000008
   12.66111088  105.76799774    4.90999985    2.67000008
   12.66444397  100.38700104    4.90999985    2.67000008
   12.67055607  100.38700104    4.90999985    2.69000006
   12.67472267   97.43370056    4.90999985    2.67000008
   12.67777824   98.41010284    4.90999985    2.67000008
   12.67888927   96.48750305    4.90999985    2.67000008
   12.68166733   89.97090149    4.90999985    2.67000008
   12.68472195  100.29699707    4.90999985    2.67000008
   12.68805599  103.14499664    4.90999985    2.67000008
   12.69138908  101.34999847    4.90999985    2.67000008
   12.69444466  105.93800354    4.90999985    2.67000008
   12.69777775   98.72160339    4.90999985    2.67000008
   12.70111084   99.04329681    4.90999985    2.67000008
   12.70416641  100.88500214    4.90999985    2.67000008
   12.70777798  104.47299957    4.90999985    2.69000006
   12.71333313  104.47299957    4.90999985    2.69000006
   12.71749973  100.72000122    4.90999985    2.67000008
   12.72138882  103.70300293    4.90999985    2.67000008
   12.72472191  100.85199738    4.90999985    2.67000008
   12.72777748  104.12899780    4.90999985    2.69000006
   12.73111057  101.42099762    4.90999985    2.67000008
   12.73416710  107.77200317    4.90999985    2.67000008
   12.73750019  106.16699982    4.90999985    2.67000008
   12.74083328  103.43699646    4.90999985    2.69000006
   12.74388885  103.61699677    4.90999985    2.69000006
   12.74555588  100.76499939    4.90999985    2.67000008
   12.74777794  107.25599670    4.90999985    2.67000008
   12.75083351  103.19899750    4.90999985    2.67000008
   12.75611115  103.19899750    4.90999985    2.69000006
   12.76027775   95.97959900    4.90999985    2.69000006
   12.76361084  103.43800354    4.90999985    2.67000008
   12.76666641  103.30799866    4.90999985    2.69000006
   12.76999950  104.23999786    4.90999985    2.69000006
   12.77333355  105.29399872    4.90999985    2.69000006
   12.77638817  106.13800049    4.90999985    2.69000006
   12.77888870  106.66000366    4.90999985    2.69000006
   12.78027725  108.18499756    4.90999985    2.69000006
   12.78333378  102.97599792    4.90999985    2.67000008
   12.78666687  105.55500031    4.90999985    2.69000006
   12.79000092  107.72100067    4.90999985    2.69000006
   12.79305553  107.92400360    4.90999985    2.69000006
   12.79916668  107.92400360    4.90999985    2.69000006
   12.80305576  104.05400085    4.90999985    2.67000008
   12.80638885  103.71700287    4.90999985    2.69000006
   12.80972195  106.50099945    4.90999985    2.69000006
   12.81222248  107.16300201    4.90999985    2.69000006
   12.81333351  100.31199646    4.90999985    2.69000006
   12.81638908  105.15499878    4.90999985    2.69000006
   12.81972218  101.91400146    4.90999985    2.69000006
   12.82305527  109.74500275    4.90999985    2.69000006
   12.82611084  101.01499939    4.90999985    2.69000006
   12.82944393  110.21399689    4.90999985    2.69000006
   12.83277798  109.90499878    4.90999985    2.69000006
   12.83583260  105.74199677    4.90999985    2.69000006
   12.84194374  105.74199677    4.90999985    2.69000006
   12.84611034  103.55500031    4.90999985    2.69000006
   12.84916592  102.62999725    4.90999985    2.69000006
   12.85249996  108.64099884    4.90999985    2.69000006
   12.85583401  103.65699768    4.90999985    2.69000006
   12.85888958  105.79499817    4.90999985    2.69000006
   12.86222267   99.62619781    4.90999985    2.69000006
   12.86527824  104.08100128    4.90999985    2.67000008
   12.86861134  100.80599976    4.90999985    2.69000006
   12.87194443  100.67500305    4.90999985    2.69000006
   12.87500000   95.68250275    4.90999985    2.69000006
   12.87833309  104.08599854    4.90999985    2.69000006
   12.87888908  102.75900269    4.90999985    2.71000004
   12.88472176  102.75900269    4.90999985    2.69000006
   12.88888836  102.33599854    4.90999985    2.69000006
   12.89222240  105.70300293    4.90999985    2.69000006
   12.89527798  106.36000061    4.90999985    2.69000006
   12.89861107  101.98300171    4.90999985    2.67000008
   12.90166664  103.10900116    4.90999985    2.69000006
   12.90499973   99.09719849    4.90999985    2.69000006
   12.90833282  103.44599915    4.90999985    2.69000006
   12.91138840  100.69300079    4.90999985    2.69000006
   12.91222191  104.12699890    4.90999985    2.69000006
   12.91499996  106.37999725    4.90999985    2.69000006
   12.91833401  104.55200195    4.90999985    2.69000006
   12.92138958  105.18199921    4.90999985    2.69000006
   12.92750072  105.18199921    4.90999985    2.69000006
   12.93166733  101.87599945    4.90999985    2.69000006
   12.93500042  100.59400177    4.90999985    2.69000006
   12.93833351  100.95300293    4.90999985    2.69000006
   12.94138908  104.24400330    4.90999985    2.69000006
   12.94472218  106.74299622    4.90999985    2.69000006
   12.94555569  112.47000122    4.90999985    2.69000006
   12.94833374  111.75000000    4.90999985    2.69000006
   12.95166683  105.93599701    4.90999985    2.69000006
   12.95472240  109.71900177    4.90999985    2.71000004
   12.95805550  102.55799866    4.90999985    2.71000004
   12.96111107   93.31250000    4.90999985    2.71000004
   12.96444416  108.87300110    4.90999985    2.69000006
   12.97055531  108.87300110    4.90999985    2.69000006
   12.97444439  105.74900055    4.90999985    2.69000006
   12.97777748  100.23899841    4.90999985    2.69000006
   12.97888851  113.62899780    4.90999985    2.69000006
   12.98138809  100.02500153    4.90999985    2.71000004
   12.98472214  110.51699829    4.90999985    2.69000006
   12.98777771  108.91000366    4.90999985    2.69000006
   12.99111176  101.76799774    4.90999985    2.71000004
   12.99416733  106.19899750    4.90999985    2.69000006
   12.99750042  110.87500000    4.90999985    2.69000006
   13.00083351  106.87400055    4.90999985    2.69000006
   13.00388908  107.54000092    4.90999985    2.69000006
   13.00722218  109.58899689    4.90999985    2.69000006
   13.01333332  109.58899689    4.90999985    2.71000004
   13.01749992  114.40100098    4.90999985    2.71000004
   13.02055550  111.43299866    4.90999985    2.69000006
   13.02388859  106.44899750    4.90999985    2.71000004
   13.02722168  115.70600128    4.90999985    2.71000004
   13.03027725  112.26399994    4.90999985    2.69000006
   13.03361130  111.48400116    4.90999985    2.71000004
   13.03666687  105.89800262    4.90999985    2.69000006
   13.04000092  102.48600006    4.90999985    2.69000006
   13.04333401  111.91600037    4.90999985    2.69000006
   13.04555607  102.51699829    4.90999985    2.69000006
   13.04694462  110.32599640    4.90999985    2.69000006
   13.05027771  115.85500336    4.90999985    2.69000006
   13.05611134  115.85500336    4.90999985    2.69000006
   13.06027794  108.18199921    4.90999985    2.71000004
   13.06361103  108.39299774    4.90999985    2.69000006
   13.06666660  103.70300293    4.90999985    2.69000006
   13.06999969  113.63600159    4.90999985    2.71000004
   13.07333374  109.29599762    4.90999985    2.69000006
   13.07638836  102.13800049    4.90999985    2.69000006
   13.07888889  103.04799652    4.90999985    2.69000006
   13.07999992  115.50900269    4.90999985    2.69000006
   13.08333302  114.36000061    4.90999985    2.69000006
   13.08638859  110.15799713    4.90999985    2.69000006
   13.08972168  113.30699921    4.90999985    2.69000006
   13.09277725  111.85199738    4.90999985    2.69000006
   13.09888840  111.85199738    4.90999985    2.71000004
   13.10305595  116.91699982    4.90999985    2.69000006
   13.10638905  118.79699707    4.90999985    2.71000004
   13.10944462  117.55000305    4.90999985    2.71000004
   13.11222267  113.64199829    4.90999985    2.71000004
   13.11333370  105.16500092    4.90999985    2.71000004
   13.11666679  108.76999664    4.90999985    2.69000006
   13.11972237  106.58699799    4.90999985    2.69000006
   13.12305546  108.76699829    4.90999985    2.69000006
   13.12611103  111.77400208    4.90999985    2.71000004
   13.12944412  106.14499664    4.90999985    2.71000004
   13.13277817  108.16300201    4.90999985    2.71000004
   13.13583279  115.85600281    4.90999985    2.71000004
   13.14194393  115.85600281    4.90999985    2.71000004
   13.14583302  110.86299896    4.90999985    2.71000004
   13.14916611  115.17099762    4.90999985    2.71000004
   13.15249920  102.77999878    4.90999985    2.71000004
   13.15555477  108.87100220    4.90999985    2.71000004
   13.15888882  109.58999634    4.90999985    2.71000004
   13.16222191  116.04199982    4.90999985    2.71000004
   13.16527748  114.67400360    4.90999985    2.71000004
   13.16861153  120.38400269    4.90999985    2.71000004
   13.17166710  117.40699768    4.90999985    2.69000006
   13.17500019  116.49700165    4.90999985    2.71000004
   13.17833328  117.67199707    4.90999985    2.71000004
   13.17888927  111.34300232    4.90999985    2.71000004
   13.18472195  111.34300232    4.90999985    2.71000004
   13.18888855  110.82099915    4.90999985    2.71000004
   13.19194412  113.36900330    4.90999985    2.71000004
   13.19527817  109.04000092    4.90999985    2.71000004
   13.19861126  105.32700348    4.90999985    2.71000004
   13.20166683  105.85099792    4.90999985    2.71000004
   13.20499992  108.74700165    4.90999985    2.73000002
   13.20805550  104.47399902    4.90999985    2.71000004
   13.21138859  111.41999817    4.90999985    2.71000004
   13.21222210  106.19000244    4.90999985    2.71000004
   13.21500015  103.84600067    4.90999985    2.71000004
   13.21833324  107.59400177    4.90999985    2.71000004
   13.22138882  105.62000275    4.90999985    2.71000004
   13.22749996  105.62000275    4.90999985    2.71000004
   13.23166656  106.73300171    4.90999985    2.71000004
   13.23500061  113.74700165    4.90999985    2.71000004
   13.23805618  101.57599640    4.90999985    2.71000004
   13.24138927  110.86900330    4.90999985    2.71000004
   13.24444485  108.88400269    4.90999985    2.71000004
   13.24555588  113.13400269    4.90999985    2.71000004
   13.24805546  110.68299866    4.90999985    2.71000004
   13.25138855  113.11699677    4.90999985    2.71000004
   13.25444412  111.67400360    4.90999985    2.71000004
   13.25777817  114.58799744    4.90999985    2.73000002
   13.26111126  109.88099670    4.90999985    2.71000004
   13.26416683  108.28500366    4.90999985    2.71000004
   13.27027798  108.28500366    4.90999985    2.71000004
   13.27444458  107.10700226    4.90999985    2.71000004
   13.27777767  118.68800354    4.90999985    2.71000004
   13.27888870  108.63899994    4.90999985    2.73000002
   13.28138828  109.01300049    4.90999985    2.71000004
   13.28472233  118.44499969    4.90999985    2.71000004
   13.28777790  111.04699707    4.90999985    2.71000004
   13.29111195  120.02200317    4.90999985    2.73000002
   13.29444504  113.68699646    4.90999985    2.71000004
   13.29750061  110.76799774    4.90999985    2.71000004
   13.30083370  103.93800354    4.90999985    2.71000004
   13.30388927  108.41799927    4.90999985    2.71000004
   13.30722237  103.79100037    4.90999985    2.71000004
   13.31333351  103.79100037    4.90999985    2.71000004
   13.31750011  109.68499756    4.90999985    2.73000002
   13.32055569  110.83899689    4.90999985    2.71000004
   13.32388878  105.74099731    4.90999985    2.71000004
   13.32694435  109.22200012    4.90999985    2.73000002
   13.33027744  111.16600037    4.90999985    2.73000002
   13.33361053  110.28600311    4.90999985    2.71000004
   13.33666611  110.69499969    4.90999985    2.73000002
   13.34000015  124.11599731    4.90999985    2.71000004
   13.34333324  104.53399658    4.90999985    2.73000002
   13.34555531  108.43800354    4.90999985    2.71000004
   13.34694386  114.67900085    4.90999985    2.73000002
   13.35027790  113.51300049    4.90999985    2.73000002
   13.35611153  113.51300049    4.90999985    2.71000004
   13.36027813  107.39099884    4.90999985    2.71000004
   13.36333370  103.87699890    4.90999985    2.73000002
   13.36666679  109.25199890    4.90999985    2.73000002
   13.36999989  109.23699951    4.90999985    2.73000002
   13.37305546  106.24500275    4.90999985    2.73000002
   13.37638855  112.74199677    4.90999985    2.73000002
   13.37888908  116.87400055    4.90999985    2.73000002
   13.38000011  113.63200378    4.90999985    2.73000002
   13.38333321  116.71800232    4.90999985    2.73000002
   13.38638878  106.74800110    4.90999985    2.73000002
   13.38972187  109.59700012    4.90999985    2.73000002
   13.39305496  110.15899658    4.90999985    2.73000002
   13.39888859  110.15899658    4.90999985    2.73000002
   13.40305519  109.78900146    4.90999985    2.73000002
   13.40638828  107.90599823    4.90999985    2.73000002
   13.40944386  103.56500244    4.90999985    2.73000002
   13.41222191  107.89900208    4.90999985    2.73000002
   13.41305542  109.44000244    4.90999985    2.73000002
   13.41638851  118.05599976    4.90999985    2.73000002
   13.41944504  109.79699707    4.90999985    2.73000002
   13.42277813  105.78800201    4.90999985    2.73000002
   13.42611122  109.08200073    4.90999985    2.71000004
   13.42916679  101.52200317    4.90999985    2.73000002
   13.43249989  117.72599792    4.90999985    2.71000004
   13.43555546  102.53800201    4.90999985    2.73000002
   13.44166660  102.53800201    4.90999985    2.73000002
   13.44583321  103.56700134    4.90999985    2.71000004
   13.44916630  104.87799835    4.90999985    2.73000002
   13.45222187  117.47599792    4.90999985    2.75000000
   13.45555496  111.34999847    4.90999985    2.73000002
   13.45888901  110.84999847    4.90999985    2.73000002
   13.46194458  115.05400085    4.90999985    2.73000002
   13.46527767  112.09200287    4.90999985    2.73000002
   13.46861076  107.05000305    4.90999985    2.73000002
   13.47166634  111.97499847    4.90999985    2.73000002
   13.47499943  106.73799896    4.90999985    2.73000002
   13.47805500  112.15899658    4.90999985    2.73000002
   13.47888851  108.13999939    4.90999985    2.73000002
   13.49972248  108.13999939    4.90999985    2.75000000
   13.50388908  113.89900208    4.90999985    2.73000002
   13.50722218  112.30599976    4.90999985    2.73000002
   13.51027775  111.50399780    4.90999985    2.73000002
   13.51249981  110.71600342    4.90999985    2.73000002
   13.51388931  115.28500366    4.90999985    2.73000002
   13.51722240  111.90299988    4.90999985    2.73000002
   13.52027798  114.81700134    4.90999985    2.73000002
   13.52361107  110.55699921    4.90999985    2.75000000
   13.52694416  120.05799866    4.90999985    2.75000000
   13.52999973  117.02400208    4.90999985    2.75000000
   13.53333378  109.80300140    4.90999985    2.73000002
   13.53666687  121.42900085    4.90999985    2.73000002
   13.54250050  121.42900085    4.90999985    2.75000000
   13.54666710  113.06099701    4.90999985    2.73000002
   13.54972267  118.67500305    4.90999985    2.73000002
   13.55305576  113.82299805    4.90999985    2.75000000
   13.55638885  114.64800262    4.90999985    2.75000000
   13.55944443  112.34400177    4.90999985    2.73000002
   13.56277752  115.81900024    4.90999985    2.73000002
   13.56611156  111.06500244    4.90999985    2.73000002
   13.56916618  116.07700348    4.90999985    2.73000002
   13.57250023  111.88200378    4.90999985    2.75000000
   13.57555580  109.80500031    4.90999985    2.75000000
   13.57888889  104.97599792    4.90999985    2.73000002
   13.57944393  115.80000305    4.90999985    2.73000002
   13.58527756  115.80000305    4.90999985    2.73000002
   13.58944416  115.01200104    4.90999985    2.75000000
   13.59277725  114.75000000    4.90999985    2.75000000
   13.59583282  101.33499908    4.90999985    2.75000000
   13.59916592  104.73200226    4.90999985    2.75000000
   13.60222244  112.12400055    4.90999985    2.73000002
   13.60555553  116.51999664    4.90999985    2.75000000
   13.60888958  117.00000000    4.90999985    2.75000000
   13.61194515  116.69200134    4.90999985    2.73000002
   13.61277771  120.23899841    4.90999985    2.73000002
   13.61583328  116.22000122    4.90999985    2.73000002
   13.61888885  111.00000000    4.90999985    2.75000000
   13.62222195  117.33999634    4.90999985    2.75000000
   13.62805557  117.33999634    4.90999985    2.75000000
   13.63222218  112.20500183    4.90999985    2.75000000
   13.63555527  119.82800293    4.90999985    2.73000002
   13.63888836  123.06400299    4.90999985    2.73000002
   13.64194393  115.39900208    4.90999985    2.75000000
   13.64527798  115.01499939    4.90999985    2.75000000
   13.64611053  115.66100311    4.90999985    2.75000000
   13.64888859  111.99600220    4.90999985    2.75000000
   13.65194416   99.71499634    4.90999985    2.75000000
   13.65527725  104.72899628    4.90999985    2.73000002
   13.65833282  110.71700287    4.90999985    2.75000000
   13.66166592  112.89099884    4.90999985    2.75000000
   13.66499996  118.55599976    4.90999985    2.75000000
   13.67111111  118.55599976    4.90999985    2.75000000
   13.67500019  115.18699646    4.90999985    2.73000002
   13.67833328  119.87599945    4.90999985    2.75000000
   13.67944431  115.33799744    4.90999985    2.75000000
   13.68222237  108.16699982    4.90999985    2.75000000
   13.68527794  117.94499969    4.90999985    2.75000000
   13.68861103  138.91700745    4.90999985    2.75000000
   13.69194412  160.62600708    4.90999985    2.73000002
   13.69499969  115.69000244    4.90999985    2.75000000
   13.69833374  147.55000305    4.90999985    2.75000000
   13.70138836  120.12400055    4.90999985    2.75000000
   13.70472240  140.68099976    4.90999985    2.75000000
   13.70805550  133.84899902    4.90999985    2.73000002
   13.71388912  133.84899902    4.90999985    2.73000002
   13.71805477  112.22399902    4.90999985    2.75000000
   13.72111034  136.00300598    4.90999985    2.75000000
   13.72444439  124.59300232    4.90999985    2.75000000
   13.72777748  104.61299896    4.90999985    2.75000000
   13.73083305  124.26200104    4.90999985    2.75000000
   13.73416710  115.04399872    4.90999985    2.75000000
   13.73722267  120.59100342    4.90999985    2.73000002
   13.74055576  127.96499634    4.90999985    2.75000000
   13.74388885  126.02600098    4.90999985    2.73000002
   13.74611092  130.65699768    4.90999985    2.75000000
   13.74750042  123.19499969    4.90999985    2.75000000
   13.75055599  138.29400635    4.90999985    2.75000000
   13.75666714  138.29400635    4.90999985    2.75000000
   13.76083374  137.44700623    4.90999985    2.75000000
   13.76416683  139.80099487    4.90999985    2.75000000
   13.76722240  115.10299683    4.90999985    2.73000002
   13.77055550  121.66100311    4.90999985    2.75000000
   13.77361107  115.61199951    4.90999985    2.75000000
   13.77694416  126.42600250    4.90999985    2.75000000
   13.77944374  118.43599701    4.90999985    2.73000002
   13.78083324  118.58300018    4.90999985    2.75000000
   13.78388977  142.10400391    4.90999985    2.73000002
   13.78722286  123.11599731    4.90999985    2.75000000
   13.79027843  117.29399872    4.90999985    2.75000000
   13.79361153  114.85500336    4.90999985    2.75000000
   13.79944515  114.85500336    4.90999985    2.75000000
   13.80361176  117.50299835    4.90999985    2.75000000
   13.80694485  116.59100342    4.90999985    2.75000000
   13.81027794  115.17600250    4.90999985    2.75000000
   13.81277752  115.84200287    4.90999985    2.75000000
   13.81388950  125.57399750    4.90999985    2.75000000
   13.81694412  113.20999908    4.90999985    2.75000000
   13.82027817  114.83100128    4.90999985    2.75000000
   13.82333374  103.66999817    4.90999985    2.75000000
   13.82666683  111.92900085    4.90999985    2.75000000
   13.82999992  113.92299652    4.90999985    2.75000000
   13.83333302  109.96600342    4.90999985    2.75000000
   13.83638859  116.49299622    4.90999985    2.75000000
   13.84249973  116.49299622    4.90999985    2.75000000
   13.84638882  107.66500092    4.90999985    2.75000000
   13.84972191  122.58999634    4.90999985    2.75000000
   13.85305595  122.14099884    4.90999985    2.75000000
   13.85611153  122.14900208    4.90999985    2.75000000
   13.85944462  115.85399628    4.90999985    2.75000000
   13.86277771  118.24600220    4.90999985    2.75000000
   13.86583328  116.19300079    4.90999985    2.75000000
   13.86916637  116.70500183    4.90999985    2.75000000
   13.87222195  119.08999634    4.90999985    2.75000000
   13.87555599  115.68599701    4.90999985    2.75000000
   13.87888908  119.09999847    4.90999985    2.75000000
   13.87944412  119.30899811    4.90999985    2.75000000
   13.88527775  119.30899811    4.90999985    2.75000000
   13.88944435  118.88700104    4.90999985    2.75000000
   13.89249992  114.71099854    4.90999985    2.75000000
   13.89583302  112.88200378    4.90999985    2.75000000
   13.89916611  111.00900269    4.90999985    2.75000000
   13.90222168  115.81300354    4.90999985    2.75000000
   13.90555477  107.12999725    4.90999985    2.75000000
   13.90861034  110.79900360    4.90999985    2.76999998
   13.91194439  108.72299957    4.90999985    2.75000000
   13.91277695  112.27700043    4.90999985    2.75000000
   13.91555500  108.95600128    4.90999985    2.75000000
   13.91861153  106.90200043    4.90999985    2.75000000
   13.92194462  105.95200348    4.90999985    2.75000000
   13.92805576  105.95200348    4.90999985    2.75000000
   13.93222237  109.28900146    4.90999985    2.75000000
   13.93555546  110.23000336    4.90999985    2.76999998
   13.93861103  109.98799896    4.90999985    2.75000000
   13.94194412  110.60099792    4.90999985    2.75000000
   13.94499969  119.54499817    4.90999985    2.75000000
   13.94611073  106.69699860    4.90999985    2.76999998
   13.94888878  116.52300262    4.90999985    2.75000000
   13.95194435  116.38899994    4.90999985    2.75000000
   13.95527744  111.98699951    4.90999985    2.75000000
   13.95861053  117.72499847    4.90999985    2.75000000
   13.96166611  115.21099854    4.90999985    2.75000000
   13.96500015  115.48600006    4.90999985    2.75000000
   13.97083282  115.48600006    4.90999985    2.75000000
   13.97499943  117.34100342    4.90999985    2.75000000
   13.97833252  107.61199951    4.90999985    2.75000000
   13.97944355  106.72799683    4.90999985    2.75000000
   13.98194408  109.60399628    4.90999985    2.75000000
   13.98500061  113.31300354    4.90999985    2.75000000
   13.98833370  104.50099945    4.90999985    2.76999998
   13.99166679  116.06600189    4.90999985    2.75000000
   13.99472237  111.35500336    4.90999985    2.75000000
   13.99805546  119.87200165    4.90999985    2.76999998
   14.00138855  103.76899719    4.90999985    2.76999998
   14.00444412  107.46399689    4.90999985    2.75000000
   14.00777817  119.62999725    4.90999985    2.76999998
   14.01388931  119.62999725    4.90999985    2.75000000
   14.01777744  103.93800354    4.90999985    2.75000000
   14.02111053  101.74199677    4.90999985    2.76999998
   14.02444458  110.24099731    4.90999985    2.75000000
   14.02750015  112.19499969    4.90999985    2.76999998
   14.03083324  108.00700378    4.90999985    2.75000000
   14.03388977  109.66200256    4.90999985    2.75000000
   14.03722286  112.45800018    4.90999985    2.76999998
   14.04055595  102.24800110    4.90999985    2.76999998
   14.04361153  105.71600342    4.90999985    2.75000000
   14.04611111  108.52799988    4.90999985    2.75000000
   14.04750061  104.13200378    4.90999985    2.76999998
   14.05055618  120.21499634    4.90999985    2.76999998
   14.05666733  120.21499634    4.90999985    2.76999998
   14.06083393  107.54699707    4.90999985    2.75000000
   14.06388950  113.95999908    4.90999985    2.76999998
   14.06722260  102.82599640    4.90999985    2.75000000
   14.07027817  111.67199707    4.90999985    2.75000000
   14.07361126  109.47699738    4.90999985    2.76999998
   14.07694435  106.37599945    4.90999985    2.75000000
   14.07944393  113.69000244    4.90999985    2.75000000
   14.08055592  123.13400269    4.90999985    2.76999998
   14.08388901  106.68800354    4.90999985    2.76999998
   14.08694458  106.66799927    4.90999985    2.75000000
   14.09027767  112.17199707    4.90999985    2.75000000
   14.09361076  112.17099762    4.90999985    2.76999998
   14.09944439  112.17099762    4.90999985    2.76999998
   14.10361195  113.30300140    4.90999985    2.75000000
   14.10694504  110.22699738    4.90999985    2.76999998
   14.11000061  111.08899689    4.90999985    2.76999998
   14.11277771  107.99299622    4.90999985    2.75000000
   14.11361122  106.36900330    4.90999985    2.75000000
   14.11666679  110.57399750    4.90999985    2.75000000
   14.11999989  113.66999817    4.90999985    2.75000000
   14.12333393  120.67299652    4.90999985    2.75000000
   14.12638855  112.43800354    4.90999985    2.75000000
   14.12972260  114.97499847    4.90999985    2.75000000
   14.13305569  110.52500153    4.90999985    2.75000000
   14.13611126  112.82299805    4.90999985    2.76999998
   14.14222240  112.82299805    4.90999985    2.76999998
   14.14638901  118.02600098    4.90999985    2.75000000
   14.14972210  110.71900177    4.90999985    2.75000000
   14.15305519  112.20200348    4.90999985    2.76999998
   14.15611076  112.61299896    4.90999985    2.76999998
   14.15944386  109.88400269    4.90999985    2.75000000
   14.16249943  101.41899872    4.90999985    2.75000000
   14.16583252  103.65200043    4.90999985    2.78999996
   14.16916656  108.25499725    4.90999985    2.76999998
   14.17222214  109.21199799    4.90999985    2.76999998
   14.17555618  114.28299713    4.90999985    2.75000000
   14.17861176  110.92400360    4.90999985    2.76999998
   14.17944431  117.27300262    4.90999985    2.76999998
   14.18527794  117.27300262    4.90999985    2.76999998
   14.18916702  125.84799957    4.90999985    2.76999998
   14.19250011  116.78900146    4.90999985    2.75000000
   14.19583321  117.76799774    4.90999985    2.76999998
   14.19888878  117.35199738    4.90999985    2.76999998
   14.20222187  114.81999969    4.90999985    2.76999998
   14.20527744  112.50399780    4.90999985    2.75000000
   14.20861053  116.36100006    4.90999985    2.76999998
   14.21194458  100.47299957    4.90999985    2.76999998
   14.21277714  106.11900330    4.90999985    2.76999998
   14.21555519   96.01540375    4.90999985    2.76999998
   14.21861076   91.63480377    4.90999985    2.76999998
   14.22194386  112.97399902    4.90999985    2.76999998
   14.22805500  112.97399902    4.90999985    2.76999998
   14.23222160  114.12799835    4.90999985    2.78999996
   14.23527813  113.91600037    4.90999985    2.76999998
   14.23861122  113.10299683    4.90999985    2.75000000
   14.24166679  104.75000000    4.90999985    2.76999998
   14.24499989  112.47299957    4.90999985    2.76999998
   14.24611092  107.83000183    4.90999985    2.75000000
   14.24861145  116.29000092    4.90999985    2.75000000
   14.25166702   95.72679901    4.90999985    2.76999998
   14.25500011  119.00299835    4.90999985    2.76999998
   14.25833321   98.99060059    4.90999985    2.76999998
   14.26138878  109.05400085    4.90999985    2.76999998
   14.26472187  102.11900330    4.90999985    2.76999998
   14.27083302  102.11900330    4.90999985    2.76999998
   14.27499962  115.06999969    4.90999985    2.76999998
   14.27805519  120.76100159    4.90999985    2.76999998
   14.27944374  120.01799774    4.90999985    2.76999998
   14.28194427  130.50500488    4.90999985    2.76999998
   14.28500080  111.54299927    4.90999985    2.76999998
   14.28833389  105.53199768    4.90999985    2.76999998
   14.29166698  114.86100006    4.90999985    2.76999998
   14.29472256  106.89700317    4.90999985    2.76999998
   14.29805565  114.61399841    4.90999985    2.78999996
   14.30138874  111.68000031    4.90999985    2.76999998
   14.30444431  101.63500214    4.90999985    2.78999996
   14.30777836  116.71800232    4.90999985    2.76999998
   14.31361103  116.71800232    4.90999985    2.76999998
   14.31777763  101.38099670    4.90999985    2.78999996
   14.32111073  110.20500183    4.90999985    2.76999998
   14.32416630  106.53199768    4.90999985    2.76999998
   14.32750034  104.77100372    4.90999985    2.76999998
   14.33083344  111.61199951    4.90999985    2.76999998
   14.33388901  111.44699860    4.90999985    2.76999998
   14.33722210  113.64499664    4.90999985    2.76999998
   14.34055519  113.63200378    4.90999985    2.76999998
   14.34361076  115.92199707    4.90999985    2.76999998
   14.34611034  114.83200073    4.90999985    2.78999996
   14.34722233  111.12799835    4.90999985    2.78999996
   14.35027790  111.49800110    4.90999985    2.76999998
   14.35638905  111.49800110    4.90999985    2.76999998
   14.36055565  112.86599731    4.90999985    2.76999998
   14.36388969  106.98500061    4.90999985    2.76999998
   14.36722279  112.31900024    4.90999985    2.76999998
   14.37027836  120.45899963    4.90999985    2.76999998
   14.37361145  121.26300049    4.90999985    2.78999996
   14.37666702  111.27799988    4.90999985    2.78999996
   14.37944412  106.36000061    4.90999985    2.76999998
   14.38055611  110.07499695    4.90999985    2.76999998
   14.38388920  112.86399841    4.90999985    2.78999996
   14.38694477  113.09600067    4.90999985    2.76999998
   14.39027786  109.75299835    4.90999985    2.76999998
   14.39333344  113.58599854    4.90999985    2.76999998
   14.39944458  113.58599854    4.90999985    2.76999998
   14.40361118  106.38200378    4.90999985    2.76999998
   14.40666676  110.94100189    4.90999985    2.76999998
   14.40999985  107.42199707    4.90999985    2.76999998
   14.52166653   -1.00000000   -1.00000000   -1.00000000
   14.70166683   -1.00000000   -1.00000000   -1.00000000
   14.82222176   -1.00000000   -1.00000000   -1.00000000
   14.85222244   68.63629913    4.90999985    2.78999996
   14.85555553  124.74900055    4.90999985    2.78999996
   14.85888958  117.04799652    4.90999985    2.78999996
   14.86194515  116.82199860    4.90999985    2.76999998
   14.86527824  108.17199707    4.90999985    2.78999996
   14.86861134  118.42900085    4.90999985    2.78999996
   14.87277794  118.42900085    4.90999985    2.78999996
   14.87694454  115.20300293    4.90999985    2.78999996
   14.88000011  117.34700012    4.90999985    2.78999996
   14.88333321  113.73799896    4.90999985    2.78999996
   14.88555527  122.16600037    4.90999985    2.78999996
   14.88694477  123.82199860    4.90999985    2.78999996
   14.89027786  133.34300232    4.90999985    2.76999998
   14.89333344  121.50700378    4.90999985    2.76999998
   14.89666653  113.66600037    4.90999985    2.78999996
   14.89999962  108.98200226    4.90999985    2.78999996
   14.90305519  118.56800079    4.90999985    2.78999996
   14.90638828  115.40100098    4.90999985    2.78999996
   14.90944386  114.73500061    4.90999985    2.80999994
   14.91555500  114.73500061    4.90999985    2.78999996
   14.91972256  111.16799927    4.90999985    2.78999996
   14.92277813  102.48000336    4.90999985    2.76999998
   14.92611122  104.18399811    4.90999985    2.78999996
   14.92944431  101.92800140    4.90999985    2.78999996
   14.93249989  113.04299927    4.90999985    2.78999996
   14.93583298  113.05200195    4.90999985    2.78999996
   14.93916702  108.07900238    4.90999985    2.78999996
   14.94222260  109.49400330    4.90999985    2.78999996
   14.94555569  107.53399658    4.90999985    2.78999996
   14.94888878  111.02700043    4.90999985    2.78999996
   14.95194435  110.13300323    4.90999985    2.78999996
   14.95249939   98.39610291    4.90999985    2.78999996
   14.95833302   98.39610291    4.90999985    2.78999996
   14.96249962  115.07800293    4.90999985    2.76999998
   14.96583271  114.76699829    4.90999985    2.78999996
   14.96888828  106.26000214    4.90999985    2.78999996
   14.97222137  104.30699921    4.90999985    2.78999996
   14.97555542  123.39199829    4.90999985    2.78999996
   14.97861099  114.32099915    4.90999985    2.78999996
   14.98194408  113.93199921    4.90999985    2.78999996
   14.98500061  110.03700256    4.90999985    2.78999996
   14.98583317  110.32199860    4.90999985    2.78999996
   14.98888874  123.59500122    4.90999985    2.78999996
   14.99194431  120.24800110    4.90999985    2.78999996
   14.99527836  117.09799957    4.90999985    2.78999996
   15.00111103  117.09799957    4.90999985    2.78999996
   15.00527763  122.34500122    4.90999985    2.78999996
   15.00861073  110.73600006    4.90999985    2.78999996
   15.01194477  107.76699829    4.90999985    2.78999996
   15.01500034  119.10800171    4.90999985    2.78999996
   15.01833344  113.46800232    4.90999985    2.78999996
   15.01916599  119.46399689    4.90999985    2.78999996
   15.02194405  102.28600311    4.90999985    2.78999996
   15.02499962  112.62200165    4.90999985    2.78999996
   15.02833271  108.62699890    4.90999985    2.78999996
   15.03166676  114.14299774    4.90999985    2.78999996
   15.03472233  121.91899872    4.90999985    2.78999996
   15.03805637  100.42600250    4.90999985    2.78999996
   15.04416752  100.42600250    4.90999985    2.76999998
   15.04833412  115.62000275    4.90999985    2.78999996
   15.05138874  111.51300049    4.90999985    2.78999996
   15.05249977  107.85600281    4.90999985    2.78999996
   15.05500031  115.99299622    4.90999985    2.78999996
   15.05805588  111.97699738    4.90999985    2.78999996
   15.06138897  112.94100189    4.90999985    2.78999996
   15.06472206  111.88999939    4.90999985    2.78999996
   15.06777763  118.60399628    4.90999985    2.78999996
   15.07111073  113.47599792    4.90999985    2.78999996
   15.07444477  112.36799622    4.90999985    2.78999996
   15.07750034  112.88700104    4.90999985    2.78999996
   15.08083344  107.90499878    4.90999985    2.78999996
   15.08694458  107.90499878    4.90999985    2.78999996
   15.09111118  107.46700287    4.90999985    2.78999996
   15.09416676  108.52799988    4.90999985    2.78999996
   15.09749985  109.24600220    4.90999985    2.78999996
   15.10083389  111.64299774    4.90999985    2.78999996
   15.10388947  120.54699707    4.90999985    2.78999996
   15.10722256  113.71900177    4.90999985    2.78999996
   15.11055565  116.10500336    4.90999985    2.80999994
   15.11361122  108.43699646    4.90999985    2.78999996
   15.11694431  121.36900330    4.90999985    2.78999996
   15.11916637  110.47799683    4.90999985    2.78999996
   15.12055588  108.99199677    4.90999985    2.78999996
   15.12361145  113.97899628    4.90999985    2.78999996
   15.12972260  113.97899628    4.90999985    2.78999996
   15.13388920  121.02799988    4.90999985    2.78999996
   15.13722229  112.31900024    4.90999985    2.78999996
   15.14027786  113.93800354    4.90999985    2.78999996
   15.14361095  113.41000366    4.90999985    2.78999996
   15.14694405  121.76100159    4.90999985    2.78999996
   15.14999962  124.80799866    4.90999985    2.78999996
   15.15249920  112.41000366    4.90999985    2.78999996
   15.15388870  109.19899750    4.90999985    2.78999996
   15.15722179  116.15399933    4.90999985    2.78999996
   15.16027737  117.15599823    4.90999985    2.78999996
   15.16361046  116.06199646    4.90999985    2.78999996
   15.16666698  122.09899902    4.90999985    2.78999996
   15.17250061  122.09899902    4.90999985    2.78999996
   15.17666721  121.30599976    4.90999985    2.78999996
   15.18000031  112.25900269    4.90999985    2.78999996
   15.18333340  108.80599976    4.90999985    2.78999996
   15.18583298  121.34200287    4.90999985    2.78999996
   15.18694496  113.01200104    4.90999985    2.78999996
   15.19027805  112.37799835    4.90999985    2.78999996
   15.19333363  110.75599670    4.90999985    2.78999996
   15.19666672  116.76899719    4.90999985    2.78999996
   15.19972229  114.43499756    4.90999985    2.78999996
   15.20305538  108.79799652    4.90999985    2.78999996
   15.20638847  115.99199677    4.90999985    2.78999996
   15.20944405  116.88300323    4.90999985    2.78999996
   15.21555519  116.88300323    4.90999985    2.78999996
   15.21972179  117.97699738    4.90999985    2.78999996
   15.22277737  112.69699860    4.90999985    2.78999996
   15.22611046  113.62699890    4.90999985    2.78999996
   15.22916603  106.64399719    4.90999985    2.78999996
   15.23249912  115.84899902    4.90999985    2.78999996
   15.23583317  119.73600006    4.90999985    2.80999994
   15.23888874  112.47299957    4.90999985    2.78999996
   15.24222279  107.33200073    4.90999985    2.78999996
   15.24555588  113.66699982    4.90999985    2.78999996
   15.24861145  106.49700165    4.90999985    2.78999996
   15.25194454  112.82800293    4.90999985    2.78999996
   15.25249958  110.11499786    4.90999985    2.78999996
   15.25833321  110.11499786    4.90999985    2.78999996
   15.26249981  107.46499634    4.90999985    2.78999996
   15.26555538  113.30699921    4.90999985    2.78999996
   15.26888847  101.01899719    4.90999985    2.80999994
   15.27222157  115.40699768    4.90999985    2.80999994
   15.27527714  113.13899994    4.90999985    2.78999996
   15.27861118  105.26599884    4.90999985    2.78999996
   15.28194427  116.87200165    4.90999985    2.78999996
   15.28500080  117.32900238    4.90999985    2.80999994
   15.28583336  114.83300018    4.90999985    2.80999994
   15.28861141  113.55799866    4.90999985    2.80999994
   15.29194450  110.62000275    4.90999985    2.78999996
   15.29500008  119.15299988    4.90999985    2.78999996
   15.30111122  119.15299988    4.90999985    2.80999994
   15.30527782  108.57399750    4.90999985    2.78999996
   15.30861092  115.81800079    4.90999985    2.78999996
   15.31166649  111.49600220    4.90999985    2.78999996
   15.31500053  116.14299774    4.90999985    2.78999996
   15.31833363  114.54599762    4.90999985    2.78999996
   15.31916618  108.60299683    4.90999985    2.78999996
   15.32194424  106.47299957    4.90999985    2.78999996
   15.32527733  114.82099915    4.90999985    2.78999996
   15.32833290  118.92700195    4.90999985    2.78999996
   15.33166695  114.52200317    4.90999985    2.78999996
   15.33472157  108.04900360    4.90999985    2.76999998
   15.33805561  118.97100067    4.90999985    2.78999996
   15.34388828  118.97100067    4.90999985    2.80999994
   15.34805489  110.66000366    4.90999985    2.80999994
   15.35138893  111.44100189    4.90999985    2.78999996
   15.35249996  116.65599823    4.90999985    2.78999996
   15.35500050  101.64600372    4.90999985    2.78999996
   15.35833359  115.40699768    4.90999985    2.78999996
   15.36138916  111.27400208    4.90999985    2.80999994
   15.36472225  109.00599670    4.90999985    2.80999994
   15.36777782  108.78800201    4.90999985    2.78999996
   15.37111092  111.10299683    4.90999985    2.78999996
   15.37444496  111.56099701    4.90999985    2.78999996
   15.37750053  110.60099792    4.90999985    2.78999996
   15.38083363  113.58100128    4.90999985    2.78999996
   15.38694477  113.58100128    4.90999985    2.78999996
   15.39111137  111.49099731    4.90999985    2.78999996
   15.39416695  112.58499908    4.90999985    2.78999996
   15.39750004  111.78399658    4.90999985    2.78999996
   15.40055561  116.59400177    4.90999985    2.78999996
   15.40388870  117.14700317    4.90999985    2.78999996
   15.40722179  120.54799652    4.90999985    2.78999996
   15.41027737  118.48899841    4.90999985    2.80999994
   15.41361046  117.27600098    4.90999985    2.80999994
   15.41694450  118.56999969    4.90999985    2.78999996
   15.41916656  114.62000275    4.90999985    2.78999996
   15.42055607  114.62000275    4.90999985    2.78999996
   15.42388916  122.30999756    4.90999985    2.78999996
   15.42972279  122.30999756    4.90999985    2.78999996
   15.43388939  123.53900146    4.90999985    2.78999996
   15.43694496  118.90100098    4.90999985    2.78999996
   15.44027805  121.08000183    4.90999985    2.78999996
   15.44361115  112.24800110    4.90999985    2.78999996
   15.44666672  106.98500061    4.90999985    2.80999994
   15.44999981  115.49900055    4.90999985    2.78999996
   15.45249939  115.56099701    4.90999985    2.80999994
   15.45361137  114.92900085    4.90999985    2.78999996
   15.45694447  119.87799835    4.90999985    2.78999996
   15.46000004  121.03399658    4.90999985    2.78999996
   15.46333313  116.73300171    4.90999985    2.76999998
   15.46638870  119.90899658    4.90999985    2.78999996
   15.47249985  119.90899658    4.90999985    2.78999996
   15.47666645  111.50599670    4.90999985    2.78999996
   15.47999954  115.84600067    4.90999985    2.78999996
   15.48305511  116.55000305    4.90999985    2.78999996
   15.48583317  119.90799713    4.90999985    2.78999996
   15.48666668  116.64700317    4.90999985    2.78999996
   15.49000072  109.37300110    4.90999985    2.78999996
   15.49305534  106.37699890    4.90999985    2.78999996
   15.49638939  113.33699799    4.90999985    2.78999996
   15.49972248  104.58399963    4.90999985    2.78999996
   15.50277805  116.73400116    4.90999985    2.78999996
   15.50611115  112.59100342    4.90999985    2.78999996
   15.50916672  120.91600037    4.90999985    2.80999994
   15.51527786  120.91600037    4.90999985    2.80999994
   15.51944447  106.68800354    4.90999985    2.78999996
   15.52277756  109.29100037    4.90999985    2.78999996
   15.52611065  111.29000092    4.90999985    2.78999996
   15.52916622  111.74500275    4.90999985    2.78999996
   15.53249931  107.82299805    4.90999985    2.78999996
   15.53583336  112.91300201    4.90999985    2.78999996
   15.53888893  112.91899872    4.90999985    2.78999996
   15.54222298  107.73699951    4.90999985    2.78999996
   15.54527855  109.85199738    4.90999985    2.78999996
   15.54861164  112.11399841    4.90999985    2.78999996
   15.55194473  108.52799988    4.90999985    2.78999996
   15.55249977  103.59200287    4.90999985    2.78999996
   15.55833340  103.59200287    4.90999985    2.78999996
   15.56250000  118.09899902    4.90999985    2.78999996
   15.56555557  108.83100128    4.90999985    2.76999998
   15.56888866  108.41799927    4.90999985    2.78999996
   15.57194424  107.77899933    4.90999985    2.78999996
   15.57527733  128.49000549    4.90999985    2.80999994
   15.57861137  117.32800293    4.90999985    2.78999996
   15.58166695  117.97899628    4.90999985    2.78999996
   15.58500004  109.44699860    4.90999985    2.78999996
   15.58583260  121.73400116    4.90999985    2.78999996
   15.58861065  136.52499390    4.90999985    2.78999996
   15.59194374  129.78399658    4.90999985    2.80999994
   15.59499931  118.26100159    4.90999985    2.78999996
   15.60111141  118.26100159    4.90999985    2.78999996
   15.60527802  130.84399414    4.90999985    2.78999996
   15.60833359  126.67800140    4.90999985    2.80999994
   15.61166668  124.47100067    4.90999985    2.78999996
   15.61500072  125.24400330    4.90999985    2.78999996
   15.61805534  139.26800537    4.90999985    2.78999996
   15.61916637  145.82699585    4.90999985    2.80999994
   15.62166691  132.11999512    4.90999985    2.78999996
   15.62500000  124.41100311    4.90999985    2.78999996
   15.62805557  128.89500427    4.90999985    2.78999996
   15.63138866  129.94900513    4.90999985    2.78999996
   15.63472176  125.98100281    4.90999985    2.80999994
   15.63777733  123.72100067    4.90999985    2.80999994
   15.64388847  123.72100067    4.90999985    2.80999994
   15.64805508  130.56700134    4.90999985    2.80999994
   15.65138817  131.68600464    4.90999985    2.78999996
   15.65249920  126.44100189    4.90999985    2.78999996
   15.65499973  121.46099854    4.90999985    2.80999994
   15.65833282  137.03900146    4.90999985    2.80999994
   15.66138840  112.91999817    4.90999985    2.80999994
   15.66472149  111.40399933    4.90999985    2.80999994
   15.66805553  117.53099823    4.90999985    2.78999996
   15.67111111  128.45700073    4.90999985    2.80999994
   15.67444515  109.44799805    4.90999985    2.80999994
   15.67750072  117.17800140    4.90999985    2.80999994
   15.68083382  109.97399902    4.90999985    2.78999996
   15.68666649  109.97399902    4.90999985    2.80999994
   15.69083309  130.49200439    4.90999985    2.78999996
   15.69416714  116.40000153    4.90999985    2.80999994
   15.69750023  123.99600220    4.90999985    2.80999994
   15.70055580  118.84200287    4.90999985    2.80999994
   15.70388889  111.65699768    4.90999985    2.78999996
   15.70722198  123.42800140    4.90999985    2.80999994
   15.71027756  115.24099731    4.90999985    2.82999992
   15.71361065  105.01999664    4.90999985    2.80999994
   15.71694374  126.51100159    4.90999985    2.80999994
   15.71944427  122.15299988    4.90999985    2.80999994
   15.72055531  108.92199707    4.90999985    2.80999994
   15.72388840  118.86100006    4.90999985    2.80999994
   15.72972202  118.86100006    4.90999985    2.80999994
   15.73388958  111.38300323    4.90999985    2.80999994
   15.73694515  113.06400299    4.90999985    2.80999994
   15.74027824  111.42500305    4.90999985    2.78999996
   15.74333382  115.84799957    4.90999985    2.80999994
   15.74666691  111.06800079    4.90999985    2.80999994
   15.75000000  105.15499878    4.90999985    2.80999994
   15.75277805  109.95500183    4.90999985    2.80999994
   15.75361156  101.52500153    4.90999985    2.80999994
   15.75694466  104.09100342    4.90999985    2.80999994
   15.76000023  110.75299835    4.90999985    2.78999996
   15.76333332  116.76100159    4.90999985    2.80999994
   15.76666641  108.21299744    4.90999985    2.80999994
   15.77250004  108.21299744    4.90999985    2.82999992
   15.77666664  102.08399963    4.90999985    2.80999994
   15.77972221  109.39600372    4.90999985    2.80999994
   15.78305531  111.75399780    4.90999985    2.80999994
   15.78611183  105.82299805    4.90999985    2.80999994
   15.78666687   98.33719635    4.90999985    2.80999994
   15.79000092  104.13500214    4.90999985    2.80999994
   15.79305553  106.81999969    4.90999985    2.80999994
   15.79638958   96.64710236    4.90999985    2.80999994
   15.79972267  112.68099976    4.90999985    2.80999994
   15.80277824  107.94699860    4.90999985    2.82999992
   15.80611134  114.47100067    4.90999985    2.78999996
   15.80944443  103.93699646    4.90999985    2.80999994
   15.81527805  103.93699646    4.90999985    2.80999994
   15.81944466  109.12400055    4.90999985    2.80999994
   15.82277775  103.67099762    4.90999985    2.80999994
   15.82583332  111.51899719    4.90999985    2.80999994
   15.82916641  106.59799957    4.90999985    2.80999994
   15.83222198  110.05999756    4.90999985    2.80999994
   15.83555508  116.32399750    4.90999985    2.80999994
   15.83888817  107.75599670    4.90999985    2.82999992
   15.84194374  111.05799866    4.90999985    2.82999992
   15.84527779  111.56199646    4.90999985    2.80999994
   15.84861088  104.58300018    4.90999985    2.78999996
   15.85166740  108.93299866    4.90999985    2.80999994
   15.85277843  112.67500305    4.90999985    2.80999994
   15.87333393  112.67500305    4.90999985    2.80999994
   15.87750053  107.33399963    4.90999985    2.80999994
   15.88083363  116.64299774    4.90999985    2.80999994
   15.88388920  111.88400269    4.90999985    2.80999994
   15.88611126  114.04499817    4.90999985    2.80999994
   15.88749981  113.33999634    4.90999985    2.80999994
   15.89083290  115.19899750    4.90999985    2.80999994
   15.89416695  120.24299622    4.90999985    2.80999994
   15.89722252  111.66999817    4.90999985    2.80999994
   15.90055561  108.81400299    4.90999985    2.80999994
   15.90361118  114.73400116    4.90999985    2.80999994
   15.90694427  113.24700165    4.90999985    2.80999994
   15.91027737  107.40000153    4.90999985    2.80999994
   15.91611099  107.40000153    4.90999985    2.80999994
   15.92027855  112.78800201    4.90999985    2.80999994
   15.92361164  104.37899780    4.90999985    2.80999994
   15.92666721  111.43000031    4.90999985    2.80999994
   15.93000031  106.33599854    4.90999985    2.80999994
   15.93305588  108.88999939    4.90999985    2.80999994
   15.93638897  107.73500061    4.90999985    2.80999994
   15.93972206  106.77999878    4.90999985    2.80999994
   15.94277763  118.84700012    4.90999985    2.80999994
   15.94611073  112.68699646    4.90999985    2.82999992
   15.94944477  110.95099640    4.90999985    2.82999992
   15.95249939  114.43299866    4.90999985    2.80999994
   15.95305538  106.71900177    4.90999985    2.80999994
   15.95888901  106.71900177    4.90999985    2.80999994
   15.96305561  110.25499725    4.90999985    2.80999994
   15.96638870  108.48300171    4.90999985    2.80999994
   15.96944427  109.29900360    4.90999985    2.80999994
   15.97277737  106.83200073    4.90999985    2.80999994
   15.97611046  113.02500153    4.90999985    2.82999992
   15.97916603  105.92099762    4.90999985    2.80999994
   15.98249912  107.06500244    4.90999985    2.80999994
   15.98583317  111.19300079    4.90999985    2.80999994
   15.98638916  102.13200378    4.90999985    2.80999994
   15.98944473  107.37999725    4.90999985    2.80999994
   15.99250031  108.57399750    4.90999985    2.80999994
   15.99583340  102.85600281    4.90999985    2.80999994
   16.00194359  102.85600281    4.90999985    2.80999994
   16.00583267   99.12879944    4.90999985    2.80999994
   16.00916672  105.32800293    4.90999985    2.80999994
   16.01250076  106.66000366    4.90999985    2.82999992
   16.01555634  103.76699829    4.90999985    2.82999992
   16.01888847   96.66480255    4.90999985    2.82999992
   16.01972198  108.03299713    4.90999985    2.82999992
   16.02249908  109.76799774    4.90999985    2.78999996
   16.02555466  104.69300079    4.90999985    2.80999994
   16.02888870  105.04900360    4.90999985    2.80999994
   16.03222275  108.75700378    4.90999985    2.80999994
   16.03527641  106.92500305    4.90999985    2.80999994
   16.03861046  107.28399658    4.90999985    2.80999994
   16.04472160  107.28399658    4.90999985    2.80999994
   16.04888916  111.03099823    4.90999985    2.80999994
   16.05194283  107.21299744    4.90999985    2.80999994
   16.05305481  113.64800262    4.90999985    2.82999992
   16.05555534  108.35700226    4.90999985    2.80999994
   16.05861092  109.48600006    4.90999985    2.80999994
   16.06194305  107.98400116    4.90999985    2.78999996
   16.06527710  108.11799622    4.90999985    2.80999994
   16.06833458  117.37300110    4.90999985    2.80999994
   16.07166672  115.58699799    4.90999985    2.80999994
   16.07500076  110.12300110    4.90999985    2.80999994
   16.07805634  111.64399719    4.90999985    2.80999994
   16.08139038  108.50599670    4.90999985    2.80999994
   16.08750153  108.50599670    4.90999985    2.82999992
   16.09166718  110.69999695    4.90999985    2.80999994
   16.09472275  109.91400146    4.90999985    2.80999994
   16.09805679  107.67099762    4.90999985    2.80999994
   16.10138893  106.55699921    4.90999985    2.80999994
   16.10444450  113.98999786    4.90999985    2.80999994
   16.10777855  111.19300079    4.90999985    2.80999994
   16.11111069  112.60500336    4.90999985    2.80999994
   16.11416626  115.35900116    4.90999985    2.80999994
   16.11750031  117.18499756    4.90999985    2.80999994
   16.11972237  106.97299957    4.90999985    2.80999994
   16.12111092  111.86799622    4.90999985    2.78999996
   16.12416649  118.77700043    4.90999985    2.78999996
   16.13027763  118.77700043    4.90999985    2.80999994
   16.13444519  105.99299622    4.90999985    2.80999994
   16.13777733  121.92299652    4.90999985    2.80999994
   16.14083290  123.81600189    4.90999985    2.80999994
   16.14416695  122.24199677    4.90999985    2.80999994
   16.14749908  114.62699890    4.90999985    2.80999994
   16.15055466  108.75199890    4.90999985    2.80999994
   16.15305519  110.15799713    4.90999985    2.80999994
   16.15416718  115.33200073    4.90999985    2.80999994
   16.15722275  111.43499756    4.90999985    2.82999992
   16.16055489  114.53900146    4.90999985    2.80999994
   16.16388893  111.53299713    4.90999985    2.80999994
   16.16694450  118.97499847    4.90999985    2.80999994
   16.17333221  118.97499847    4.90999985    2.80999994
   16.17722130  109.57099915    4.90999985    2.80999994
   16.18055534  106.65200043    4.90999985    2.80999994
   16.18388748  108.91999817    4.90999985    2.80999994
   16.18638802  106.35800171    4.90999985    2.80999994
   16.18750000  113.36199951    4.90999985    2.80999994
   16.19055557  116.24299622    4.90999985    2.80999994
   16.19388771  113.50099945    4.90999985    2.82999992
   16.19722176  113.44699860    4.90999985    2.80999994
   16.20027924  107.64199829    4.90999985    2.82999992
   16.20361137  113.11900330    4.90999985    2.78999996
   16.20694542  117.72899628    4.90999985    2.80999994
   16.21000099  113.48999786    4.90999985    2.80999994
   16.21611214  113.48999786    4.90999985    2.80999994
   16.22027779  118.80699921    4.90999985    2.80999994
   16.22333336  111.74400330    4.90999985    2.80999994
   16.22666740  112.07599640    4.90999985    2.80999994
   16.22972298  104.88600159    4.90999985    2.82999992
   16.23305511  115.45600128    4.90999985    2.80999994
   16.23638916  109.52899933    4.90999985    2.82999992
   16.23944473  112.42900085    4.90999985    2.80999994
   16.24277878  113.89800262    4.90999985    2.80999994
   16.24611092  121.94699860    4.90999985    2.80999994
   16.24916649  110.70400238    4.90999985    2.80999994
   16.25250053  113.65100098    4.90999985    2.80999994
   16.25305557  115.68299866    4.90999985    2.80999994
   16.25888824  115.68299866    4.90999985    2.80999994
   16.26305580  112.33300018    4.90999985    2.80999994
   16.26611137  108.93199921    4.90999985    2.82999992
   16.26944351  117.21800232    4.90999985    2.80999994
   16.27277756  116.00399780    4.90999985    2.80999994
   16.27583313  112.63300323    4.90999985    2.80999994
   16.27916718  114.78199768    4.90999985    2.80999994
   16.28249931  108.02600098    4.90999985    2.80999994
   16.28555489  112.14299774    4.90999985    2.82999992
   16.28638840  105.09400177    4.90999985    2.82999992
   16.28916550  112.26699829    4.90999985    2.80999994
   16.29249954  124.18900299    4.90999985    2.80999994
   16.29555511  110.57599640    4.90999985    2.80999994
   16.30166626  110.57599640    4.90999985    2.80999994
   16.30583191  115.96299744    4.90999985    2.80999994
   16.30916595  112.56900024    4.90999985    2.80999994
   16.31222153  115.38300323    4.90999985    2.80999994
   16.31555557  106.48200226    4.90999985    2.78999996
   16.31888962  114.89600372    4.90999985    2.80999994
   16.31972313  116.90100098    4.90999985    2.80999994
   16.32250023  108.90100098    4.90999985    2.80999994
   16.32583427  110.40699768    4.90999985    2.80999994
   16.32888985  111.52700043    4.90999985    2.78999996
   16.33222389  115.41799927    4.90999985    2.80999994
   16.33527756  114.02799988    4.90999985    2.80999994
   16.33861160  116.45999908    4.90999985    2.80999994
   16.34444427  116.45999908    4.90999985    2.80999994
   16.34861183  116.09799957    4.90999985    2.80999994
   16.35194397  114.13200378    4.90999985    2.80999994
   16.35305595  113.15899658    4.90999985    2.80999994
   16.35555649  111.87999725    4.90999985    2.78999996
   16.35888863  115.59700012    4.90999985    2.80999994
   16.36194420  115.20099640    4.90999985    2.78999996
   16.36527824  120.26200104    4.90999985    2.80999994
   16.36833382  114.79499817    4.90999985    2.78999996
   16.37166595  118.86100006    4.90999985    2.78999996
   16.37500000  111.97699738    4.90999985    2.80999994
   16.37833405  120.13800049    4.90999985    2.80999994
   16.38138962  112.90000153    4.90999985    2.80999994
   16.38750076  112.90000153    4.90999985    2.78999996
   16.39166641  117.44100189    4.90999985    2.80999994
   16.39472198  107.94000244    4.90999985    2.78999996
   16.39805603  111.53399658    4.90999985    2.80999994
   16.40111160  113.40100098    4.90999985    2.80999994
   16.40444374  108.67099762    4.90999985    2.80999994
   16.40777779  113.37799835    4.90999985    3.09999990
   16.41083336  109.83499908    0.05000000    0.46000001
   16.41416550  109.29799652    0.05000000    0.15000001
   16.41749954  119.80400085    0.05000000    0.15000001
   16.41972160  113.10399628    0.05000000    0.15000001
   16.42111015  111.99299622    0.05000000    0.15000001
   16.42444420  109.62200165    0.05000000    0.15000001
   16.43027687  109.62200165    0.05000000    0.15000001
   16.43444443  115.98400116    0.05000000    0.15000001
   16.43750000  113.22299957    0.05000000    0.15000001
   16.44083214  107.64399719    0.05000000    0.15000001
   16.44416618  118.51399994    0.05000000    0.15000001
   16.44722176  114.78299713    0.05000000    0.15000001
   16.45055580  116.03600311    0.05000000    0.15000001
   16.45305634  109.26699829    0.05000000    0.15000001
   16.45416832  111.26100159    0.05000000    0.15000001
   16.45750046  117.07700348    0.05000000    0.15000001
   16.46083450  123.94599915    0.05000000    0.15000001
   16.46416664  116.56900024    0.05000000    0.15000001
   16.46722221  116.45899963    0.05000000    0.15000001
   16.47305679  116.45899963    0.05000000    0.15000001
   16.47722244  117.47399902    0.05000000    0.15000001
   16.48055649  111.90599823    0.05000000    0.15000001
   16.48361206  121.33100128    0.05000000    0.15000001
   16.48638916  113.42700195    0.05000000    0.15000001
   16.48722267  113.89399719    0.05000000    0.15000001
   16.49055672  112.05200195    0.05000000    0.15000001
   16.49361229  114.58999634    0.05000000    0.15000001
   16.49694443  119.41999817    0.05000000    0.15000001
   16.50000000  112.45700073    0.05000000    0.15000001
   16.50333405  107.82499695    0.05000000    0.15000001
   16.50666618  109.14700317    0.05000000    0.15000001
   16.50972176  104.36799622    0.05000000    0.15000001
   16.51583290  104.36799622    0.05000000    0.15000001
   16.52000046  114.34200287    0.05000000    0.15000001
   16.52333260  115.77700043    0.05000000    0.15000001
   16.52666664  109.94699860    0.05000000    0.15000001
   16.52972221  108.41899872    0.05000000    0.15000001
   16.53305435  114.44499969    0.05000000    0.15000001
   16.53610992  113.55899811    0.05000000    0.15000001
   16.53944397  112.16400146    0.05000000    0.15000001
   16.54277802  121.10500336    0.05000000    0.15000001
   16.54583359  113.92099762    0.05000000    0.15000001
   16.54916573  114.52500153    0.05000000    0.15000001
   16.55249977  118.26399994    0.05000000    0.15000001
   16.55305481  116.11599731    0.05000000    0.15000001
   16.55888748  116.11599731    0.05000000    0.15000001
   16.56305504  116.98799896    0.05000000    0.15000001
   16.56611061  118.58100128    0.05000000    0.15000001
   16.56944466  122.81400299    0.05000000    0.15000001
   16.57250023  114.77899933    0.05000000    0.15000001
   16.57583427  118.71299744    0.05000000    0.15000001
   16.57916832  109.62300110    0.05000000    0.15000001
   16.58222389  115.43199921    0.05000000    0.15000001
   16.58555603  112.24099731    0.05000000    0.15000001
   16.58638954  121.42400360    0.05000000    0.15000001
   16.58916664  119.80300140    0.05000000    0.15000001
   16.59250069  116.84799957    0.05000000    0.15000001
   16.59555626  119.14299774    0.05000000    0.15000001
   16.60166740  119.14299774    0.05000000    0.15000001
   16.60583305  115.95700073    0.05000000    0.15000001
   16.60888863  115.66500092    0.05000000    0.15000001
   16.61222267  120.36799622    0.05000000    0.15000001
   16.61555672  119.63700104    0.05000000    0.15000001
   16.61861038  117.69899750    0.05000000    0.15000001
   16.61972237  122.95300293    0.05000000    0.15000001
   16.62222290  121.84999847    0.05000000    0.15000001
   16.62555504  116.47499847    0.05000000    0.15000001
   16.62861061  112.05699921    0.05000000    0.15000001
   16.63194466  113.24299622    0.05000000    0.15000001
   16.63527679  113.28700256    0.05000000    0.15000001
   16.63833237  108.09300232    0.05000000    0.15000001
   16.64444351  108.09300232    0.05000000    0.15000001
   16.64861107  114.20800018    0.05000000    0.15000001
   16.65194321  109.23200226    0.05000000    0.15000001
   16.65305519  112.83000183    0.05000000    0.15000001
   16.65555573  114.73799896    0.05000000    0.15000001
   16.65888786  119.13300323    0.05000000    0.15000001
   16.66194344  111.66600037    0.05000000    0.15000001
   16.66527748  115.19200134    0.05000000    0.15000001
   16.66860962  118.82299805    0.05000000    0.15000001
   16.67166519  111.77100372    0.05000000    0.15000001
   16.67499924  121.98899841    0.05000000    0.15000001
   16.67805481  115.17099762    0.05000000    0.15000001
   16.68138885  110.23000336    0.05000000    0.15000001
   16.68722153  110.23000336    0.05000000    0.15000001
   16.69138718  120.52600098    0.05000000    0.15000001
   16.69472122  120.48500061    0.05000000    0.15000001
   16.69805527  122.55000305    0.05000000    0.15000001
   16.70111275  115.20099640    0.05000000    0.15000001
   16.70444489  115.61000061    0.05000000    0.15000001
   16.70777893  115.72599792    0.05000000    0.15000001
   16.71083450  115.64399719    0.05000000    0.15000001
   16.71416664  115.32399750    0.05000000    0.15000001
   16.71722221  117.89700317    0.05000000    0.15000001
   16.71972275  118.16699982    0.05000000    0.15000001
   16.72083473  117.65000153    0.05000000    0.15000001
   16.72416687  120.52600098    0.05000000    0.15000001
   16.73027802  120.52600098    0.05000000    0.15000001
   16.73444557  111.51499939    0.05000000    0.15000001
   16.73750114  111.70099640    0.05000000    0.15000001
   16.74083328  110.57599640    0.05000000    0.15000001
   16.74388885  114.17500305    0.05000000    0.15000001
   16.74722290  117.38800049    0.05000000    0.15000001
   16.75055504  114.68800354    0.05000000    0.15000001
   16.75305557  113.06199646    0.05000000    0.15000001
   16.75416756  117.65499878    0.05000000    0.15000001
   16.75749969  110.22299957    0.05000000    0.15000001
   16.76055527  108.46800232    0.05000000    0.15000001
   16.76388931  110.15699768    0.05000000    0.15000001
   16.76722145  113.62400055    0.05000000    0.15000001
   16.77305603  113.62400055    0.05000000    0.15000001
   16.77722168  115.94899750    0.05000000    0.15000001
   16.78027725  114.57399750    0.05000000    0.15000001
   16.78361130  115.40799713    0.05000000    0.15000001
   16.78666687  124.14199829    0.05000000    0.15000001
   16.78722191  126.87400055    0.05000000    0.15000001
   16.79055595  120.81199646    0.05000000    0.15000001
   16.79361153  120.82499695    0.05000000    0.15000001
   16.79694366  123.06999969    0.05000000    0.15000001
   16.80027771  114.18599701    0.05000000    0.15000001
   16.80333328  117.31099701    0.05000000    0.15000001
   16.80666542  112.36799622    0.05000000    0.15000001
   16.80999947  124.67800140    0.05000000    0.15000001
   16.81583214  124.67800140    0.05000000    0.15000001
   16.82000160  118.33699799    0.05000000    0.15000001
   16.82333374  120.09200287    0.05000000    0.15000001
   16.82638931  119.02200317    0.05000000    0.15000001
   16.82972336  112.15799713    0.05000000    0.15000001
   16.83305550  116.63600159    0.05000000    0.15000001
   16.83611107  118.62799835    0.05000000    0.15000001
   16.83944511  112.79900360    0.05000000    0.15000001
   16.84250069  120.91799927    0.05000000    0.15000001
   16.84583473  116.15299988    0.05000000    0.15000001
   16.84916687  116.65299988    0.05000000    0.15000001
   16.85222244  124.32099915    0.05000000    0.15000001
   16.85333443  114.96299744    0.05000000    0.15000001
   16.85861206  114.96299744    0.05000000    0.15000001
   16.86277771  128.43299866    0.05000000    0.15000001
   16.86611176  128.60600281    0.05000000    0.15000001
   16.86944389  121.55799866    0.05000000    0.15000001
   16.88694382  119.13999939    0.05000000    0.15000001
   16.88944435  116.56999969    0.05000000    0.15000001
   16.89249992  118.48400116    0.05000000    0.15000001
   16.89583397  115.28299713    0.05000000    0.15000001
   16.90166664  115.28299713    0.05000000    0.15000001
   16.90583229  118.20899963    0.05000000    0.15000001
   16.90916634  114.94599915    0.05000000    0.15000001
   16.91250038  115.94300079    0.05000000    0.15000001
   16.91555595  120.24900055    0.05000000    0.15000001
   16.91888809  114.08499908    0.05000000    0.15000001
   16.92027664  113.19799805    0.05000000    0.15000001
   16.92249870  118.33499908    0.05000000    0.15000001
   16.92583275  122.03900146    0.05000000    0.15000001
   16.92916679  112.72399902    0.05000000    0.15000001
   16.93222237  113.40599823    0.05000000    0.15000001
   16.93555450  118.35600281    0.05000000    0.15000001
   16.93861008  114.27999878    0.05000000    0.15000001
   16.94472122  114.27999878    0.05000000    0.15000001
   16.94888878  119.98899841    0.05000000    0.15000001
   16.95194435  119.51799774    0.05000000    0.15000001
   16.95361137  118.57299805    0.05000000    0.15000001
   16.95555687  114.72299957    0.05000000    0.15000001
   16.95888901  115.51499939    0.05000000    0.15000001
   16.96222305  115.78800201    0.05000000    0.15000001
   16.96527863  125.01799774    0.05000000    0.15000001
   16.96861076  117.70300293    0.05000000    0.15000001
   16.97194481  107.80500031    0.05000000    0.15000001
   16.97500038  123.40399933    0.05000000    0.15000001
   16.97833443  119.48000336    0.05000000    0.15000001
   16.98139000  116.37599945    0.05000000    0.15000001
   16.98750114  116.37599945    0.05000000    0.15000001
   16.99166679  117.65799713    0.05000000    0.15000001
   16.99472237  113.38099670    0.05000000    0.15000001
   16.99805641  116.19300079    0.05000000    0.15000001
   17.00138855  118.88700104    0.05000000    0.15000001
   17.00444412  120.73200226    0.05000000    0.15000001
   17.00777817  112.97000122    0.05000000    0.15000001
   17.01083374  112.26699829    0.05000000    0.15000001
   17.01416588  116.95099640    0.05000000    0.15000001
   17.01749992  118.95999908    0.05000000    0.15000001
   17.02027702  111.86699677    0.05000000    0.15000001
   17.02083397  117.08599854    0.05000000    0.15000001
   17.02416611  111.61699677    0.05000000    0.15000001
   17.03027725  111.61699677    0.05000000    0.15000001
   17.03444481  110.82599640    0.05000000    0.15000001
   17.03777695  115.79900360    0.05000000    0.15000001
   17.04083252  116.41500092    0.05000000    0.15000001
   17.04416656  113.90699768    0.05000000    0.15000001
   17.04722214  119.54499817    0.05000000    0.15000001
   17.05055428  111.14199829    0.05000000    0.15000001
   17.05360985  121.93699646    0.05000000    0.15000001
   17.05444336  112.55999756    0.05000000    0.15000001
   17.05749893  116.28900146    0.05000000    0.15000001
   17.06083298  116.21700287    0.05000000    0.15000001
   17.06388855  112.33999634    0.05000000    0.15000001
   17.06722260  115.19200134    0.05000000    0.15000001
   17.07305717  115.19200134    0.05000000    0.15000001
   17.07722282  114.98300171    0.05000000    0.15000001
   17.08055687  116.54499817    0.05000000    0.15000001
   17.08361244  114.38400269    0.05000000    0.15000001
   17.08694458  119.17500305    0.05000000    0.15000001
   17.08722305  118.42600250    0.05000000    0.15000001
   17.09055710  113.90799713    0.05000000    0.15000001
   17.09388924  108.80999756    0.05000000    0.15000001
   17.09694481  110.30300140    0.05000000    0.15000001
   17.10027885  106.42400360    0.05000000    0.15000001
   17.10333443  118.93599701    0.05000000    0.15000001
   17.10666656  114.39099884    0.05000000    0.15000001
   17.11000061  114.33100128    0.05000000    0.15000001
   17.11611176  114.33100128    0.05000000    0.15000001
   17.12027740  114.15799713    0.05000000    0.15000001
   17.12055588  114.51599884    0.05000000    0.15000001
   17.12388992  116.13200378    0.05000000    0.15000001
   17.12722206  122.27700043    0.05000000    0.15000001
   17.13027763  120.38800049    0.05000000    0.15000001
   17.13361168  117.83100128    0.05000000    0.15000001
   17.13666725  113.78299713    0.05000000    0.15000001
   17.13999939  112.48300171    0.05000000    0.15000001
   17.14333344  115.34100342    0.05000000    0.15000001
   17.14638901  115.48500061    0.05000000    0.15000001
   17.14972115  120.07399750    0.05000000    0.15000001
   17.15305519  123.82700348    0.05000000    0.15000001
   17.15361023  112.08499908    0.05000000    0.15000001
   17.15888786  112.08499908    0.05000000    0.15000001
   17.16305542  116.37799835    0.05000000    0.15000001
   17.16611099  116.89600372    0.05000000    0.15000001
   17.16944313  119.27400208    0.05000000    0.15000001
   17.17277718  112.58799744    0.05000000    0.15000001
   17.17583275  115.82499695    0.05000000    0.15000001
   17.17916679  113.84400177    0.05000000    0.15000001
   17.18222237  112.42299652    0.05000000    0.15000001
   17.18555450  116.32399750    0.05000000    0.15000001
   17.18694305  118.38800049    0.05000000    0.15000001
   17.18916512  112.55400085    0.05000000    0.15000001
   17.19249916  122.16100311    0.05000000    0.15000001
   17.19583321  114.74800110    0.05000000    0.15000001
   17.20166779  114.74800110    0.05000000    0.15000001
   17.20583344  115.52400208    0.05000000    0.15000001
   17.20916748  120.32499695    0.05000000    0.15000001
   17.21222305  113.83399963    0.05000000    0.15000001
   17.21555710  115.84899902    0.05000000    0.15000001
   17.21861076  112.44100189    0.05000000    0.15000001
   17.22027779  113.63300323    0.05000000    0.15000001
   17.22222328  115.88999939    0.05000000    0.15000001
   17.22555542  120.85399628    0.05000000    0.15000001
   17.22888947  121.53500366    0.05000000    0.15000001
   17.23194504  116.52999878    0.05000000    0.15000001
   17.23527718  123.15699768    0.05000000    0.15000001
   17.23861122  116.80799866    0.05000000    0.15000001
   17.24444389  116.80799866    0.05000000    0.15000001
   17.24861145  107.68399811    0.05000000    0.15000001
   17.25194359  117.23600006    0.05000000    0.15000001
   17.25361061  114.62999725    0.05000000    0.15000001
   17.25527763  107.12599945    0.05000000    0.15000001
   17.25861168  120.80100250    0.05000000    0.15000001
   17.26194382  107.62300110    0.05000000    0.15000001
   17.26499939  115.28399658    0.05000000    0.15000001
   17.26833344  114.10600281    0.05000000    0.15000001
   17.27138901  120.37999725    0.05000000    0.15000001
   17.27472115  117.94100189    0.05000000    0.15000001
   17.27805519  113.24800110    0.05000000    0.15000001
   17.28111076  119.66100311    0.05000000    0.15000001
   17.28750038  119.66100311    0.05000000    0.15000001
   17.29138756  119.04499817    0.05000000    0.15000001
   17.29472160  111.63500214    0.05000000    0.15000001
   17.29805565  113.24500275    0.05000000    0.15000001
   17.30111122  115.14299774    0.05000000    0.15000001
   17.30444336  112.61900330    0.05000000    0.15000001
   17.30777740  118.00700378    0.05000000    0.15000001
   17.31083298  113.31600189    0.05000000    0.15000001
   17.31416512  108.44799805    0.05000000    0.15000001
   17.31722260  113.77300262    0.05000000    0.15000001
   17.32027817  116.16799927    0.05000000    0.15000001
   17.32083511  115.53399658    0.05000000    0.15000001
   17.32416725  121.92800140    0.05000000    0.15000001
   17.33027840  121.92800140    0.05000000    0.15000001
   17.33444595  115.24400330    0.05000000    0.15000001
   17.33750153  118.74900055    0.05000000    0.15000001
   17.34083366  112.36699677    0.05000000    0.15000001
   17.34388924  114.79199982    0.05000000    0.15000001
   17.34722328  114.53600311    0.05000000    0.15000001
   17.35055542  110.15599823    0.05000000    0.15000001
   17.35361099  109.35500336    0.05000000    0.15000001
   17.35388947  115.47599792    0.05000000    0.15000001
   17.35722351  116.03900146    0.05000000    0.15000001
   17.36055565  116.24500275    0.05000000    0.15000001
   17.36361122  116.67500305    0.05000000    0.15000001
   17.36694527  119.77500153    0.05000000    0.15000001
   17.37305641  119.77500153    0.05000000    0.15000001
   17.37722206  114.55100250    0.05000000    0.15000001
   17.38055611  113.80200195    0.05000000    0.15000001
   17.38361168  118.34200287    0.05000000    0.15000001
   17.38694382  111.26000214    0.05000000    0.15000001
   17.38722229  113.77700043    0.05000000    0.15000001
   17.39055634  108.28099823    0.05000000    0.15000001
   17.39388847  115.76000214    0.05000000    0.15000001
   17.39694405  111.01200104    0.05000000    0.15000001
   17.40027809  114.19100189    0.05000000    0.15000001
   17.40333366  122.38300323    0.05000000    0.15000001
   17.40666580  114.88400269    0.05000000    0.15000001
   17.40999985  119.05100250    0.05000000    0.15000001
   17.41583252  119.05100250    0.05000000    0.15000001
   17.42000008  115.21900177    0.05000000    0.15000001
   17.42055511  114.48300171    0.05000000    0.15000001
   17.42388916  114.42299652    0.05000000    0.15000001
   17.42694473  112.25099945    0.05000000    0.15000001
   17.43027687  118.22299957    0.05000000    0.15000001
   17.43361092  114.07299805    0.05000000    0.15000001
   17.43666649  122.00399780    0.05000000    0.15000001
   17.43999863  115.55699921    0.05000000    0.15000001
   17.44333267  121.61699677    0.05000000    0.15000001
   17.44638824  120.64600372    0.05000000    0.15000001
   17.44972038  112.63400269    0.05000000    0.15000001
   17.45277786  117.48400116    0.05000000    0.15000001
   17.45388985  124.41400146    0.05000000    0.15000001
   17.45888901  124.41400146    0.05000000    0.15000001
   17.46277809  120.98500061    0.05000000    0.15000001
   17.46611214  121.52100372    0.05000000    0.15000001
   17.46944427  127.54000092    0.05000000    0.15000001
   17.47249985  123.72499847    0.05000000    0.15000001
   17.47583389  124.10900116    0.05000000    0.15000001
   17.47916794  121.57099915    0.05000000    0.15000001
   17.48222351  111.83100128    0.05000000    0.15000001
   17.48555565  121.62500000    0.05000000    0.15000001
   17.48722267  122.64499664    0.05000000    0.15000001
   17.48916626  106.62000275    0.05000000    0.15000001
   17.49222183  124.03299713    0.05000000    0.15000001
   17.49555588  113.85399628    0.05000000    0.15000001
   17.50166702  113.85399628    0.05000000    0.15000001
   17.50583267  125.39299774    0.05000000    0.15000001
   17.50888824  117.38300323    0.05000000    0.15000001
   17.51222229  121.44300079    0.05000000    0.15000001
   17.51555634  111.40299988    0.05000000    0.15000001
   17.51861000  118.49199677    0.05000000    0.15000001
   17.52055550  114.76499939    0.05000000    0.15000001
   17.52222252  116.45700073    0.05000000    0.15000001
   17.52527809  122.09500122    0.05000000    0.15000001
   17.52861023  113.69799805    0.05000000    0.15000001
   17.53194427  120.01300049    0.05000000    0.15000001
   17.53499985  119.25700378    0.05000000    0.15000001
   17.53833199  111.34100342    0.05000000    0.15000001
   17.54444313  111.34100342    0.05000000    0.15000001
   17.54861069  116.40799713    0.05000000    0.15000001
   17.55194283  122.37400055    0.05000000    0.15000001
   17.55388832  119.30300140    0.05000000    0.15000001
   17.55555534  120.48300171    0.05000000    0.15000001
   17.55888748  120.36799622    0.05000000    0.15000001
   17.56194305  124.80599976    0.05000000    0.15000001
   17.56527710  118.36299896    0.05000000    0.15000001
   17.56833458  115.54499817    0.05000000    0.15000001
   17.57166672  117.58699799    0.05000000    0.15000001
   17.57500076  120.02999878    0.05000000    0.15000001
   17.57805634  119.10800171    0.05000000    0.15000001
   17.58139038  126.57099915    0.05000000    0.15000001
   17.58722305  126.57099915    0.05000000    0.15000001
   17.59138870  123.25900269    0.05000000    0.15000001
   17.59472275  128.86900330    0.05000000    0.15000001
   17.59777832  120.60500336    0.05000000    0.15000001
   17.60111237  118.88999939    0.05000000    0.15000001
   17.60444450  117.11599731    0.05000000    0.15000001
   17.60750008  123.74900055    0.05000000    0.15000001
   17.61083412  118.12300110    0.05000000    0.15000001
   17.61416626  128.27000427    0.05000000    0.15000001
   17.61722183  116.07399750    0.05000000    0.15000001
   17.62055588  122.68399811    0.05000000    0.15000001
   17.62222290  125.48100281    0.05000000    0.15000001
   17.62416649  125.94999695    0.05000000    0.15000001
   17.63027763  125.94999695    0.05000000    0.15000001
   17.63416672  123.37599945    0.05000000    0.15000001
   17.63750076  120.05300140    0.05000000    0.15000001
   17.64083290  128.33799744    0.05000000    0.15000001
   17.64388847  124.21199799    0.05000000    0.15000001
   17.64722252  121.35700226    0.05000000    0.15000001
   17.65055466  127.05699921    0.05000000    0.15000001
   17.65361023  123.48799896    0.05000000    0.15000001
   17.65555573  128.39500427    0.05000000    0.15000001
   17.65722275  118.53299713    0.05000000    0.15000001
   17.66055489  117.89199829    0.05000000    0.15000001
   17.66361046  127.30699921    0.05000000    0.15000001
   17.66694450  127.10399628    0.05000000    0.15000001
   17.67305565  127.10399628    0.05000000    0.15000001
   17.67722130  129.09399414    0.05000000    0.15000001
   17.68027687  123.21800232    0.05000000    0.15000001
   17.68361092  122.30999756    0.05000000    0.15000001
   17.68694305  126.05500031    0.05000000    0.15000001
   17.68916512  123.57900238    0.05000000    0.15000001
   17.69055557  131.23599243    0.05000000    0.15000001
   17.69388771  127.66200256    0.05000000    0.15000001
   17.69694328  128.77099609    0.05000000    0.15000001
   17.70027924  127.90200043    0.05000000    0.15000001
   17.70333481  121.97000122    0.05000000    0.15000001
   17.70666695  123.00499725    0.05000000    0.15000001
   17.71000099  112.81800079    0.05000000    0.15000001
   17.71583366  112.81800079    0.05000000    0.15000001
   17.72000122  118.59999847    0.05000000    0.15000001
   17.72249985  117.15399933    0.05000000    0.15000001
   17.72361183  119.04399872    0.05000000    0.15000001
   17.72694588  131.10600281    0.05000000    0.15000001
   17.73000145  134.52499390    0.05000000    0.15000001
   17.73333359  120.59799957    0.05000000    0.15000001
   17.73638916  120.73400116    0.05000000    0.15000001
   17.73972321  116.89499664    0.05000000    0.15000001
   17.74305534  119.56900024    0.05000000    0.15000001
   17.74611092  109.22100067    0.05000000    0.15000001
   17.74944496  118.31600189    0.05000000    0.15000001
   17.75250053  113.87500000    0.05000000    0.15000001
   17.75861168  113.87500000    0.05000000    0.15000001
   17.76277733  117.04100037    0.05000000    0.15000001
   17.76611137  123.88999939    0.05000000    0.15000001
   17.76916695  115.12799835    0.05000000    0.15000001
   17.77249908  114.12699890    0.05000000    0.15000001
   17.77583313  118.06500244    0.05000000    0.15000001
   17.77888870  120.24600220    0.05000000    0.15000001
   17.78222275  116.48699951    0.05000000    0.15000001
   17.78527641  119.44599915    0.05000000    0.15000001
   17.78861046  115.34899902    0.05000000    0.15000001
   17.78972244  122.18499756    0.05000000    0.15000001
   17.79222107  121.84300232    0.05000000    0.15000001
   17.79555511  122.64600372    0.05000000    0.15000001
   17.80166626  122.64600372    0.05000000    0.15000001
   17.80555534  114.71199799    0.05000000    0.15000001
   17.80888748  126.47100067    0.05000000    0.15000001
   17.81222153  130.80799866    0.05000000    0.15000001
   17.81527710  132.04699707    0.05000000    0.15000001
   17.81861115  113.13899994    0.05000000    0.15000001
   17.82194519  117.73699951    0.05000000    0.15000001
   17.82305717  123.76999664    0.05000000    0.15000001
   17.82555580  126.83100128    0.05000000    0.15000001
   17.82888985  116.69499969    0.05000000    0.15000001
   17.83194542  121.27799988    0.05000000    0.15000001
   17.83527756  123.98500061    0.05000000    0.15000001
   17.83861160  121.86100006    0.05000000    0.15000001
   17.84444427  121.86100006    0.05000000    0.15000001
   17.84861183  118.14099884    0.05000000    0.15000001
   17.85166740  120.79299927    0.05000000    0.15000001
   17.85499954  124.48899841    0.05000000    0.15000001
   17.85639000  125.51799774    0.05000000    0.15000001
   17.85861206  123.54699707    0.05000000    0.15000001
   17.86166763  132.76699829    0.05000000    0.15000001
   17.86499977  131.11399841    0.05000000    0.15000001
   17.86833382  125.23799896    0.05000000    0.15000001
   17.87138939  127.65799713    0.05000000    0.15000001
   17.87472153  125.30100250    0.05000000    0.15000001
   17.87805557  121.16400146    0.05000000    0.15000001
   17.88111115  121.17199707    0.05000000    0.15000001
   17.88722229  121.17199707    0.05000000    0.15000001
   17.90555573  121.43299866    0.05000000    0.15000001
   17.90888786  122.50599670    0.05000000    0.15000001
   17.91222191  124.10800171    0.05000000    0.15000001
   17.91527748  120.70300293    0.05000000    0.15000001
   17.91860962  127.33399963    0.05000000    0.15000001
   17.92166519  128.41299438    0.05000000    0.15000001
   17.92499924  128.32099915    0.05000000    0.15000001
   17.93027687  128.32099915    0.05000000    0.15000001
   17.93444443  113.95500183    0.05000000    0.15000001
   17.93777657  120.51200104    0.05000000    0.15000001
   17.93861008  115.95899963    0.05000000    0.15000001
   17.94138718  119.80599976    0.05000000    0.15000001
   17.94444275  105.86299896    0.05000000    0.15000001
   17.94777679  116.44300079    0.05000000    0.15000001
   17.95111275  117.41300201    0.05000000    0.15000001
   17.95416832  117.14900208    0.05000000    0.15000001
   17.95750046  118.48600006    0.05000000    0.15000001
   17.96083450  113.84600067    0.05000000    0.15000001
   17.96389008  120.60099792    0.05000000    0.15000001
   17.96722221  120.59999847    0.05000000    0.15000001
   17.97305679  120.59999847    0.05000000    0.15000001
   17.97722244  118.07399750    0.05000000    0.15000001
   17.98055649  122.46099854    0.05000000    0.15000001
   17.98361206  123.16100311    0.05000000    0.15000001
   17.98694420  130.36000061    0.05000000    0.15000001
   17.99027824  125.27700043    0.05000000    0.15000001
   17.99333382  121.21099854    0.05000000    0.15000001
   17.99666786  123.09400177    0.05000000    0.15000001
   18.00000000  124.18199921    0.05000000    0.15000001
   18.00305557  123.79199982    0.05000000    0.15000001
   18.00527763  124.95099640    0.05000000    0.15000001
   18.00694466  123.25900269    0.05000000    0.15000001
   18.01000023  116.90100098    0.05000000    0.15000001
   18.01611137  116.90100098    0.05000000    0.15000001
   18.02000046  123.26599884    0.05000000    0.15000001
   18.02333260  128.72999573    0.05000000    0.15000001
   18.02666664  120.05799866    0.05000000    0.15000001
   18.02972221  115.38500214    0.05000000    0.15000001
   18.03305435  125.95800018    0.05000000    0.15000001
   18.03638840  117.45400238    0.05000000    0.15000001
   18.03861046  127.58100128    0.05000000    0.15000001
   18.03999901  119.47100067    0.05000000    0.15000001
   18.04305458  117.65599823    0.05000000    0.15000001
   18.04638863  126.58200073    0.05000000    0.15000001
   18.04972076  118.95800018    0.05000000    0.15000001
   18.05277634  127.82099915    0.05000000    0.15000001
   18.05888748  127.82099915    0.05000000    0.15000001
   18.06305504  119.38700104    0.05000000    0.15000001
   18.06611061  128.75500488    0.05000000    0.15000001
   18.06944466  125.37799835    0.05000000    0.15000001
   18.07194519  122.52999878    0.05000000    0.15000001
   18.07305717  122.18599701    0.05000000    0.15000001
   18.07638931  120.24500275    0.05000000    0.15000001
   18.07944489  120.39900208    0.05000000    0.15000001
   18.08277893  117.41699982    0.05000000    0.15000001
   18.08583450  108.59300232    0.05000000    0.15000001
   18.08916664  119.87899780    0.05000000    0.15000001
   18.09250069  124.63800049    0.05000000    0.15000001
   18.09555626  120.43399811    0.05000000    0.15000001
   18.10166740  120.43399811    0.05000000    0.15000001
   18.10583305  119.66899872    0.05000000    0.15000001
   18.10916710  125.51300049    0.05000000    0.15000001
   18.11222267  115.64700317    0.05000000    0.15000001
   18.11555672  124.63500214    0.05000000    0.15000001
   18.11861038  120.58999634    0.05000000    0.15000001
   18.12194443  131.65199280    0.05000000    0.15000001
   18.12527847  114.91799927    0.05000000    0.15000001
   18.12833405  127.44999695    0.05000000    0.15000001
   18.13166618  124.32399750    0.05000000    0.15000001
   18.13500023  125.32499695    0.05000000    0.15000001
   18.13805580  122.99500275    0.05000000    0.15000001
   18.13861084  117.59200287    0.05000000    0.15000001
   18.14444351  117.59200287    0.05000000    0.15000001
   18.14861107  119.10800171    0.05000000    0.15000001
   18.15194321  118.85600281    0.05000000    0.15000001
   18.15499878  123.96199799    0.05000000    0.15000001
   18.15833282  123.57399750    0.05000000    0.15000001
   18.16166687  117.43599701    0.05000000    0.15000001
   18.16472244  113.06800079    0.05000000    0.15000001
   18.16805458  119.69699860    0.05000000    0.15000001
   18.17138863  125.51399994    0.05000000    0.15000001
   18.17194366  125.08100128    0.05000000    0.15000001
   18.17499924  121.72599792    0.05000000    0.15000001
   18.17833328  118.95999908    0.05000000    0.15000001
   18.18138885  121.46700287    0.05000000    0.15000001
   18.18750000  121.46700287    0.05000000    0.15000001
   18.19138718  114.11699677    0.05000000    0.15000001
   18.19472122  114.58899689    0.05000000    0.15000001
   18.19805527  112.88999939    0.05000000    0.15000001
   18.20111275  113.70300293    0.05000000    0.15000001
   18.20444489  114.32800293    0.05000000    0.15000001
   18.20527840  115.48300171    0.05000000    0.15000001
   18.20805550  107.67400360    0.05000000    0.15000001
   18.21138954  119.94799805    0.05000000    0.15000001
   18.21444511  119.85600281    0.05000000    0.15000001
   18.21777916  121.87899780    0.05000000    0.15000001
   18.22083473  110.60500336    0.05000000    0.15000001
   18.22416687  106.08699799    0.05000000    0.15000001
   18.23027802  106.08699799    0.05000000    0.15000001
   18.23444557  118.44699860    0.05000000    0.15000001
   18.23750114  126.00099945    0.05000000    0.15000001
   18.23861122  120.63200378    0.05000000    0.15000001
   18.24111176  122.08300018    0.05000000    0.15000001
   18.24444389  121.87999725    0.05000000    0.15000001
   18.24749947  120.60700226    0.05000000    0.15000001
   18.25083351  123.31700134    0.05000000    0.15000001
   18.25388908  116.37699890    0.05000000    0.15000001
   18.25722313  120.69799805    0.05000000    0.15000001
   18.26055527  120.03099823    0.05000000    0.15000001
   18.26361084  111.60900116    0.05000000    0.15000001
   18.26694489  112.65599823    0.05000000    0.15000001
   18.27305603  112.65599823    0.05000000    0.15000001
   18.27722168  122.51999664    0.05000000    0.15000001
   18.28055573  126.62200165    0.05000000    0.15000001
   18.28361130  123.72200012    0.05000000    0.15000001
   18.28694344  125.74299622    0.05000000    0.15000001
   18.29027748  126.25299835    0.05000000    0.15000001
   18.29333305  127.04399872    0.05000000    0.15000001
   18.29666710  125.92299652    0.05000000    0.15000001
   18.29972076  129.34199524    0.05000000    0.15000001
   18.30305481  128.84700012    0.05000000    0.15000001
   18.30527687  127.28099823    0.05000000    0.15000001
   18.30666542  132.18099976    0.05000000    0.15000001
   18.30999947  131.30200195    0.05000000    0.15000001
   18.31583214  131.30200195    0.05000000    0.15000001
   18.32000160  136.18600464    0.05000000    0.15000001
   18.32333374  131.78700256    0.05000000    0.15000001
   18.32666779  134.17300415    0.05000000    0.15000001
   18.32972336  125.55300140    0.05000000    0.15000001
   18.33305550  137.28599548    0.05000000    0.15000001
   18.33611107  113.82499695    0.05000000    0.15000001
   18.33861160  123.39700317    0.05000000    0.15000001
   18.34000015  128.33000183    0.05000000    0.15000001
   18.34333420  131.41000366    0.05000000    0.15000001
   18.34638977  134.13900757    0.05000000    0.15000001
   18.34972191  126.49900055    0.05000000    0.15000001
   18.35277748  128.20100403    0.05000000    0.15000001
   18.35888863  128.20100403    0.05000000    0.15000001
   18.36277771  122.17099762    0.05000000    0.15000001
   18.36611176  124.24099731    0.05000000    0.15000001
   18.36944389  123.43399811    0.05000000    0.15000001
   18.37194443  128.99400330    0.05000000    0.15000001
   18.37305641  120.39299774    0.05000000    0.15000001
   18.37638855  126.82499695    0.05000000    0.15000001
   18.37944412  130.25300598    0.05000000    0.15000001
   18.38277817  125.62100220    0.05000000    0.15000001
   18.38583374  134.82099915    0.05000000    0.15000001
   18.38916588  129.03900146    0.05000000    0.15000001
   18.39249992  124.70800018    0.05000000    0.15000001
   18.39555550  121.93900299    0.05000000    0.15000001
   18.40166664  121.93900299    0.05000000    0.15000001
   18.40583229  135.38699341    0.05000000    0.15000001
   18.40916634  137.20100403    0.05000000    0.15000001
   18.41222191  124.98300171    0.05000000    0.15000001
   18.41555595  127.42400360    0.05000000    0.15000001
