    HOUR (UT)   FLARE FACTOR    SKY TESTER    SUN TESTER
   12.25888920   -1.00000000   -1.00000000   -1.00000000
   12.29194450  199.99000549    4.90999985    1.63000000
   12.29500008  254.33999634    4.90999985    1.69000006
   12.29833412  283.49301147    4.90999985    1.73000002
   12.30166721  185.05799866    4.90999985    1.73000002
   12.30472279  232.36599731    4.90999985    1.73000002
   12.30805588  194.80299377    4.90999985    1.75000000
   12.31222248  194.80299377    4.90999985    1.83000004
   12.31638908  180.18800354    4.90999985    1.83000004
   12.31972218  231.51400757    4.90999985    1.83000004
   12.32277775  177.75300598    4.90999985    1.83000004
   12.32527733  185.72399902    4.90999985    1.80999994
   12.32638836  207.40299988    4.90999985    1.78999996
   12.32972240  178.54499817    4.90999985    1.71000004
   12.33277798   -1.00000000    4.90999985    1.64999998
   12.33611107   -1.00000000    4.90999985    1.63000000
   12.33944416   -1.00000000    4.90999985    1.61000001
   12.34249973   -1.00000000    4.90999985    1.61000001
   12.34583282   37.89580154    4.90999985    1.60000002
   12.34916592   -1.00000000    4.90999985    1.53999996
   12.35500050   -1.00000000    4.90999985    1.46000004
   12.35916710   -1.00000000    4.90999985    1.44000006
   12.36250019   -1.00000000    4.90999985    1.39999998
   12.36555576   -1.00000000    4.90999985    1.36000001
   12.36888885   -1.00000000    4.90999985    1.38000000
   12.37194443   -1.00000000    4.90999985    1.44000006
   12.37527752   -1.00000000    4.90999985    1.48000002
   12.37861156   -1.00000000    4.90999985    1.48000002
   12.38166714   -1.00000000    4.90999985    1.48000002
   12.38500023   -1.00000000    4.90999985    1.48000002
   12.38833332   -1.00000000    4.90999985    1.41999996
   12.39138889   -1.00000000    4.90999985    1.39999998
   12.39777756   -1.00000000    4.90999985    1.33000004
   12.40194416   -1.00000000    4.90999985    1.21000004
   12.40527725   -1.00000000    4.90999985    1.16999996
   12.40861034   -1.00000000    4.90999985    1.21000004
   12.41166592   -1.00000000    4.90999985    1.26999998
   12.41499996   -1.00000000    4.90999985    1.36000001
   12.41805553   -1.00000000    4.90999985    1.46000004
   12.42138958   -1.00000000    4.90999985    1.51999998
   12.42472267   -1.00000000    4.90999985    1.51999998
   12.42805576   -1.00000000    4.90999985    1.51999998
   12.43138885   -1.00000000    4.90999985    1.51999998
   12.43472195   -1.00000000   -1.00000000   -1.00000000
   12.44083309   -1.00000000   -1.00000000   -1.00000000
   12.44472218   23.57019997    4.90999985    1.60000002
   12.44805527   77.08080292    4.90999985    1.61000001
   12.45138836   -1.00000000   -1.00000000   -1.00000000
   12.45444393  260.61199951    4.90999985    1.66999996
   12.45777798  201.89900208    4.90999985    1.71000004
   12.45861053  184.05000305    4.90999985    1.71000004
   12.46138859  224.68800354    4.90999985    1.76999998
   12.46444416  177.39100647    4.90999985    1.80999994
   12.46777725  209.65899658    4.90999985    1.86000001
   12.47111034  169.53599548    4.90999985    1.86000001
   12.47416592  196.44099426    4.90999985    1.85000002
   12.47749996  241.90499878    4.90999985    1.80999994
   12.48361111  241.90499878    4.90999985    1.86000001
   12.48777771  130.64999390    4.90999985    1.88000000
   12.49083328  212.47999573    4.90999985    1.85000002
   12.49194431  153.03100586    4.90999985    1.85000002
   12.49472237  126.06099701    4.90999985    1.88000000
   12.49777794  156.69900513    4.90999985    1.94000006
   12.50111103  127.39299774    4.90999985    2.00000000
   12.50444412  105.70500183    4.90999985    2.00000000
   12.50749969  118.99800110    4.90999985    2.03999996
   12.51083374  131.49600220    4.90999985    2.03999996
   12.51416683  160.34899902    4.90999985    2.03999996
   12.51722240  170.54299927    4.90999985    2.00000000
   12.52055550  173.75799561    4.90999985    1.98000002
   12.52638817  173.75799561    4.90999985    1.96000004
   12.53055573  174.92300415    4.90999985    1.98000002
   12.53388977  151.73100281    4.90999985    2.01999998
   12.53694534  128.11000061    4.90999985    2.03999996
   12.54027843  119.39099884    4.90999985    2.00000000
   12.54333401  108.68800354    4.90999985    2.07999992
   12.54666710  105.91699982    4.90999985    2.19000006
   12.55000019  117.75599670    4.90999985    2.21000004
   12.55305576  115.08100128    4.90999985    2.23000002
   12.55638885  100.59100342    4.90999985    2.23000002
   12.55861092  108.63200378    4.90999985    2.26999998
   12.56000042  104.33699799    4.90999985    2.26999998
   12.56305599  115.65100098    4.90999985    2.23000002
   12.56916618  115.65100098    4.90999985    2.15000010
   12.57333374  112.02999878    4.90999985    2.15000010
   12.57666683  127.08599854    4.90999985    2.13000011
   12.57972240  116.34700012    4.90999985    2.13000011
   12.58305550  109.80500031    4.90999985    2.07999992
   12.58638859  126.31500244    4.90999985    2.07999992
   12.58944416  100.41200256    4.90999985    2.05999994
   12.59194374   98.41860199    4.90999985    2.07999992
   12.59333324   99.60769653    4.90999985    2.11999989
   12.59638882  108.61599731    4.90999985    2.11999989
   12.59972191  104.82900238    4.90999985    2.09999990
   12.60305595  113.67800140    4.90999985    2.01999998
   12.60611153  105.53600311    4.90999985    2.01999998
   12.61222267  105.53600311    4.90999985    2.07999992
   12.61611176  108.55799866    4.90999985    2.17000008
   12.61944485  103.44100189    4.90999985    2.23000002
   12.62277794   98.05670166    4.90999985    2.25000000
   12.62527752   95.05709839    4.90999985    2.25000000
   12.62638855  102.45500183    4.90999985    2.25000000
   12.62944412   98.50209808    4.90999985    2.25000000
   12.63277817   93.14119720    4.90999985    2.25000000
   12.63611126   90.93930054    4.90999985    2.25000000
   12.63916683  103.80899811    4.90999985    2.23000002
   12.64249992   87.93750000    4.90999985    2.21000004
   12.64583302   98.26370239    4.90999985    2.21000004
   12.64888859   97.28420258    4.90999985    2.21000004
   12.65499973   97.28420258    4.90999985    2.17000008
   12.65916634   92.70989990    4.90999985    2.17000008
   12.66222191  105.39600372    4.90999985    2.15000010
   12.66555500  105.13300323    4.90999985    2.15000010
   12.66888905  107.34500122    4.90999985    2.17000008
   12.67194462   93.17140198    4.90999985    2.21000004
   12.67527771  103.99099731    4.90999985    2.19000006
   12.67833328  109.61900330    4.90999985    2.15000010
   12.68166733  111.82800293    4.90999985    2.11999989
   12.68500042   96.25830078    4.90999985    2.09999990
   12.68805599  109.61900330    4.90999985    2.07999992
   12.69138908  101.54799652    4.90999985    2.07999992
   12.69194412  109.16100311    4.90999985    2.09999990
   12.69777775  109.16100311    4.90999985    2.01999998
   12.70194435  121.93499756    4.90999985    2.00000000
   12.70527744  108.68000031    4.90999985    1.96000004
   12.70833302  123.37699890    4.90999985    1.96000004
   12.71166611  134.88600159    4.90999985    2.00000000
   12.71500015  108.75099945    4.90999985    2.01999998
   12.71805477  113.97399902    4.90999985    2.00000000
   12.72138882  106.04100037    4.90999985    2.03999996
   12.72472191  111.31099701    4.90999985    2.03999996
   12.72527695  131.31500244    4.90999985    2.03999996
   12.72833252  111.03299713    4.90999985    2.05999994
   12.73166656  124.10199738    4.90999985    2.07999992
   12.73472214  105.95500183    4.90999985    2.07999992
   12.74055576  105.95500183    4.90999985    2.09999990
   12.74472237  107.78600311    4.90999985    2.07999992
   12.74805546  123.17700195    4.90999985    2.09999990
   12.75111103  111.11499786    4.90999985    2.05999994
   12.75444412  127.46600342    4.90999985    2.05999994
   12.75777817  119.86699677    4.90999985    2.03999996
   12.75861073  112.28299713    4.90999985    2.05999994
   12.76138878  101.36900330    4.90999985    2.11999989
   12.76472187  114.78800201    4.90999985    2.11999989
   12.76777744  126.54399872    4.90999985    2.09999990
   12.77111053   97.47630310    4.90999985    2.09999990
   12.77416611  108.72200012    4.90999985    2.09999990
   12.77750015  116.95300293    4.90999985    2.05999994
   12.78361130  116.95300293    4.90999985    2.07999992
   12.78750038  110.12400055    4.90999985    2.09999990
   12.79083347  121.31999969    4.90999985    2.09999990
   12.79194450  124.93099976    4.90999985    2.09999990
   12.79444504  135.21600342    4.90999985    2.07999992
   12.79777813  136.16000366    4.90999985    2.03999996
   12.80083370  121.49299622    4.90999985    1.96000004
   12.80416679  147.12899780    4.90999985    1.98000002
   12.80722237  152.15899658    4.90999985    1.98000002
   12.81055546  124.20400238    4.90999985    1.98000002
   12.81388950  119.50900269    4.90999985    1.98000002
   12.81694412  114.56300354    4.90999985    2.00000000
   12.82027817  125.71900177    4.90999985    2.03999996
   12.82638836  125.71900177    4.90999985    2.09999990
   12.83055592  106.77799988    4.90999985    2.09999990
   12.83361053  116.33499908    4.90999985    2.09999990
   12.83694458  137.20100403    4.90999985    2.01999998
   12.84027767  184.95500183    4.90999985    1.96000004
   12.84333324  176.57699585    4.90999985    1.86000001
   12.84666634  161.21899414    4.90999985    1.89999998
   12.84972191  133.11000061    4.90999985    1.96000004
   12.85305595  192.28300476    4.90999985    1.98000002
   12.85638905  222.05000305    4.90999985    1.89999998
   12.85861111  201.16999817    4.90999985    1.89999998
   12.86000061  200.25500488    4.90999985    1.89999998
   12.86333370  191.69999695    4.90999985    1.88000000
   12.86916637  191.69999695    4.90999985    1.86000001
   12.87333393  182.88900757    4.90999985    1.88000000
   12.87638855  213.69200134    4.90999985    1.88000000
   12.87972260  281.47299194    4.90999985    1.83000004
   12.88305569  148.68299866    4.90999985    1.85000002
   12.88611126  159.19299316    4.90999985    1.91999996
   12.88944435  112.93900299    4.90999985    2.00000000
   12.89194393  113.41999817    4.90999985    2.07999992
   12.89305496  122.92500305    4.90999985    2.09999990
   12.89638901  126.31600189    4.90999985    2.11999989
   12.89944458  110.97100067    4.90999985    2.09999990
   12.90277767  119.38899994    4.90999985    2.09999990
   12.90583324  113.66799927    4.90999985    2.11999989
   12.91194439  113.66799927    4.90999985    2.13000011
   12.91611099  115.47599792    4.90999985    2.13000011
   12.91944504  124.32599640    4.90999985    2.13000011
   12.92250061  127.05200195    4.90999985    2.13000011
   12.92527771  114.23500061    4.90999985    2.13000011
   12.92611122  119.77400208    4.90999985    2.13000011
   12.92944431  135.20899963    4.90999985    2.09999990
   12.93249989  178.31100464    4.90999985    2.00000000
   12.93583298  244.33599854    4.90999985    1.91999996
   12.93888855  236.11900330    4.90999985    1.86000001
   12.94222260  260.87200928    4.90999985    1.85000002
   12.94555569  179.74099731    4.90999985    1.85000002
   12.94888878  185.34500122    4.90999985    1.88000000
   12.95499992  185.34500122    4.90999985    1.89999998
   12.95888901  147.41499329    4.90999985    1.94000006
   12.96222210  146.74699402    4.90999985    1.98000002
   12.96555519  140.20500183    4.90999985    2.00000000
   12.96861076  166.93600464    4.90999985    2.01999998
   12.97194386  166.14300537    4.90999985    1.98000002
   12.97499943  158.39799500    4.90999985    1.96000004
   12.97833252  177.46400452    4.90999985    1.98000002
   12.98166656  154.73699951    4.90999985    2.00000000
   12.98472214  162.61599731    4.90999985    2.00000000
   12.98805618  192.57899475    4.90999985    2.00000000
   12.99138927  256.54098511    4.90999985    1.96000004
   12.99194431  195.52799988    4.90999985    1.94000006
   12.99777794  195.52799988    4.90999985    1.85000002
   13.00194454  253.43200684    4.90999985    1.88000000
   13.00500011  311.67599487    4.90999985    1.85000002
   13.00722218  261.71099854    4.90999985    1.85000002
   13.00833321   47.36729813    4.90999985    1.83000004
   13.00861073  256.54098511    4.90999985    1.96000004
   13.00861073  253.43200684    4.90999985    1.88000000
   13.00861073  311.67599487    4.90999985    1.85000002
   13.00888920  166.14300537    4.90999985    1.98000002
   13.00888920  158.39799500    4.90999985    1.96000004
   13.00888920  177.46400452    4.90999985    1.98000002
   13.00916672  154.73699951    4.90999985    2.00000000
   13.00916672  162.61599731    4.90999985    2.00000000
   13.00916672  192.57899475    4.90999985    2.00000000
   13.01000023   77.34429932    4.90999985    1.75000000
   13.01333332   -1.00000000    4.90999985    1.69000006
   13.01638889  121.97499847    4.90999985    1.69000006
   13.01972198  180.28799438    4.90999985    1.73000002
   13.02305508  131.69099426    4.90999985    1.78999996
   13.02916622  131.69099426    4.90999985    1.89999998
   13.03333378  151.26600647    4.90999985    2.00000000
   13.03666687  152.37199402    4.90999985    2.03999996
   13.03972244  196.22099304    4.90999985    2.01999998
   13.04222298  220.67999268    4.90999985    1.98000002
   13.04361153  195.84399414    4.90999985    1.91999996
   13.04666710  336.79598999    4.90999985    1.85000002
   13.04888916  325.10198975    4.90999985    1.80999994
   13.05000019  281.29400635    4.90999985    1.80999994
   13.05166721  191.27099609    4.90999985    1.86000001
   13.05194473  336.79598999    4.90999985    1.85000002
   13.05194473   -1.00000000    4.90999985    1.69000006
   13.05222225  121.97499847    4.90999985    1.69000006
   13.05222225  180.28799438    4.90999985    1.73000002
   13.05222225  131.69099426    4.90999985    1.78999996
   13.05249977  151.26600647    4.90999985    2.00000000
   13.05249977  152.37199402    4.90999985    2.03999996
   13.05249977  196.22099304    4.90999985    2.01999998
   13.05277824  195.84399414    4.90999985    1.91999996
   13.05333328  206.38800049    4.90999985    1.89999998
   13.05638885  272.59298706    4.90999985    1.94000006
   13.05972195  197.55299377    4.90999985    1.89999998
   13.06277752   -1.00000000    4.90999985    1.75000000
   13.06611156   -1.00000000    4.90999985    1.63000000
   13.07250023   -1.00000000    4.90999985    1.58000004
   13.07666683   -1.00000000    4.90999985    1.61000001
   13.07999992  211.69400024    4.90999985    1.71000004
   13.08333302  143.80799866    4.90999985    1.88000000
   13.08555508  112.53099823    4.90999985    2.00000000
   13.08694458  117.73500061    4.90999985    2.01999998
   13.09027767  121.13099670    4.90999985    2.11999989
   13.09333324  109.85199738    4.90999985    2.19000006
   13.09666634  103.90799713    4.90999985    2.21000004
   13.10000038  105.44999695    4.90999985    2.21000004
   13.10305595  108.26599884    4.90999985    2.17000008
   13.10638905  109.14600372    4.90999985    2.17000008
   13.10944462  103.61399841    4.90999985    2.17000008
   13.11555576  103.61399841    4.90999985    2.21000004
   13.11972237  101.65699768    4.90999985    2.21000004
   13.12277794  104.54799652    4.90999985    2.21000004
   13.12611103  113.73100281    4.90999985    2.21000004
   13.12916660  109.38800049    4.90999985    2.21000004
   13.13249969  107.88400269    4.90999985    2.21000004
   13.13583279  113.37400055    4.90999985    2.17000008
   13.13888836  110.92700195    4.90999985    2.11999989
   13.14222240  118.46099854    4.90999985    2.09999990
   13.14555550  115.08100128    4.90999985    2.17000008
   13.14861107  108.86599731    4.90999985    2.19000006
   13.15194416  106.40599823    4.90999985    2.19000006
   13.15249920   97.96240234    4.90999985    2.19000006
   13.15833282   97.96240234    4.90999985    2.25000000
   13.16249943  109.64399719    4.90999985    2.23000002
   13.16555500  120.45800018    4.90999985    2.23000002
   13.16888905  110.07399750    4.90999985    2.23000002
   13.17222214  108.66400146    4.90999985    2.25000000
   13.17527771  115.04599762    4.90999985    2.21000004
   13.17861176  108.94599915    4.90999985    2.21000004
   13.18194485  109.90599823    4.90999985    2.17000008
   13.18500042  119.65000153    4.90999985    2.19000006
   13.18583298  113.52500153    4.90999985    2.19000006
   13.18888855  108.57800293    4.90999985    2.21000004
   13.19194412  104.69400024    4.90999985    2.21000004
   13.19527817  112.82700348    4.90999985    2.21000004
   13.20111084  112.82700348    4.90999985    2.19000006
   13.20527744  134.32899475    4.90999985    2.15000010
   13.20861053  130.62899780    4.90999985    2.13000011
   13.21166611  134.98100281    4.90999985    2.11999989
   13.21500015  159.20500183    4.90999985    2.03999996
   13.21833324  120.93199921    4.90999985    2.07999992
   13.21916580  108.80000305    4.90999985    2.07999992
   13.22194386  112.99299622    4.90999985    2.15000010
   13.22499943  120.14399719    4.90999985    2.19000006
   13.22833252  118.13099670    4.90999985    2.15000010
   13.23138809  116.37999725    4.90999985    2.17000008
   13.23472214  134.73399353    4.90999985    2.17000008
   13.23805618  123.20999908    4.90999985    2.17000008
   13.24388885  123.20999908    4.90999985    2.13000011
   13.24805546  109.84600067    4.90999985    2.15000010
   13.25138855  106.88700104    4.90999985    2.19000006
   13.25249958  119.83999634    4.90999985    2.19000006
   13.25500011  125.06300354    4.90999985    2.17000008
   13.25805569  123.66699982    4.90999985    2.11999989
   13.26138878  139.41900635    4.90999985    2.09999990
   13.26444435  135.92900085    4.90999985    2.05999994
   13.26777744  134.88999939    4.90999985    2.05999994
   13.27111053  125.52500153    4.90999985    2.01999998
   13.27416611  155.27099609    4.90999985    1.98000002
   13.27750015  135.74899292    4.90999985    2.01999998
   13.28083324  150.74600220    4.90999985    2.03999996
   13.28694534  150.74600220    4.90999985    2.05999994
   13.29083347  145.22700500    4.90999985    2.03999996
   13.31055546  136.04400635    4.90999985    2.07999992
   13.31388950  125.35399628    4.90999985    2.07999992
   13.31694412  118.18099976    4.90999985    2.07999992
   13.31944466  118.27700043    4.90999985    2.11999989
   13.32055569  118.24800110    4.90999985    2.13000011
   13.32388878  110.90100098    4.90999985    2.17000008
   13.32999992  110.90100098    4.90999985    2.17000008
   13.33388901  110.30599976    4.90999985    2.23000002
   13.33722210  109.34799957    4.90999985    2.23000002
   13.34055519  122.39800262    4.90999985    2.19000006
   13.34361076  107.84400177    4.90999985    2.21000004
   13.34694386  106.98799896    4.90999985    2.23000002
   13.35027790  103.31400299    4.90999985    2.23000002
   13.35277843  126.16999817    4.90999985    2.23000002
   13.35361195  119.42400360    4.90999985    2.23000002
   13.35694504  124.25599670    4.90999985    2.23000002
   13.36000061  114.61299896    4.90999985    2.21000004
   13.36333370  122.02400208    4.90999985    2.23000002
   13.36666679  119.89900208    4.90999985    2.23000002
   13.37277794  119.89900208    4.90999985    2.19000006
   13.37694454  118.53099823    4.90999985    2.17000008
   13.38000011  134.68400574    4.90999985    2.17000008
   13.38333321  131.38699341    4.90999985    2.15000010
   13.38611126  139.12399292    4.90999985    2.13000011
   13.38694477  128.78300476    4.90999985    2.11999989
   13.39027786  132.36900330    4.90999985    2.13000011
   13.39333344  115.83300018    4.90999985    2.13000011
   13.39666653  114.62000275    4.90999985    2.15000010
   13.39999962  117.85199738    4.90999985    2.15000010
   13.40305519  103.71399689    4.90999985    2.17000008
   13.40638828  112.69699860    4.90999985    2.23000002
   13.40972137  100.92500305    4.90999985    2.25000000
   13.41555500  100.92500305    4.90999985    2.26999998
   13.41972256   98.56150055    4.90999985    2.26999998
   13.42305565  110.70899963    4.90999985    2.26999998
   13.42611122  113.08599854    4.90999985    2.28999996
   13.42944431  105.99800110    4.90999985    2.28999996
   13.43249989  113.34799957    4.90999985    2.28999996
   13.43583298  111.63400269    4.90999985    2.32999992
   13.43916702  104.59200287    4.90999985    2.32999992
   13.44222260   97.03060150    4.90999985    2.34999990
   13.44555569  109.00199890    4.90999985    2.32999992
   13.44888878  113.48200226    4.90999985    2.30999994
   13.45194435  113.23000336    4.90999985    2.30999994
   13.45277786  109.40100098    4.90999985    2.30999994
   13.45833302  109.40100098    4.90999985    2.26999998
   13.46249962  108.15200043    4.90999985    2.26999998
   13.46583271  112.29499817    4.90999985    2.26999998
   13.46888828  117.90799713    4.90999985    2.26999998
   13.47222137  106.99199677    4.90999985    2.25000000
   13.47555542  109.72599792    4.90999985    2.23000002
   13.47861099  107.54299927    4.90999985    2.25000000
   13.48194408  109.86299896    4.90999985    2.25000000
   13.48527813  113.15499878    4.90999985    2.23000002
   13.48611164  106.50000000    4.90999985    2.23000002
   13.48861122  107.89499664    4.90999985    2.23000002
   13.49194431  111.37699890    4.90999985    2.21000004
   13.49527836  124.56199646    4.90999985    2.19000006
   13.50138855  124.56199646    4.90999985    2.19000006
   13.50527763  126.57800293    4.90999985    2.17000008
   13.50861073  140.83299255    4.90999985    2.11999989
   13.51194477  140.29499817    4.90999985    2.07999992
   13.51500034  137.63999939    4.90999985    2.11999989
   13.51833344  135.13299561    4.90999985    2.11999989
   13.51944447  130.30299377    4.90999985    2.13000011
   13.52194405  137.34100342    4.90999985    2.13000011
   13.52527714  130.50500488    4.90999985    2.11999989
   13.52861118  150.16400146    4.90999985    2.09999990
   13.53166676  127.10600281    4.90999985    2.13000011
   13.53500080  122.60299683    4.90999985    2.15000010
   13.53805637  120.20899963    4.90999985    2.17000008
   13.54416752  120.20899963    4.90999985    2.21000004
   13.54833412  113.15699768    4.90999985    2.19000006
   13.55138874  126.82399750    4.90999985    2.19000006
   13.55277824  122.91699982    4.90999985    2.19000006
   13.55500031  119.62000275    4.90999985    2.21000004
   13.55833340  120.88800049    4.90999985    2.23000002
   13.56166649  123.60399628    4.90999985    2.25000000
   13.56472206  104.92800140    4.90999985    2.26999998
   13.56805515  108.61599731    4.90999985    2.23000002
   13.57138920  115.85900116    4.90999985    2.23000002
   13.57444477  106.33799744    4.90999985    2.25000000
   13.57777786  105.28500366    4.90999985    2.32999992
   13.58083344  107.26699829    4.90999985    2.40000010
   13.58694458  107.26699829    4.90999985    2.42000008
   13.59111118   95.94819641    4.90999985    2.42000008
   13.59444427  106.60399628    4.90999985    2.44000006
   13.59749985  100.15299988    4.90999985    2.42000008
   13.60083389  106.44699860    4.90999985    2.40000010
   13.60416698   95.72370148    4.90999985    2.40000010
   13.60722256   96.29869843    4.90999985    2.40000010
   13.61055565  100.51499939    4.90999985    2.42000008
   13.61361122   96.31079865    4.90999985    2.44000006
   13.61694431   98.34279633    4.90999985    2.44000006
   13.61944485  100.65599823    4.90999985    2.46000004
   13.62055588  102.69300079    4.90999985    2.46000004
   13.62388897   95.69339752    4.90999985    2.39000010
   13.62972260   95.69339752    4.90999985    2.39000010
   13.63388920   99.28009796    4.90999985    2.39000010
   13.63722229   97.61009979    4.90999985    2.40000010
   13.64055538  110.51399994    4.90999985    2.40000010
   13.64361095  101.41600037    4.90999985    2.46000004
   13.64694405   93.09200287    4.90999985    2.48000002
   13.65027714  102.13200378    4.90999985    2.48000002
   13.65277767  104.14199829    4.90999985    2.46000004
   13.65361118   99.51529694    4.90999985    2.46000004
   13.65694427  101.24800110    4.90999985    2.48000002
   13.66027737  104.03800201    4.90999985    2.46000004
   13.66333294  122.18399811    4.90999985    2.40000010
   13.66666698  116.49900055    4.90999985    2.36999989
   13.67277813  116.49900055    4.90999985    2.36999989
   13.67694473  103.83399963    4.90999985    2.44000006
   13.68000031   95.93900299    4.90999985    2.48000002
   13.68333340  103.16100311    4.90999985    2.48000002
   13.68611145   98.08460236    4.90999985    2.50000000
   13.68694496  103.37599945    4.90999985    2.50000000
   13.69027805  101.19599915    4.90999985    2.50000000
   13.69361115   96.14160156    4.90999985    2.50000000
   13.69666672   99.10030365    4.90999985    2.50000000
   13.69999981   99.64710236    4.88999987    2.50000000
   13.70305538  102.27400208    4.80999994    2.50000000
   13.70638847   94.22139740    4.65999985    2.48000002
   13.70972157   98.83609772    4.73999977    2.46000004
   13.71555519   98.83609772    4.90999985    2.48000002
   13.71972179   94.79380035    4.90999985    2.50000000
   13.72277737   92.85659790    4.90999985    2.50000000
   13.72611046   94.78459930    4.90999985    2.50000000
   13.72944355   97.89830017    4.90999985    2.48000002
   13.73249912   96.19850159    4.86999989    2.48000002
   13.73583317   94.40299988    4.76000023    2.46000004
   13.73916721  101.60500336    4.17999983    2.48000002
   13.74222279  100.73799896    4.01999998    2.48000002
   13.74555588   96.13999939    4.42999983    2.51999998
   13.74861145   99.34670258    4.67999983    2.53999996
   13.75194454   97.50180054    4.42999983    2.51999998
   13.75277805  108.98799896    4.34999990    2.51999998
   13.75833321  108.98799896    4.90999985    2.50000000
   13.76249981   98.30889893    4.90999985    2.39000010
   13.76583290  102.71399689    4.90999985    2.40000010
   13.76888847  102.36199951    4.90999985    2.48000002
   13.77222157   95.49759674    4.90999985    2.46000004
   13.77555561   99.64900208    4.90999985    2.55999994
   13.77861118  102.60199738    4.90999985    2.48000002
   13.78194427   99.06809998    4.90999985    2.53999996
   13.78500080   96.31340027    4.46999979    2.53999996
   13.78611183   97.49600220    4.26000023    2.55999994
   13.78861141   96.56729889    3.84999990    2.53999996
   13.79194450   99.47850037    3.26999998    2.53999996
   13.79527855   90.59570313    2.59999990    2.53999996
   13.80111122   90.59570313    2.40000010    2.51999998
   13.80527782   88.90239716    2.50000000    2.51999998
   13.80861092   93.91860199    3.16000009    2.51999998
   13.81194496   89.18840027    3.32999992    2.53999996
   13.81500053   90.38819885    3.21000004    2.50000000
   13.81833363   91.56199646    3.03999996    2.53999996
   13.81944466   93.88700104    3.01999998    2.53999996
   13.82166672   87.29650116    2.94000006    2.53999996
   13.82499981   87.93289948    2.51999998    2.53999996
   13.82833290   89.44010162    2.03999996    2.53999996
   13.83138847   85.82740021    1.76999998    2.55999994
   13.83472157   90.14099884    1.69000006    2.50000000
   13.83805561   92.98899841    2.01999998    2.53999996
   13.84416676   92.98899841    2.11999989    2.55999994
   13.84833336   90.82230377    2.28999996    2.55999994
   13.85138893   95.91049957    2.64000010    2.55999994
   13.85277843   94.00000000    2.80999994    2.53999996
   13.85500050   97.48600006    2.80999994    2.53999996
   13.85833359   97.31790161    2.96000004    2.48000002
   13.86166668  101.22200012    2.89000010    2.40000010
   13.86472225   97.65019989    3.36999989    2.51999998
   13.86805534   92.62030029    3.09999990    2.53999996
   13.87138939   92.40280151    2.28999996    2.55999994
   13.87444496   90.25499725    1.63000000    2.53999996
   13.87777805   92.29589844    1.58000004    2.55999994
   13.88083363   93.04170227    1.61000001    2.55999994
   13.88694477   93.04170227    1.26999998    2.55999994
   13.89111137   90.00700378    1.13000000    2.55999994
   13.89416695   90.61679840    1.07000005    2.55999994
   13.89750004   91.53350067    1.05999994    2.55999994
   13.90083313   93.15039825    1.14999998    2.55999994
   13.90388870   92.34349823    1.33000004    2.53999996
   13.90722179   93.10510254    1.44000006    2.53999996
   13.91055489   88.50679779    1.03999996    2.55999994
   13.91361046   88.30590057    0.83999997    2.55999994
   13.91694450   88.66439819    0.69000000    2.55999994
   13.91972256   91.14980316    0.61000001    2.55999994
   13.92083359   90.68620300    0.61000001    2.55999994
   13.92388916   91.12619781    0.56999999    2.55999994
   13.92972279   91.12619781    0.51999998    2.55999994
   13.93388939   86.32540131    0.51999998    2.55999994
   13.93722248   91.33149719    0.51999998    2.55999994
   13.94027805   85.79709625    0.51999998    2.57999992
   13.94361115   85.62850189    0.51999998    2.55999994
   13.94694424   93.57469940    0.51999998    2.55999994
   13.94999981   90.49130249    0.52999997    2.55999994
   13.95277786   94.26730347    0.55000001    2.55999994
   13.95388889   86.63259888    0.55000001    2.55999994
   13.95694447   95.27729797    0.63000000    2.55999994
   13.96027756   93.32119751    0.69000000    2.55999994
   13.96333313   89.25350189    0.67000002    2.55999994
   13.96666622   86.95269775    1.03999996    2.55999994
   13.97249985   86.95269775    0.95999998    2.57999992
   13.97666645   89.50399780    0.95999998    2.57999992
   13.97999954   84.81269836    0.83999997    2.57999992
   13.98333359   91.80390167    0.64999998    2.55999994
   13.98611164   91.59259796    0.56999999    2.57999992
   13.98666668   87.69660187    0.56999999    2.57999992
   13.99000072   84.84470367    0.56999999    2.55999994
   13.99333382   87.95369720    0.55000001    2.57999992
   13.99638939   88.53079987    0.55000001    2.57999992
   13.99972248   90.83789825    0.52999997    2.55999994
   14.00305557   86.93489838    0.52999997    2.57999992
   14.00611115   86.24610138    0.52999997    2.57999992
   14.00944424   90.39189911    0.50000000    2.57999992
   14.01555538   90.39189911    0.50000000    2.57999992
   14.01972198   84.97389984    0.50000000    2.57999992
   14.02277756   86.77130127    0.50000000    2.55999994
   14.02611065   90.27469635    0.50000000    2.57999992
   14.02916622   89.87100220    0.47999999    2.57999992
   14.03249931   88.75070190    0.47999999    2.57999992
   14.03583336   87.36979675    0.46000001    2.57999992
   14.03888893   91.27999878    0.46000001    2.57999992
   14.04222298   87.99069977    0.47999999    2.57999992
   14.04555607   92.16049957    0.50000000    2.57999992
   14.04861164   88.17579651    0.51999998    2.57999992
   14.05194473   92.81690216    0.52999997    2.57999992
   14.05277824   93.00379944    0.52999997    2.57999992
   14.05833340   93.00379944    0.70999998    2.59999990
   14.06250000   84.38089752    0.56999999    2.57999992
   14.06555557   92.70339966    0.51999998    2.57999992
   14.06888866   90.71569824    0.50000000    2.57999992
   14.07222176   87.17289734    0.47999999    2.57999992
   14.07527733   92.95439911    0.47999999    2.57999992
   14.07861137   89.83399963    0.47999999    2.57999992
   14.08194447   88.80560303    0.50000000    2.57999992
   14.08500004   90.35549927    0.50000000    2.57999992
   14.08611107   87.11090088    0.50000000    2.57999992
   14.08888817   86.44110107    0.50000000    2.59999990
   14.09194374   84.50160217    0.51999998    2.59999990
   14.09527779   88.65670013    0.55000001    2.57999992
   14.10111141   88.65670013    0.56999999    2.59999990
   14.10527802   94.60749817    0.58999997    2.57999992
   14.10861111   88.74710083    0.61000001    2.57999992
   14.11166668   87.07689667    0.69000000    2.57999992
   14.11500072   94.09889984    0.79000002    2.57999992
   14.11833382   91.90470123    0.75000000    2.57999992
   14.11944485  101.62599945    0.73000002    2.57999992
   14.12194443   96.67579651    0.76999998    2.57999992
   14.12500000   95.03440094    0.81999999    2.57999992
   14.12833309   92.23930359    0.83999997    2.57999992
   14.13138866   89.17400360    0.80000001    2.57999992
   14.13472176   93.24400330    0.80000001    2.57999992
   14.13805580   92.34580231    0.80000001    2.59999990
   14.14388847   92.34580231    0.51999998    2.57999992
   14.14805508   91.86990356    0.51999998    2.57999992
   14.15138817   96.61489868    0.46000001    2.57999992
   14.15277767   89.23269653    0.46000001    2.57999992
   14.15499973   92.49500275    0.46000001    2.57999992
   14.15805531   88.18240356    0.44000000    2.59999990
   14.16138840   95.70010376    0.44000000    2.59999990
   14.16444397   80.40080261    0.41999999    2.59999990
   14.16777802   90.89689636    0.41999999    2.57999992
   14.17111111   89.37550354    0.41999999    2.59999990
   14.17416668   87.53620148    0.41999999    2.59999990
   14.17750072   87.52079773    0.41999999    2.59999990
   14.18083382   98.32389832    0.44000000    2.59999990
   14.18694496   98.32389832    0.44000000    2.59999990
   14.19111156   91.52940369    0.47999999    2.59999990
   14.19416714   94.04239655    0.47999999    2.59999990
   14.19750023   93.73880005    0.47999999    2.59999990
   14.20055580   90.42220306    0.47999999    2.59999990
   14.20388889   89.09429932    0.47999999    2.59999990
   14.20722198   89.56800079    0.47999999    2.59999990
   14.21027756   94.26470184    0.46000001    2.57999992
   14.21361065   94.53079987    0.47999999    2.59999990
   14.21694374   91.71730042    0.47999999    2.59999990
   14.21944427   93.73539734    0.47999999    2.59999990
   14.22055531   96.03109741    0.47999999    2.59999990
   14.22361088   93.58799744    0.47999999    2.59999990
   14.22972202   93.58799744    0.47999999    2.59999990
   14.23388958   90.36560059    0.47999999    2.59999990
   14.23694515   93.74169922    0.47999999    2.59999990
   14.24027824   88.02529907    0.47999999    2.59999990
   14.24361134   91.23570251    0.47999999    2.59999990
   14.24666691   93.06919861    0.47999999    2.59999990
   14.25000000   83.82129669    0.47999999    2.59999990
   14.25277805   89.23609924    0.47999999    2.59999990
   14.25361156   88.37879944    0.47999999    2.59999990
   14.25666714   88.31629944    0.47999999    2.59999990
   14.26000023   82.79209900    0.47999999    2.59999990
   14.26305580   84.42019653    0.51999998    2.59999990
   14.26638889   86.51339722    0.52999997    2.59999990
   14.27250004   86.51339722    0.52999997    2.59999990
   14.27666664   80.64790344    0.56999999    2.59999990
   14.27999973   83.80690002    0.56999999    2.59999990
   14.28305531   83.68509674    0.58999997    2.59999990
   14.28611183   81.64749908    0.64999998    2.59999990
   14.28694534   83.28569794    0.64999998    2.59999990
   14.29000092   86.31210327    0.67000002    2.61999989
   14.29333401   86.27210236    0.69000000    2.59999990
   14.29638958   91.27829742    0.73000002    2.59999990
   14.29972267   88.81710052    0.79000002    2.59999990
   14.30305576   84.38780212    0.76999998    2.59999990
   14.30611134   82.42130280    0.76999998    2.59999990
   14.30944443   92.13210297    0.73000002    2.59999990
   14.33027744   92.13210297    0.67000002    2.59999990
   14.33444405   83.69529724    0.73000002    2.61999989
   14.33749962   89.16840363    0.73000002    2.61999989
   14.34083271   73.60160065    0.75000000    2.61999989
   14.34416676   88.13040161    0.75000000    2.61999989
   14.34722233   85.43379974    0.86000001    2.61999989
   14.35055637   84.97170258    1.00000000    2.59999990
   14.35361195   92.54720306    1.11000001    2.61999989
   14.35694504   87.22409821    1.16999996    2.61999989
   14.36027813   93.42810059    1.21000004    2.61999989
   14.36111164   94.25789642    1.21000004    2.61999989
   14.36361122   86.40170288    1.21000004    2.61999989
   14.36694431   88.76499939    1.16999996    2.59999990
   14.37305546   88.76499939    1.05999994    2.61999989
   14.37722206   95.33580017    1.05999994    2.59999990
   14.38027763   91.17169952    0.98000002    2.61999989
   14.38361073   88.82489777    0.92000002    2.59999990
   14.38666630   84.85350037    0.92000002    2.61999989
   14.39000034   88.53430176    0.92000002    2.61999989
   14.39333344   87.73380280    0.92000002    2.59999990
   14.39444447   88.16899872    0.92000002    2.59999990
   14.39666653   88.94460297    0.98000002    2.61999989
   14.39999962   89.60890198    0.98000002    2.61999989
   14.40333271   96.44450378    0.86000001    2.61999989
   14.40638828   94.13610077    0.80000001    2.61999989
   14.40972137   91.82759857    0.79000002    2.61999989
   14.41583252   91.82759857    0.89999998    2.61999989
   14.42000008   96.29689789    0.95999998    2.61999989
   14.42305565   90.15769958    0.98000002    2.61999989
   14.42638874   92.22209930    1.05999994    2.61999989
   14.42777824   96.46350098    1.05999994    2.61999989
   14.43000031   86.64450073    1.05999994    2.61999989
   14.43333340   90.16310120    1.05999994    2.61999989
   14.43638897   87.00569916    0.92000002    2.61999989
   14.43972206   85.02500153    0.92000002    2.61999989
   14.44305515   86.50109863    0.94000000    2.61999989
   14.44611073   95.94300079    0.94000000    2.61999989
   14.44944477   91.45709991    1.07000005    2.61999989
   14.45249939   91.89769745    1.11000001    2.61999989
   14.45861053   91.89769745    1.11000001    2.61999989
   14.46277714   87.03469849    1.11000001    2.61999989
   14.46611118   87.79799652    1.11000001    2.61999989
   14.46916580   91.67209625    1.11000001    2.61999989
   14.47249985   87.22470093    1.11000001    2.61999989
   14.47555542   93.77380371    1.11000001    2.61999989
   14.47888851   88.13040161    1.07000005    2.61999989
   14.48222160   86.36609650    1.03999996    2.61999989
   14.48527813   79.28980255    1.01999998    2.61999989
   14.48861122   88.89060211    0.86000001    2.61999989
   14.49194431   88.83380127    0.83999997    2.61999989
   14.49444485   88.11150360    0.83999997    2.61999989
   14.49555588   89.27839661    0.83999997    2.61999989
   14.50138855   89.27839661    0.83999997    2.61999989
   14.50555515   89.29879761    0.76999998    2.61999989
   14.50888920   86.34040070    0.75000000    2.61999989
   14.51194477   91.46289825    0.75000000    2.61999989
   14.51527786   85.37349701    0.73000002    2.64000010
   14.51861095   93.35440063    0.73000002    2.64000010
   14.52166653   91.23639679    0.73000002    2.64000010
   14.52499962   88.36409760    0.73000002    2.61999989
   14.52777767   92.92340088    0.73000002    2.61999989
   14.52861118   87.87560272    0.73000002    2.61999989
   14.53194427   89.45279694    0.61000001    2.64000010
   14.53500080   91.04859924    0.50000000    2.61999989
   14.53833389   96.47090149    0.46000001    2.64000010
   14.54444504   96.47090149    0.46000001    2.61999989
   14.54861164   95.37529755    0.44000000    2.64000010
   14.55166721   92.62000275    0.44000000    2.61999989
   14.55500031   95.43730164    0.46000001    2.64000010
   14.55805588   90.30789948    0.50000000    2.61999989
   14.56111145   92.39399719    0.51999998    2.61999989
   14.56166649   93.18810272    0.51999998    2.61999989
   14.56500053   96.96260071    0.61000001    2.61999989
   14.56805515   91.61139679    0.73000002    2.61999989
   14.57138920   93.82610321    0.75000000    2.61999989
   14.57472229   92.99359894    0.83999997    2.61999989
   14.57777786   99.06159973    0.86000001    2.61999989
   14.58111095   95.36750031    0.92000002    2.61999989
   14.58722210   95.36750031    1.00000000    2.61999989
   14.59138870   86.95539856    1.01999998    2.64000010
   14.59444427   86.75669861    1.11000001    2.61999989
   14.59499931   89.71309662    1.19000006    2.61999989
   14.59833336   86.85310364    1.23000002    2.61999989
   14.60138893   87.69280243    1.25000000    2.61999989
   14.60472298   94.77490234    1.28999996    2.64000010
   14.60805607   88.57499695    1.30999994    2.64000010
   14.61111164   93.37960052    1.23000002    2.61999989
   14.61444473   88.67150116    1.23000002    2.61999989
   14.61750031   86.61460114    1.23000002    2.64000010
   14.62083340   91.46710205    1.23000002    2.61999989
   14.62416649   87.83010101    1.51999998    2.61999989
   14.63000011   87.83010101    1.53999996    2.61999989
   14.63416672   92.20269775    1.55999994    2.61999989
   14.63749981   88.71209717    2.28999996    2.61999989
   14.64055538   84.91609955    2.26999998    2.59999990
   14.64388847   88.75859833    2.13000011    2.59999990
   14.64694405   87.11340332    2.05999994    2.61999989
   14.65027714   93.71279907    2.00000000    2.61999989
   14.65361118   84.07900238    1.86000001    2.61999989
   14.65666676   84.52010345    1.69000006    2.61999989
   14.65999985   89.57209778    1.36000001    2.61999989
   14.66111088   95.68939972    1.36000001    2.61999989
   14.66361046   87.90789795    1.00000000    2.61999989
   14.66694450   88.20240021    0.80000001    2.64000010
   14.67277813   88.20240021    0.70999998    2.64000010
   14.67694473   86.88680267    0.70999998    2.64000010
   14.68027782   84.67829895    0.70999998    2.64000010
   14.68333340   89.50070190    0.70999998    2.64000010
   14.68666649   88.41390228    0.73000002    2.64000010
   14.69000053   91.65160370    0.75000000    2.64000010
   14.69305515   86.21530151    0.80000001    2.64000010
   14.69444466   87.13539886    0.80000001    2.64000010
   14.69666672   90.41259766    1.11000001    2.64000010
   14.69999981   91.87149811    1.30999994    2.64000010
   14.70305538   89.85800171    1.33000004    2.64000010
   14.70638847   87.60169983    1.50000000    2.61999989
   14.70972157   88.65979767    2.25000000    2.64000010
   14.71583271   88.65979767    3.11999989    2.59999990
   14.71972179   87.98480225    3.39000010    2.57999992
   14.72305489   90.13179779    3.41000009    2.59999990
   14.72638798   88.98909760    3.25000000    2.59999990
   14.72805500   86.24259949    3.18000007    2.59999990
   14.72999954   82.47429657    3.16000009    2.59999990
   14.73333359   84.11340332    2.94000006    2.61999989
   14.73638916   83.48690033    2.71000004    2.61999989
   14.73972225   87.76000214    2.61999989    2.59999990
   14.74277782   87.51999664    2.61999989    2.61999989
   14.74611092   81.27300262    2.59999990    2.61999989
   14.74944496   81.70970154    2.61999989    2.61999989
   14.75249958   85.01850128    2.59999990    2.61999989
   14.75861073   85.01850128    2.48000002    2.61999989
   14.76277733   81.66570282    2.51999998    2.61999989
   14.76583290   93.76679993    2.57999992    2.61999989
   14.76916599   90.60070038    2.67000008    2.61999989
   14.77250004   94.73049927    2.66000009    2.61999989
   14.77555561   87.90769958    2.57999992    2.59999990
   14.77888870   90.41799927    2.42000008    2.64000010
   14.78194427   88.29109955    2.05999994    2.61999989
   14.78527832   94.62180328    1.83000004    2.61999989
   14.78861141   85.99469757    1.69000006    2.64000010
   14.79166698   87.44339752    1.53999996    2.61999989
   14.79472256   89.25820160    1.61000001    2.64000010
   14.79555607   86.92849731    1.66999996    2.64000010
   14.80138874   86.92849731    1.66999996    2.64000010
   14.80555534   83.12030029    1.64999998    2.64000010
   14.80888939   87.40309906    1.66999996    2.64000010
   14.81194496   84.51069641    1.71000004    2.64000010
   14.81527805   86.03780365    1.64999998    2.61999989
   14.81833363   84.69539642    1.63000000    2.64000010
   14.82166672   84.58159637    1.61000001    2.64000010
   14.82499981   83.75669861    1.58000004    2.64000010
   14.82805538   82.50189972    1.53999996    2.64000010
   14.82861137   84.84279633    1.51999998    2.64000010
   14.83166695   88.85160065    1.46000004    2.66000009
   14.83500004   89.21219635    1.38000000    2.64000010
   14.83833313   81.42089844    1.38000000    2.64000010
   14.84416676   81.42089844    1.25000000    2.64000010
   14.84833336   90.55120087    1.25000000    2.64000010
   14.85166740   90.90290070    1.25000000    2.64000010
   14.85472298   87.44180298    1.23000002    2.64000010
   14.85805607   87.02870178    1.23000002    2.64000010
   14.86138916   90.69589996    1.30999994    2.64000010
   14.86194515   87.51570129    1.30999994    2.64000010
   14.86500072   86.47399902    1.36000001    2.64000010
   14.86833382   86.00610352    1.41999996    2.64000010
   14.87138939   87.83820343    1.51999998    2.64000010
   14.87472248   86.66629791    1.51999998    2.64000010
   14.87805557   91.76760101    1.55999994    2.64000010
   14.88111115   86.64530182    1.48000002    2.64000010
   14.88694477   86.64530182    1.13000000    2.66000009
   14.89111137   92.41190338    1.07000005    2.66000009
   14.89444447   88.36190033    1.07000005    2.64000010
   14.89527798   90.51499939    1.07000005    2.64000010
   14.89805508   90.75749969    1.07000005    2.66000009
   14.90138817   88.03410339    1.07000005    2.64000010
   14.90472221   89.26339722    1.07000005    2.64000010
   14.90777779   93.30609894    1.11000001    2.66000009
   14.91111088   93.63790131    1.14999998    2.64000010
   14.91416645   86.78160095    1.16999996    2.66000009
   14.91750050   85.18460083    1.16999996    2.66000009
   14.92083359   96.42259979    1.14999998    2.64000010
   14.92388916   82.76200104    1.09000003    2.66000009
   14.93000031   82.76200104    1.05999994    2.64000010
   14.93416691   84.30010223    1.09000003    2.64000010
   14.93722248   96.54380035    1.09000003    2.66000009
   14.94055557   90.66200256    1.11000001    2.66000009
   14.94388866   89.78430176    1.11000001    2.66000009
   14.94694424   85.13549805    1.07000005    2.64000010
   14.95027733   89.78589630    1.05999994    2.64000010
   14.95333290   86.32080078    1.05999994    2.66000009
   14.95666695   92.79479980    1.03999996    2.64000010
   14.96000004   91.80519867    0.98000002    2.66000009
   14.96194458   92.10320282    0.98000002    2.66000009
   14.96361065   85.83830261    0.98000002    2.66000009
   14.96694374   88.84130096    0.89999998    2.66000009
   14.97277737   88.84130096    0.83999997    2.66000009
   14.97694397   87.11609650    0.83999997    2.66000009
   14.98027706   89.67520142    0.86000001    2.66000009
   14.98333359   92.45200348    0.86000001    2.66000009
   14.98666668   91.91110229    0.88000000    2.66000009
   14.98972225   90.40679932    0.81999999    2.66000009
   14.99305534   90.27200317    0.80000001    2.66000009
   14.99527836   99.72779846    0.80000001    2.66000009
   14.99666691   86.14810181    0.80000001    2.66000009
   15.00000000   94.66709900    0.80000001    2.66000009
   15.00333309   89.44740295    0.80000001    2.66000009
   15.00638866   82.77249908    0.89999998    2.66000009
   15.00972176   88.65429688    0.98000002    2.64000010
   15.01555538   88.65429688    0.98000002    2.66000009
   15.01972198   87.28299713    1.01999998    2.66000009
   15.02305508   86.45410156    1.05999994    2.66000009
   15.02611065   91.53810120    1.05999994    2.66000009
   15.02861118   96.82649994    1.25000000    2.66000009
   15.02972221   93.42070007    1.51999998    2.64000010
   15.03305531   89.55460358    1.55999994    2.64000010
   15.03638935   93.49400330    1.55999994    2.64000010
   15.03944492   95.43789673    1.58000004    2.64000010
   15.04277802   92.38359833    1.60000002    2.66000009
   15.04583359   89.22319794    1.66999996    2.64000010
   15.04916668   93.68949890    1.86000001    2.66000009
   15.05249977  101.49500275    1.94000006    2.64000010
   15.05833340  101.49500275    1.94000006    2.64000010
   15.06250000   87.66680145    1.89999998    2.64000010
   15.06583309   86.32920074    1.88000000    2.64000010
   15.06916618   88.50340271    1.66999996    2.64000010
   15.07222176   88.13339996    1.36000001    2.66000009
   15.07555580   87.74410248    1.25000000    2.66000009
   15.07888889   88.43329620    1.09000003    2.66000009
   15.08194447   88.88500214    1.00000000    2.67000008
   15.08527756   87.98169708    0.89999998    2.67000008
   15.08861065   91.40239716    0.76999998    2.67000008
   15.09166622   89.96230316    0.76999998    2.66000009
   15.09499931   88.87580109    0.75000000    2.66000009
   15.09555531   91.05940247    0.75000000    2.66000009
   15.10138893   91.05940247    0.76999998    2.66000009
   15.10555553   95.29989624    0.79000002    2.66000009
   15.10861111   99.46820068    0.76999998    2.66000009
   15.11194515   94.65000153    0.83999997    2.66000009
   15.11527824   97.70880127    0.89999998    2.66000009
   15.11833382   97.65249634    0.95999998    2.66000009
   15.12166691   96.93759918    1.00000000    2.66000009
   15.12472248   95.52839661    1.00000000    2.66000009
   15.12805557   92.61509705    1.00000000    2.66000009
   15.12888908   88.98310089    1.00000000    2.67000008
   15.13194466   95.68199921    1.00000000    2.67000008
   15.13500023   86.92279816    0.88000000    2.67000008
   15.13833332   91.99130249    0.88000000    2.66000009
   15.14416695   91.99130249    1.03999996    2.66000009
   15.14833355   96.06739807    1.16999996    2.66000009
   15.15138817   91.12570190    1.25000000    2.66000009
   15.15472221   92.42369843    1.26999998    2.66000009
   15.15805531   98.65869904    1.23000002    2.66000009
   15.16111088   87.22010040    1.23000002    2.66000009
   15.16222191  107.81600189    1.23000002    2.66000009
   15.16499996   97.12840271    1.26999998    2.66000009
   15.16805553   98.99449921    1.25000000    2.66000009
   15.17138958   93.57730103    1.30999994    2.66000009
   15.17472267   88.88839722    1.36000001    2.66000009
   15.17777824   93.24150085    1.41999996    2.66000009
   15.18111134   90.57550049    1.48000002    2.66000009
   15.18694496   90.57550049    1.53999996    2.66000009
   15.19111156   97.56539917    1.76999998    2.66000009
   15.19444466   86.99900055    2.11999989    2.66000009
   15.19555569   91.47209930    2.17000008    2.66000009
   15.19805527   88.36540222    2.23000002    2.66000009
   15.20111084   95.43589783    3.09999990    2.64000010
   15.20444393   87.51979828    3.28999996    2.59999990
   15.20749950   91.17120361    3.00000000    2.61999989
   15.21083355   95.74980164    2.73000002    2.64000010
   15.21416664   97.87819672    2.66000009    2.66000009
   15.21722221   94.65830231    2.36999989    2.64000010
   15.22055531   93.82839966    2.39000010    2.64000010
   15.22388840   86.27500153    2.30999994    2.64000010
   15.22972202   86.27500153    2.19000006    2.66000009
   15.23388958   96.30460358    2.21000004    2.66000009
   15.23722267   88.18209839    2.28999996    2.64000010
   15.24055576   87.06749725    2.30999994    2.66000009
   15.24361134  101.79199982    2.39000010    2.66000009
   15.34944439   -1.00000000   -1.00000000   -1.00000000
   15.44805527   -1.00000000   -1.00000000   -1.00000000
   15.56805515   -1.00000000   -1.00000000   -1.00000000
   15.67583370   -1.00000000   -1.00000000   -1.00000000
   15.76305580   -1.00000000   -1.00000000   -1.00000000
   15.86250019   -1.00000000   -1.00000000   -1.00000000
   15.95055580   -1.00000000   -1.00000000   -1.00000000
   16.01916695   90.03369904    0.46000001    2.71000004
   16.02249908  101.45600128    0.40000001    2.69000006
   16.02555466   88.30529785    0.38000000    2.69000006
   16.02888870   85.40750122    0.36000001    2.69000006
   16.03194427   90.28260040    0.36000001    2.69000006
   16.03527641   83.64980316    0.34000000    2.69000006
   16.03944397   83.64980316    0.31999999    2.69000006
   16.04361153   82.09100342    0.34000000    2.71000004
   16.04666710   89.01270294    0.38000000    2.69000006
   16.04999924   90.14849854    0.38000000    2.69000006
   16.05249977   91.82219696    0.38000000    2.69000006
   16.05360985   90.31050110    0.40000001    2.69000006
   16.05694389   85.13179779    0.41999999    2.69000006
   16.05999947   95.47889709    0.41999999    2.69000006
   16.06333351   95.06520081    0.41999999    2.71000004
   16.06666756   92.72810364    0.50000000    2.71000004
   16.06972313   92.50489807    1.05999994    2.71000004
   16.07305717   99.34059906    1.07000005    2.69000006
   16.07638931   91.66580200    0.88000000    2.69000006
   16.08222389   91.66580200    0.76999998    2.69000006
   16.08638954   90.27700043    0.41999999    2.69000006
   16.08972359   90.52279663    0.41999999    2.69000006
   16.09277916   97.53700256    0.36000001    2.69000006
   16.09611130   97.42700195    0.36000001    2.71000004
   16.09944534   92.78959656    0.41999999    2.71000004
   16.10250092   95.05529785    0.47999999    2.71000004
   16.10583305   94.77050018    0.50000000    2.69000006
   16.10888863   89.96540070    0.51999998    2.71000004
   16.11222267   97.99569702    0.51999998    2.71000004
   16.11555672   88.25959778    0.52999997    2.71000004
   16.11861038   88.83000183    0.55000001    2.71000004
   16.11916733   97.78630066    0.55000001    2.71000004
   16.12500000   97.78630066    0.55000001    2.71000004
   16.12916756   95.57129669    0.58999997    2.69000006
   16.13249969   96.99449921    0.63000000    2.69000006
   16.13583374   91.45809937    0.58999997    2.69000006
   16.13888931   95.30030060    0.69000000    2.69000006
   16.14222145   92.15679932    0.69000000    2.71000004
   16.14527702   96.03500366    0.69000000    2.71000004
   16.14861107   98.76490021    0.70999998    2.71000004
   16.15194321  100.42400360    0.64999998    2.71000004
   16.15250015   91.23139954    0.64999998    2.71000004
   16.15555573   99.79139709    0.63000000    2.69000006
   16.15861130   98.49490356    0.52999997    2.69000006
   16.16194344   97.59580231    0.47999999    2.71000004
   16.16805458   97.59580231    0.41999999    2.71000004
   16.17222214   98.31289673    0.44000000    2.69000006
   16.17527771   98.44709778    0.46000001    2.71000004
   16.17860985   95.44200134    0.47999999    2.71000004
   16.18166542   92.75090027    0.47999999    2.69000006
   16.18499947   85.98840332    0.51999998    2.69000006
   16.18583298   97.14920044    0.52999997    2.71000004
   16.18861008   96.60540009    0.51999998    2.71000004
   16.19166565   92.89189911    0.52999997    2.71000004
   16.19499969  106.19699860    0.50000000    2.71000004
   16.19833183   87.79280090    0.50000000    2.69000006
   16.20138931   92.99109650    0.40000001    2.69000006
   16.20472336   95.52420044    0.40000001    2.69000006
   16.21083450   95.52420044    0.41999999    2.69000006
   16.21500015   95.86090088    0.41999999    2.71000004
   16.21805573   94.86799622    0.46000001    2.71000004
   16.21916771  101.40100098    0.46000001    2.69000006
   16.22194481   93.30699921    0.51999998    2.69000006
   16.22527885   98.70559692    0.58999997    2.69000006
   16.22833443  103.98000336    0.69000000    2.69000006
   16.23166656   98.48169708    0.75000000    2.69000006
   16.23472214  104.05500031    0.89999998    2.69000006
   16.23805618   94.06410217    0.89999998    2.69000006
   16.24138832   98.29920197    1.09000003    2.69000006
   16.24444389   95.46990204    1.07000005    2.69000006
   16.24777794   88.72480011    1.05999994    2.69000006
   16.25361061   88.72480011    0.41999999    2.71000004
   16.25777817   92.89540100    0.38000000    2.71000004
   16.26111031   95.96009827    0.38000000    2.71000004
   16.26416588   91.80650330    0.40000001    2.71000004
   16.26749992   92.23529816    0.40000001    2.71000004
   16.27083397   97.78389740    0.40000001    2.71000004
   16.27388954   97.79599762    0.40000001    2.69000006
   16.27722168   86.38240051    0.44000000    2.71000004
   16.28027725   92.13629913    0.41999999    2.69000006
   16.28361130  100.10600281    0.40000001    2.71000004
   16.28583336   92.94180298    0.40000001    2.71000004
   16.28722191   92.80290222    0.40000001    2.71000004
   16.29055595   92.04679871    0.44000000    2.69000006
   16.29638863   92.04679871    0.50000000    2.69000006
   16.30055428   94.04080200    0.51999998    2.69000006
   16.30388832   99.33989716    0.56999999    2.71000004
   16.30722237   86.34860229    0.58999997    2.71000004
   16.31027794   94.99120331    0.58999997    2.71000004
   16.31361008   83.67209625    0.56999999    2.71000004
   16.31666756  100.01000214    0.55000001    2.71000004
   16.31916809   94.60669708    0.58999997    2.71000004
   16.32055664   90.35410309    0.58999997    2.71000004
   16.32389069   93.09880066    0.69000000    2.69000006
   16.32694626   94.26329803    0.76999998    2.69000006
   16.33027840   98.62409973    1.09000003    2.69000006
   16.33333397   87.57569885    1.11000001    2.69000006
   16.33944511   87.57569885    1.14999998    2.69000006
   16.34361267   95.64440155    1.05999994    2.69000006
   16.34666824   89.67289734    0.94000000    2.71000004
   16.35000038   94.11119843    0.94000000    2.71000004
   16.35250092   86.73899841    0.94000000    2.69000006
   16.35361099   83.85679626    0.94000000    2.69000006
   16.35694504   89.37030029    0.76999998    2.69000006
   16.36000061   89.73030090    0.73000002    2.69000006
   16.36333466   93.20860291    0.73000002    2.69000006
   16.36666679   90.08550262    0.70999998    2.71000004
   16.36972237   94.58190155    0.55000001    2.71000004
   16.37305641   95.47769928    0.52999997    2.69000006
   16.37611198   95.79910278    0.46000001    2.71000004
   16.38222313   95.79910278    0.40000001    2.71000004
   16.38638878   82.90049744    0.36000001    2.71000004
   16.38944435   93.76740265    0.36000001    2.71000004
   16.39277840   94.74320221    0.36000001    2.71000004
   16.39611053   88.92800140    0.38000000    2.71000004
   16.39916611   96.01560211    0.38000000    2.71000004
   16.40250015   87.49069977    0.38000000    2.71000004
   16.40583229  107.95600128    0.36000001    2.71000004
   16.40888786   94.72750092    0.38000000    2.71000004
   16.41222191  100.47499847    0.38000000    2.69000006
   16.41527748   99.19650269    0.38000000    2.71000004
   16.41860962   91.61689758    0.38000000    2.69000006
   16.41916656  101.64399719    0.38000000    2.69000006
   16.42499924  101.64399719    0.34000000    2.71000004
   16.42916679  103.85399628    0.34000000    2.69000006
   16.43249893  101.65100098    0.34000000    2.69000006
   16.43555450   94.33889771    0.34000000    2.71000004
   16.43888855   96.09359741    0.34000000    2.69000006
   16.44222069   99.26229858    0.36000001    2.71000004
   16.44527626  104.47899628    0.34000000    2.71000004
   16.44861031   94.41989899    0.34000000    2.71000004
   16.45194435   95.13680267    0.34000000    2.71000004
   16.45250130  105.33499908    0.34000000    2.71000004
   16.45555687  103.09700012    0.34000000    2.71000004
   16.45888901  100.63500214    0.31999999    2.71000004
   16.46194458  101.33599854    0.31999999    2.71000004
   16.46777916  101.33599854    0.31999999    2.71000004
   16.47194481  104.30500031    0.31999999    2.69000006
   16.47527885   99.46569824    0.31999999    2.69000006
   16.47861099  102.64099884    0.31999999    2.71000004
   16.48166656   91.47550201    0.31999999    2.71000004
   16.48500061   92.13339996    0.31999999    2.71000004
   16.48583412   97.99199677    0.31999999    2.71000004
   16.48861122   86.23940277    0.31999999    2.71000004
   16.49194527   86.87039948    0.31999999    2.71000004
   16.49500084   93.19560242    0.31999999    2.71000004
   16.49833298   89.24680328    0.34000000    2.71000004
   16.50166702  105.48799896    0.36000001    2.71000004
   16.50472260   97.53230286    0.40000001    2.71000004
   16.51083374   97.53230286    0.41999999    2.71000004
   16.51499939   93.41600037    0.40000001    2.71000004
   16.51805496   87.78130341    0.40000001    2.71000004
   16.51916695   94.83670044    0.41999999    2.71000004
   16.52166557   99.94149780    0.41999999    2.71000004
   16.52499962   94.91459656    0.47999999    2.71000004
   16.52833366   88.03469849    0.50000000    2.69000006
   16.53138924  103.02400208    0.50000000    2.69000006
   16.53472137  107.60800171    0.41999999    2.69000006
   16.53777695   95.22460175    0.38000000    2.71000004
   16.54111099  100.15899658    0.38000000    2.71000004
   16.54444313   90.74780273    0.34000000    2.69000006
   16.54749870   81.62799835    0.34000000    2.71000004
   16.55360985   81.62799835    0.40000001    2.71000004
   16.55777740   95.09500122    0.38000000    2.69000006
   16.56083298   89.61940002    0.36000001    2.71000004
   16.56416512   94.10919952    0.36000001    2.71000004
   16.56750107   87.52670288    0.36000001    2.71000004
   16.57055664   93.40889740    0.36000001    2.71000004
   16.57389069   96.63780212    0.38000000    2.71000004
   16.57694626  101.25700378    0.38000000    2.71000004
   16.58027840  100.72200012    0.73000002    2.71000004
   16.58361244   94.64510345    3.50000000    2.71000004
   16.58583450   97.81349945    4.86999989    2.69000006
   16.58722305   93.31359863    4.90999985    2.67000008
   16.59055710   94.99939728    4.90999985    2.67000008
   16.59638977   94.99939728    1.63000000    2.71000004
   16.60055542   96.92729950    0.73000002    2.71000004
   16.60388947   99.00640106    0.46000001    2.71000004
   16.60694504  100.56300354    0.41999999    2.71000004
   16.61027908   80.73439789    0.36000001    2.71000004
   16.61333466   82.45040131    0.34000000    2.71000004
   16.61666679  102.71199799    0.31999999    2.69000006
   16.61916733  107.08599854    0.31999999    2.69000006
   16.62027740   98.98470306    0.31999999    2.71000004
   16.62361145   98.42620087    0.31999999    2.71000004
   16.62666702   94.94120026    0.31999999    2.71000004
   16.63000107  100.42400360    0.31999999    2.71000004
   16.63333321   96.90660095    0.31999999    2.71000004
   16.63916588   96.90660095    0.34000000    2.73000002
   16.64333344   96.63770294    0.34000000    2.71000004
   16.64666748   92.69969940    0.34000000    2.71000004
   16.64972115  101.18599701    0.34000000    2.71000004
   16.65250015   91.24770355    0.34000000    2.71000004
   16.65333366   91.28399658    0.34000000    2.71000004
   16.65666580  101.68699646    0.34000000    2.71000004
   16.65972137   96.95749664    0.34000000    2.71000004
   16.66305542   95.73349762    0.34000000    2.71000004
   16.66638756   86.34320068    0.34000000    2.71000004
   16.66944313   92.45130157    0.34000000    2.69000006
   16.67277718   93.82620239    0.34000000    2.71000004
   16.67583275   93.69329834    0.34000000    2.71000004
   16.68222237   93.69329834    0.34000000    2.69000006
   16.68638802   89.81390381    0.34000000    2.71000004
   16.68944359  103.55200195    0.34000000    2.71000004
   16.69277763   92.79920197    0.34000000    2.71000004
   16.69583321  101.19999695    0.34000000    2.71000004
   16.69916534   90.08090210    0.34000000    2.71000004
   16.70250130   88.65809631    0.34000000    2.71000004
   16.70555687  101.51799774    0.34000000    2.69000006
   16.70888901   87.07409668    0.34000000    2.69000006
   16.71222305   99.68890381    0.34000000    2.71000004
   16.71527863   83.07270050    0.34000000    2.73000002
   16.71861076   96.48259735    0.34000000    2.71000004
   16.71944427  104.18299866    0.34000000    2.71000004
   16.72500038  104.18299866    0.34000000    2.71000004
   16.72916794   93.33889771    0.34000000    2.71000004
   16.73222351   95.47319794    0.34000000    2.71000004
   16.73555565   85.19550323    0.31999999    2.71000004
   16.73888969   98.59329987    0.31999999    2.71000004
   16.74194527   99.13590240    0.31999999    2.71000004
   16.74527740   87.86779785    0.31999999    2.71000004
   16.74833298   97.72350311    0.31999999    2.71000004
   16.75166702  104.07700348    0.31999999    2.71000004
   16.75277710   90.85890198    0.31999999    2.71000004
   16.75527763  101.22599792    0.31999999    2.71000004
   16.75861168   99.16729736    0.31999999    2.71000004
   16.76166725   95.65180206    0.31999999    2.71000004
   16.76777840   95.65180206    0.34000000    2.73000002
   16.77194405   93.75990295    0.34000000    2.69000006
   16.77527809   90.96320343    0.34000000    2.71000004
   16.77833366   94.05079651    0.34000000    2.71000004
   16.78166580   91.76660156    0.34000000    2.71000004
   16.78499985   90.21189880    0.34000000    2.69000006
   16.78610992   94.60919952    0.34000000    2.71000004
   16.78833199   94.22180176    0.34000000    2.69000006
   16.79166603  100.62500000    0.34000000    2.71000004
   16.79472160   89.46160126    0.34000000    2.71000004
   16.79805565   80.37940216    0.36000001    2.71000004
   16.80138779   88.63439941    0.34000000    2.71000004
   16.80444336   85.09459686    0.36000001    2.71000004
   16.81055450   85.09459686    0.36000001    2.69000006
   16.81472206   93.93080139    0.34000000    2.71000004
   16.81805611   90.76200104    0.34000000    2.71000004
   16.81944466   98.88870239    0.34000000    2.71000004
   16.82166672   90.39409637    0.34000000    2.71000004
   16.82500076   89.17610168    0.36000001    2.71000004
   16.82833481   99.91290283    0.34000000    2.71000004
   16.83139038   89.37169647    0.34000000    2.69000006
   16.83472252   94.36080170    0.34000000    2.71000004
   16.83777809   91.02760315    0.34000000    2.69000006
   16.84111214   92.73970032    0.34000000    2.71000004
   16.84444427   89.76129913    0.34000000    2.71000004
   16.84749985   93.96839905    0.34000000    2.71000004
   16.85361099   93.96839905    0.31999999    2.71000004
   16.85750008   81.21060181    0.31999999    2.69000006
   16.86083412   83.00800323    0.34000000    2.71000004
   16.86416626   94.53410339    0.31999999    2.71000004
   16.86722183   96.40239716    0.31999999    2.71000004
   16.87055588   82.61250305    0.31999999    2.71000004
   16.87388992   88.67700195    0.31999999    2.71000004
   16.87694550   82.31849670    0.34000000    2.71000004
   16.88027763   79.71749878    0.34000000    2.71000004
   16.88333321   92.68520355    0.34000000    2.71000004
   16.88611031   93.89379883    0.34000000    2.69000006
   16.88694382   92.89920044    0.34000000    2.71000004
   16.89027786   91.68280029    0.34000000    2.71000004
   16.89638901   91.68280029    0.34000000    2.71000004
   16.90055466  100.98999786    0.34000000    2.71000004
   16.90361023   89.56610107    0.34000000    2.71000004
   16.90694427   93.31479645    0.34000000    2.71000004
   16.91027832   90.47550201    0.34000000    2.71000004
   16.91333389   98.64849854    0.34000000    2.71000004
   16.91666603   88.03639984    0.34000000    2.69000006
   16.91944313   87.67379761    0.34000000    2.71000004
   16.92027664   92.64800262    0.34000000    2.71000004
   16.92361069   95.82620239    0.34000000    2.71000004
   16.92694473   96.88020325    0.34000000    2.71000004
   16.93000031   96.93569946    0.34000000    2.71000004
   16.93333244  100.39099884    0.34000000    2.71000004
   16.93916512  100.39099884    0.34000000    2.71000004
   16.94333267   89.05989838    0.34000000    2.71000004
   16.94666672   95.71130371    0.34000000    2.69000006
   16.94972038   97.13480377    0.34000000    2.71000004
   16.95277786   92.45490265    0.34000000    2.71000004
   16.95333481   94.40879822    0.34000000    2.71000004
   16.95666695   90.81379700    0.34000000    2.71000004
   16.95972252   94.33860016    0.34000000    2.71000004
   16.96305656   87.71199799    0.34000000    2.69000006
   16.96638870   97.97689819    0.34000000    2.69000006
   16.96944427   93.11100006    0.34000000    2.71000004
   16.97277832   96.62449646    0.34000000    2.71000004
   16.97611237  100.64299774    0.34000000    2.69000006
   16.98194504  100.64299774    0.34000000    2.71000004
   16.98611069   94.03659821    0.31999999    2.71000004
   16.98944473   94.55860138    0.31999999    2.71000004
   16.99250031   93.40619659    0.31999999    2.71000004
   16.99583435   87.36239624    0.31999999    2.69000006
   16.99916649   96.30950165    0.31999999    2.71000004
   17.00222206   87.43810272    0.31999999    2.71000004
   17.00555611   92.61450195    0.31999999    2.71000004
   17.00888824   99.08910370    0.31999999    2.71000004
   17.01194382  100.97100067    0.31999999    2.69000006
   17.01527786   93.93190002    0.31999999    2.69000006
   17.01833344   95.62740326    0.31999999    2.69000006
   17.01944351   90.48660278    0.31999999    2.71000004
   17.03999901   90.48660278    0.30000001    2.71000004
   17.04416656   94.32700348    0.30000001    2.71000004
   17.04749870  100.99400330    0.30000001    2.71000004
   17.05055428   89.28949738    0.30000001    2.71000004
   17.05277634   92.72470093    0.30000001    2.71000004
   17.05416679   92.02960205    0.30000001    2.71000004
   17.05749893   92.86150360    0.30000001    2.71000004
   17.06083298   91.17880249    0.30000001    2.69000006
   17.06388855   90.72619629    0.30000001    2.69000006
   17.06722260   97.94950104    0.31999999    2.71000004
   17.07055664   97.64630127    0.30000001    2.69000006
   17.07361221   92.89620209    0.30000001    2.71000004
   17.07694626   99.49579620    0.31999999    2.71000004
   17.08277893   99.49579620    0.31999999    2.69000006
   17.08694458  106.11799622    0.31999999    2.71000004
   17.09027863  102.11399841    0.31999999    2.69000006
   17.09333420  100.32700348    0.31999999    2.71000004
   17.09666824  102.97799683    0.31999999    2.71000004
   17.09972191   92.19979858    0.31999999    2.69000006
   17.10305595   81.04869843    0.31999999    2.69000006
   17.10639000   98.37879944    0.31999999    2.71000004
   17.10944557   94.70950317    0.31999999    2.71000004
   17.11277771   86.75610352    0.34000000    2.71000004
   17.11611176   95.18450165    0.34000000    2.71000004
   17.11916733   98.56130219    0.34000000    2.73000002
   17.11972237  105.01999664    0.34000000    2.69000006
   17.12555504  105.01999664    0.31999999    2.71000004
   17.12972260   97.36239624    0.34000000    2.71000004
   17.13305473   99.31289673    0.34000000    2.71000004
   17.13611031   90.75119781    0.34000000    2.71000004
   17.13944435   94.97669983    0.34000000    2.71000004
   17.14277840   99.45179749    0.31999999    2.71000004
   17.14583397  102.23400116    0.34000000    2.71000004
   17.14916611   99.81189728    0.34000000    2.71000004
   17.15250015   94.88120270    0.34000000    2.71000004
   17.15305519   97.41139984    0.34000000    2.71000004
   17.15611076   90.91190338    0.34000000    2.71000004
   17.15944481   94.57360077    0.34000000    2.71000004
   17.16250038   94.41419983    0.34000000    2.71000004
   17.16860962   94.41419983    0.34000000    2.71000004
   17.17249870   97.15489960    0.34000000    2.71000004
   17.17583275   98.52690125    0.34000000    2.71000004
   17.17916679   97.26219940    0.34000000    2.69000006
   17.18222237   93.46140289    0.34000000    2.71000004
   17.18555450   98.06590271    0.34000000    2.69000006
   17.18638802   98.91770172    0.34000000    2.69000006
   17.18916512   99.51920319    0.34000000    2.71000004
   17.19222069   94.26190186    0.34000000    2.69000006
   17.19555473   94.94499969    0.34000000    2.71000004
   17.19888878   94.14350128    0.34000000    2.71000004
   17.20194435   96.76879883    0.36000001    2.69000006
   17.20527840   90.46520233    0.34000000    2.71000004
   17.21138954   90.46520233    0.36000001    2.71000004
   17.21555710   90.78569794    0.34000000    2.71000004
   17.21861076   90.50859833    0.34000000    2.69000006
   17.21972275   89.75530243    0.34000000    2.69000006
   17.22249985   87.81459808    0.36000001    2.71000004
   17.22555542   95.96219635    0.36000001    2.69000006
   17.22888947   91.07350159    0.36000001    2.69000006
   17.23222351   -1.00000000    0.36000001    2.71000004
   17.23527718   -1.00000000    0.34000000    2.69000006
   17.23861122   93.00189972    0.34000000    2.71000004
   17.24194527   90.53320313    0.34000000    2.71000004
   17.24500084   93.28179932    0.34000000    2.71000004
   17.24833298   94.14880371    0.34000000    2.71000004
   17.25416756   94.14880371    0.34000000    2.71000004
   17.25833321   97.29759979    0.34000000    2.69000006
   17.26166725   91.73829651    0.36000001    2.71000004
   17.26472282  101.09400177    0.36000001    2.69000006
   17.26805496   96.45020294    0.36000001    2.69000006
   17.27111053   96.21140289    0.34000000    2.71000004
   17.27444458   96.87650299    0.34000000    2.69000006
   17.27777672   99.93779755    0.36000001    2.71000004
   17.28083229   96.26779938    0.34000000    2.71000004
   17.28416634   -1.00000000    0.36000001    2.71000004
   17.28750038   97.37010193    0.34000000    2.69000006
   17.29083252   85.06060028    0.34000000    2.71000004
   17.29694366   85.06060028    0.36000001    2.71000004
   17.30111122   96.55960083    0.34000000    2.69000006
   17.30444336   91.93579865    0.34000000    2.69000006
   17.30749893   95.08580017    0.36000001    2.71000004
   17.31083298   90.02330017    0.34000000    2.71000004
   17.31416512   84.15480042    0.34000000    2.71000004
   17.31722260   92.77940369    0.34000000    2.69000006
   17.31972313   88.63349915    0.34000000    2.71000004
   17.32111168   95.49120331    0.34000000    2.71000004
   17.32416725   90.95729828    0.34000000    2.69000006
   17.32750130   89.56800079    0.36000001    2.69000006
   17.33083344   91.16580200    0.34000000    2.69000006
   17.33388901   -1.00000000    0.34000000    2.71000004
   17.34000015   -1.00000000    0.34000000    2.69000006
   17.34388924   93.53849792    0.34000000    2.69000006
   17.34722328  100.59500122    0.34000000    2.69000006
   17.35055542   85.89769745    0.34000000    2.69000006
   17.35305595   97.07409668    0.34000000    2.69000006
   17.35416794  100.11299896    0.34000000    2.69000006
   17.35722351   96.26419830    0.34000000    2.71000004
   17.36055565   98.48280334    0.34000000    2.71000004
   17.36388969   99.09629822    0.34000000    2.69000006
   17.36694527  102.65100098    0.34000000    2.69000006
   17.37027740   99.53849792    0.34000000    2.71000004
   17.37361145   97.69629669    0.34000000    2.69000006
   17.37666702   88.40589905    0.34000000    2.69000006
   17.38277817   88.40589905    0.34000000    2.71000004
   17.38694382   -1.00000000    0.34000000    2.69000006
   17.38999939   97.25550079    0.34000000    2.69000006
   17.39333344   91.04830170    0.34000000    2.69000006
   17.39666748   81.61830139    0.34000000    2.69000006
   17.39972115   92.66049957    0.34000000    2.69000006
   17.40305519   84.20290375    0.34000000    2.69000006
   17.40611076   88.21230316    0.34000000    2.69000006
   17.40944481   85.47190094    0.31999999    2.71000004
   17.41277695   91.64119720    0.31999999    2.69000006
   17.41583252   91.14119720    0.31999999    2.71000004
   17.41916656   86.69860077    0.31999999    2.71000004
   17.41972160   87.20169830    0.31999999    2.71000004
   17.42555428   87.20169830    0.31999999    2.69000006
   17.42972183   92.95030212    0.31999999    2.69000006
   17.43305397   -1.00000000    0.31999999    2.69000006
   17.43610954   -1.00000000    0.31999999    2.69000006
   17.43944359   97.36380005    0.31999999    2.69000006
   17.44249916   88.27829742    0.34000000    2.69000006
   17.44583321   98.50189972    0.31999999    2.69000006
   17.44916534  102.53700256    0.34000000    2.69000006
   17.45222282   89.81790161    0.34000000    2.69000006
   17.45305634  105.87599945    0.34000000    2.71000004
   17.45583344   90.69290161    0.34000000    2.71000004
   17.45916748   95.89830017    0.34000000    2.69000006
   17.46222305   93.06819916    0.36000001    2.69000006
   17.46833420   93.06819916    0.34000000    2.69000006
   17.47249985   89.94159698    0.31999999    2.69000006
   17.47583389   83.60590363    0.31999999    2.69000006
   17.47888947   83.99929810    0.34000000    2.71000004
   17.48222351   85.87609863    0.31999999    2.71000004
   17.48555565   -1.00000000    0.31999999    2.71000004
   17.48916626  160.76100159    0.34000000    2.71000004
   17.49222183  202.25799561    0.31999999    2.69000006
   17.49555588   98.04830170    0.34000000    2.69000006
   17.49888992   83.98470306    0.31999999    2.69000006
   17.50194359   93.98169708    0.31999999    2.69000006
   17.50527763   86.01679993    0.31999999    2.69000006
   17.51138878   86.01679993    0.31999999    2.69000006
   17.51527786   92.84590149    0.31999999    2.69000006
   17.51861000   88.21219635    0.31999999    2.69000006
   17.51972198   89.62519836    0.31999999    2.69000006
   17.52222252   95.32070160    0.31999999    2.69000006
   17.52555466   95.46479797    0.31999999    2.69000006
   17.52861023  109.40499878    0.31999999    2.69000006
   17.53194427   -1.00000000    0.31999999    2.69000006
   17.53499985   -1.00000000    0.34000000    2.69000006
   17.53833199   -1.00000000    0.34000000    2.69000006
   17.54166603   -1.00000000    0.34000000    2.69000006
   17.54472160   -1.00000000    0.34000000    2.69000006
   17.54805565   -1.00000000    0.34000000    2.67000008
   17.55805397   -1.00000000    0.36000001    2.69000006
   17.56138802   -1.00000000    0.38000000    2.71000004
   17.56472206   -1.00000000    0.40000001    2.69000006
   17.56777954   -1.00000000    0.41999999    2.69000006
   17.57111168   -1.00000000    0.41999999    2.69000006
   17.57444572   -1.00000000    0.40000001    2.69000006
   17.57750130   -1.00000000    0.40000001    2.69000006
   17.58083344   -1.00000000    0.38000000    2.69000006
   17.58388901   -1.00000000    0.38000000    2.69000006
   17.58777809   -1.00000000    0.38000000    2.69000006
   17.59083366   -1.00000000    0.36000001    2.69000006
   17.60111237   -1.00000000    0.38000000    2.67000008
   17.60416794   -1.00000000    0.36000001    2.69000006
   17.60750008   -1.00000000    0.36000001    2.69000006
   17.61083412   -1.00000000    0.36000001    2.69000006
   17.61388969   -1.00000000    0.36000001    2.69000006
   17.61722183   -1.00000000    0.36000001    2.69000006
   17.62083435   -1.00000000    0.36000001    2.69000006
   17.62388992   -1.00000000    0.36000001    2.71000004
   17.62722206   -1.00000000    0.34000000    2.69000006
   17.63027763   -1.00000000    0.36000001    2.69000006
   17.63361168   -1.00000000    0.34000000    2.69000006
   17.64388847   -1.00000000    0.56999999    2.69000006
   17.64722252   -1.00000000    0.64999998    2.66000009
   17.65027809   -1.00000000    0.92000002    2.69000006
   17.65388870   -1.00000000    1.14999998    2.69000006
   17.65694427   -1.00000000    1.41999996    2.66000009
   17.66027832   -1.00000000    1.69000006    2.66000009
   17.66333389   -1.00000000    1.63000000    2.67000008
   17.66666603   -1.00000000    1.25000000    2.67000008
   17.67000008   -1.00000000    1.13000000    2.66000009
   17.67305565   -1.00000000    1.34000003    2.67000008
   17.67638779   -1.00000000    1.50000000    2.66000009
   17.68666649   -1.00000000    1.50000000    2.67000008
   17.68999863   -1.00000000    1.26999998    2.67000008
   17.69305420   -1.00000000    1.13000000    2.69000006
   17.69638824   -1.00000000    1.03999996    2.69000006
   17.69972038   -1.00000000    0.95999998    2.69000006
   17.70277786   -1.00000000    1.09000003    2.69000006
   17.70611191  228.41400146    1.09000003    2.69000006
   17.70944595   66.58589935    1.07000005    2.69000006
   17.71250153   75.18350220    1.07000005    2.69000006
   17.71583366   95.22419739    0.64999998    2.69000006
   17.71888924   -1.00000000    0.79000002    2.67000008
   17.72944450   -1.00000000    1.21000004    2.69000006
   17.73277855   -1.00000000    2.48000002    2.69000006
   17.73611069   -1.00000000    3.36999989    2.67000008
   17.73916626   -1.00000000    3.78999996    2.69000006
   17.74250031   88.24210358    2.86999989    2.66000009
   17.74583435   86.10479736    2.50000000    2.66000009
   17.74888992   78.29389954    2.42000008    2.67000008
   17.75222206   85.44319916    1.39999998    2.66000009
   17.75305557   86.03150177    1.41999996    2.67000008
   17.75583267   95.64340210    0.79000002    2.67000008
   17.75916672   97.42060089    0.73000002    2.69000006
   17.76222229   97.20359802    0.58999997    2.69000006
   17.76833344   97.20359802    0.55000001    2.67000008
   17.77249908   89.49079895    0.50000000    2.67000008
   17.77583313  101.30400085    0.55000001    2.67000008
   17.77888870   83.77300262    0.64999998    2.67000008
   17.78222275   97.97180176    0.64999998    2.69000006
   17.78555489   95.86009979    0.83999997    2.69000006
   17.78638840  111.07700348    1.09000003    2.64000010
   17.78916550   98.25420380    1.14999998    2.61999989
   17.79249954   94.11589813    1.36000001    2.66000009
   17.79555511   86.70279694    1.71000004    2.67000008
   17.79888916  100.29100037    1.73000002    2.67000008
   17.80222130   98.59510040    1.39999998    2.67000008
   17.80527687  106.45400238    1.05999994    2.67000008
   17.81110954  106.45400238    0.94000000    2.69000006
   17.81527710   99.07469940    0.92000002    2.69000006
   17.81861115   97.28330231    0.40000001    2.67000008
   17.81972313   94.79370117    0.40000001    2.67000008
   17.82222366   92.41030121    0.38000000    2.67000008
   17.82555580  105.60099792    0.40000001    2.69000006
   17.82861137   90.47570038    0.38000000    2.67000008
   17.83194542  102.97100067    0.38000000    2.67000008
   17.83527756  109.96600342    0.40000001    2.69000006
   17.83833313   90.51570129    0.38000000    2.69000006
   17.84166718   97.25409698    0.36000001    2.69000006
   17.84472275   97.28759766    0.36000001    2.67000008
   17.84805679   97.54049683    0.36000001    2.67000008
   17.85416794   97.54049683    0.34000000    2.69000006
   17.85833359   94.13140106    0.36000001    2.69000006
   17.86166763   96.12729645    0.36000001    2.69000006
   17.86472321   94.49340057    0.36000001    2.69000006
   17.86805534   99.48829651    0.41999999    2.67000008
   17.87138939   98.28530121    0.40000001    2.67000008
   17.87444496   92.75489807    0.69000000    2.67000008
   17.87777710   94.10359955    0.69000000    2.67000008
   17.88111115   86.26029968    0.69000000    2.67000008
   17.88416672   95.73490143    0.70999998    2.67000008
   17.88638878  101.40499878    0.79000002    2.67000008
   17.88777733  104.34300232    0.83999997    2.66000009
   17.89111137   93.56330109    0.80000001    2.67000008
   17.89694405   93.56330109    0.83999997    2.67000008
   17.90111160  100.17299652    1.11000001    2.67000008
   17.90416718   97.74430084    1.25000000    2.67000008
   17.90749931   95.58830261    1.55999994    2.66000009
   17.91083336   96.16439819    1.78999996    2.66000009
   17.91388893  101.81500244    2.26999998    2.64000010
   17.91722107   94.12049866    2.42000008    2.66000009
   17.91972160   93.83000183    2.64000010    2.64000010
   17.92083359  101.67800140    2.67000008    2.64000010
   17.92416573  103.36399841    2.82999992    2.64000010
   17.92722130   98.13330078    2.91000009    2.64000010
   17.93055534   91.72810364    2.76999998    2.64000010
   17.93388748   93.59310150    2.26999998    2.61999989
   17.93972206   93.59310150    1.38000000    2.67000008
   17.94388771   93.23490143    1.14999998    2.67000008
   17.94722176   92.52500153    0.94000000    2.69000006
   17.95027924   94.95870209    0.81999999    2.69000006
   17.95305634   92.06390381    0.56999999    2.67000008
   17.95388985   94.01809692    0.52999997    2.67000008
   17.95722389   98.04789734    0.50000000    2.69000006
   17.96027946   93.00370026    0.50000000    2.69000006
   17.96361160   89.60729980    0.46000001    2.67000008
   17.96694565   86.59429932    0.41999999    2.67000008
   17.97000122   88.84449768    0.44000000    2.67000008
   17.97333336   93.09889984    0.47999999    2.67000008
   17.97638893   92.34639740    0.67000002    2.67000008
   17.98250008   92.34639740    0.94000000    2.66000009
   17.98666763   98.75930023    1.05999994    2.67000008
   17.98999977   96.40350342    1.05999994    2.67000008
   17.99305534   93.64289856    1.07000005    2.67000008
   17.99638939   94.46340179    1.05999994    2.66000009
   17.99972153   93.92949677    0.92000002    2.67000008
   18.00277710   99.55190277    0.83999997    2.67000008
   18.00611115   93.95249939    0.86000001    2.67000008
   18.00944519   90.05840302    0.80000001    2.67000008
   18.01250076   94.93240356    0.80000001    2.67000008
   18.01583290   90.47219849    0.80000001    2.67000008
   18.01888847   92.41960144    0.80000001    2.67000008
   18.01972198  100.57199860    0.80000001    2.67000008
   18.02555466  100.57199860    0.80000001    2.67000008
   18.02972221   92.72879791    0.80000001    2.67000008
   18.03277779  103.31500244    0.80000001    2.67000008
   18.03610992  101.26100159    0.80000001    2.67000008
   18.05360985  100.19799805    0.80000001    2.67000008
   18.05611038   95.60910034    0.80000001    2.67000008
   18.05916595   92.72650146    0.80000001    2.67000008
   18.06250000  107.97699738    0.80000001    2.67000008
   18.06833458  107.97699738    0.80000001    2.67000008
   18.07250023   85.62339783    0.80000001    2.67000008
   18.07583427   91.30709839    0.80000001    2.67000008
   18.07916832  100.90399933    0.80000001    2.67000008
   18.08222389   93.12090302    0.80000001    2.67000008
   18.08555603  100.09600067    0.80000001    2.67000008
   18.08694458   93.90370178    0.80000001    2.67000008
   18.08916664   98.52829742    0.80000001    2.67000008
   18.09250069   98.03710175    0.80000001    2.67000008
   18.09555626   97.35459900    0.80000001    2.67000008
   18.09889030   96.93000031    0.80000001    2.67000008
   18.10222244  103.31500244    0.80000001    2.67000008
   18.10527802  107.86799622    0.80000001    2.67000008
   18.11138916  107.86799622    0.80000001    2.67000008
   18.11555672   87.10310364    0.80000001    2.67000008
   18.11861038   93.11859894    0.80000001    2.67000008
   18.12027740   93.84089661    0.80000001    2.67000008
   18.12222290   90.81410217    0.80000001    2.67000008
   18.12555504   91.14430237    0.80000001    2.67000008
   18.12861061   89.79769897    0.80000001    2.67000008
   18.13194466  101.20400238    0.80000001    2.67000008
   18.13527679  102.23999786    0.80000001    2.67000008
   18.13833237   98.06079865    0.80000001    2.67000008
   18.14166641   92.48549652    0.80000001    2.67000008
   18.14500046   86.49299622    0.80000001    2.67000008
   18.14805603   92.65789795    0.80000001    2.67000008
   18.15416718   92.65789795    0.80000001    2.67000008
   18.15833282   99.20559692    0.44000000    2.67000008
   18.16138840  103.42099762    0.47999999    2.66000009
   18.16472244   96.34970093    0.52999997    2.67000008
   18.16805458   82.51940155    0.52999997    2.67000008
   18.17111015   95.86139679    0.58999997    2.66000009
   18.17444420  100.16600037    0.64999998    2.67000008
   18.17777634  101.65799713    0.73000002    2.67000008
   18.18083191   88.04119873    0.76999998    2.67000008
   18.18416595   96.63690186    0.75000000    2.67000008
   18.18694305   92.95999908    0.73000002    2.66000009
   18.18777657  100.20999908    0.73000002    2.66000009
   18.19111061   94.63739777    0.70999998    2.66000009
   18.19694328   94.63739777    0.63000000    2.66000009
   18.20111275  107.77100372    0.63000000    2.66000009
   18.20444489  104.87100220    0.63000000    2.66000009
   18.20750046  102.83200073    0.58999997    2.66000009
   18.21083450   95.27359772    0.58999997    2.66000009
   18.21416664  100.89199829    0.47999999    2.66000009
   18.21722221   97.11039734    1.23000002    2.66000009
   18.22027779   93.08329773    1.28999996    2.66000009
   18.22083473   89.97589874    1.28999996    2.66000009
   18.22416687   97.40889740    1.33000004    2.66000009
   18.22750092   98.55970001    1.33000004    2.66000009
   18.23055649  105.01100159    1.28999996    2.66000009
   18.23388863   99.30470276    1.28999996    2.66000009
   18.23972321   99.30470276    1.34000003    2.66000009
   18.24388885   95.75330353    1.33000004    2.67000008
   18.24722290   99.09179688    1.13000000    2.66000009
   18.25055504   94.84320068    0.76999998    2.66000009
   18.25361061  100.60600281    0.76999998    2.66000009
   18.25388908   94.51480103    0.76999998    2.66000009
   18.25722313   95.29830170    0.76999998    2.66000009
   18.26055527   96.33000183    0.95999998    2.66000009
   18.26361084   89.22239685    0.95999998    2.66000009
   18.26694489   99.98200226    1.00000000    2.67000008
   18.27000046  108.52400208    0.98000002    2.66000009
   18.27333260   97.80359650    1.01999998    2.64000010
   18.27666664   93.94789886    0.80000001    2.66000009
   18.28277779   93.94789886    0.83999997    2.66000009
   18.28694344   89.53890228    1.01999998    2.66000009
   18.28722191   90.95860291    1.01999998    2.66000009
   18.29055595   95.74939728    1.13000000    2.66000009
   18.29388809   91.88150024    2.80999994    2.64000010
   18.29694366   93.41590118    2.30999994    2.66000009
   18.30027771   91.51869965    1.86000001    2.66000009
   18.30333328   89.20189667    1.00000000    2.66000009
   18.30666542   94.89270020    0.67000002    2.66000009
   18.30999947   90.97039795    0.50000000    2.64000010
   18.31305504   95.48120117    0.51999998    2.66000009
   18.31638718   89.08229828    0.51999998    2.67000008
   18.31972313   98.02010345    0.52999997    2.66000009
   18.32027817   86.79660034    0.52999997    2.66000009
   18.32555580   86.79660034    0.55000001    2.66000009
   18.32972336   98.86550140    0.55000001    2.66000009
   18.33277893  102.51699829    0.52999997    2.66000009
   18.33611107  102.81600189    0.52999997    2.66000009
   18.33944511   97.54979706    0.52999997    2.66000009
   18.34250069   97.81749725    0.52999997    2.66000009
   18.34611130   97.08399963    0.47999999    2.66000009
   18.34944534   96.12470245    0.47999999    2.67000008
   18.35277748   97.05789948    0.47999999    2.66000009
   18.35361099   99.79149628    0.47999999    2.66000009
   18.35611153   89.68399811    0.47999999    2.66000009
   18.35944557   95.54440308    0.46000001    2.66000009
   18.36277771   99.84089661    0.44000000    2.66000009
   18.36833382   99.84089661    0.44000000    2.66000009
   18.37249947   98.07089996    0.44000000    2.66000009
   18.37583351   98.35780334    0.44000000    2.66000009
   18.37888908   80.65450287    0.44000000    2.66000009
   18.38222313   94.35880280    0.46000001    2.66000009
   18.38555527  107.05200195    0.46000001    2.66000009
   18.38694382  104.51599884    0.47999999    2.66000009
   18.38888931   99.30280304    0.51999998    2.66000009
   18.39222145  100.73799896    0.52999997    2.66000009
   18.39555550   97.80940247    0.55000001    2.66000009
   18.39861107   96.22180176    0.55000001    2.66000009
   18.40194321   95.36009979    0.55000001    2.66000009
   18.40527725  107.05000305    0.52999997    2.64000010
   18.41110992  107.05000305    0.51999998    2.66000009
   18.41527748   88.64600372    0.47999999    2.66000009
   18.41860962   91.63839722    0.44000000    2.66000009
   18.42027664   94.52860260    0.44000000    2.64000010
   18.42222214   97.88939667    0.44000000    2.66000009
   18.42555428   91.20709991    0.40000001    2.66000009
   18.42888832   87.22650146    0.40000001    2.66000009
   18.43194389   87.41059875    0.40000001    2.66000009
   18.43527603  105.51999664    0.40000001    2.66000009
   18.43861008   92.79930115    0.40000001    2.66000009
   18.44166565   89.19239807    0.40000001    2.66000009
   18.44499969   89.09970093    0.40000001    2.66000009
   18.44833183   93.61669922    0.40000001    2.66000009
   18.45416832   93.61669922    0.40000001    2.66000009
   18.45833397   96.01170349    0.40000001    2.66000009
   18.46138954  101.61499786    0.40000001    2.66000009
   18.46472359   90.94409943    0.40000001    2.66000009
   18.46777916   89.50099945    0.40000001    2.66000009
   18.47111130  100.05599976    0.40000001    2.66000009
   18.47444534   92.32839966    0.40000001    2.66000009
   18.47750092  101.41899872    0.40000001    2.66000009
   18.48083305   84.00659943    0.40000001    2.66000009
   18.48416710   89.42990112    0.38000000    2.66000009
   18.48694420   95.75189972    0.40000001    2.66000009
   18.48750114   95.40350342    0.40000001    2.66000009
   18.49083328   89.84349823    0.38000000    2.66000009
   18.49694443   89.84349823    0.38000000    2.66000009
   18.50111198   91.76670074    0.40000001    2.66000009
   18.50416756   97.06060028    0.40000001    2.64000010
   18.50749969   82.46309662    0.40000001    2.64000010
   18.51083374   90.25890350    0.40000001    2.66000009
   18.51388931   95.62950134    0.44000000    2.66000009
   18.51722145   95.72059631    0.44000000    2.64000010
   18.52027702   99.18609619    0.44000000    2.64000010
   18.52083397   90.46080017    0.46000001    2.64000010
   18.52416611  102.33599854    0.46000001    2.64000010
   18.52750015  107.02400208    0.81999999    2.64000010
   18.53055573  100.71700287    0.89999998    2.64000010
   18.53388786   98.03800201    1.36000001    2.64000010
   18.53972244   98.03800201    2.39000010    2.61999989
   18.54388809  105.42600250    3.55999994    2.59999990
   18.54722214   96.71360016    4.11999989    2.57999992
   18.55027771  100.05200195    4.28999996    2.57999992
   18.55360985   96.87000275    4.11999989    2.53999996
   18.55388832   98.20240021    4.07999992    2.57999992
   18.55722237  100.67900085    3.89000010    2.57999992
   18.56055450  101.68699646    3.34999990    2.57999992
   18.56361008   86.68379974    3.20000005    2.61999989
   18.56694603   94.24289703    3.14000010    2.59999990
   18.57027817   98.88480377    2.94000006    2.61999989
   18.57333374   94.20020294    2.73000002    2.64000010
   18.57666779   97.91889954    2.40000010    2.61999989
   18.58250046   97.91889954    2.44000006    2.61999989
   18.58666801   93.28309631    2.40000010    2.61999989
   18.58722305   92.96260071    2.42000008    2.61999989
   18.59055710   99.76840210    2.51999998    2.61999989
   18.59388924   96.07270050    2.67000008    2.61999989
   18.59694481   97.50700378    2.78999996    2.61999989
   18.60027885  107.11100006    2.73000002    2.57999992
   18.60333443  110.82900238    2.78999996    2.61999989
   18.60666656   96.13800049    2.91000009    2.59999990
   18.61000061   97.37139893    3.25000000    2.57999992
   18.61305618   99.47769928    3.73000002    2.59999990
   18.61638832  107.34200287    4.30999994    2.57999992
   18.61972237  107.46900177    4.76000023    2.59999990
   18.62055588  108.17700195    4.90999985    2.59999990
   18.62555504  108.17700195    4.90999985    2.57999992
   18.62972260  108.49800110    4.90999985    2.55999994
   18.63277817  102.30799866    4.90999985    2.55999994
   18.63611031  102.09999847    4.90999985    2.53999996
   18.63916588  110.49600220    4.90999985    2.51999998
   18.64249992  115.84899902    4.90999985    2.50000000
   18.64583397  114.92199707    4.90999985    2.48000002
   18.64888954  109.00900269    4.90999985    2.51999998
   18.65222168  106.25299835    4.90999985    2.57999992
   18.65388870   98.01090240    4.90999985    2.55999994
   18.65583229   95.75219727    4.90999985    2.55999994
   18.65916634  100.50599670    4.90999985    2.55999994
   18.66222191  102.81700134    4.90999985    2.53999996
   18.66833305  102.81700134    4.90999985    2.51999998
   18.67249870  110.33000183    4.90999985    2.53999996
   18.67555428  103.08799744    4.90999985    2.50000000
   18.67888832  106.57800293    4.90999985    2.48000002
   18.68222237  111.35900116    4.90999985    2.46000004
   18.68527603  110.22599792    4.90999985    2.51999998
   18.68722153  106.22699738    4.90999985    2.51999998
   18.68888855  103.51100159    4.90999985    2.50000000
   18.69222069  105.29199982    4.90999985    2.51999998
   18.69527626  105.76899719    4.90999985    2.51999998
   18.69861031  100.38400269    4.90999985    2.50000000
   18.70166779  103.43599701    4.90999985    2.51999998
   18.70499992  104.43099976    4.90999985    2.53999996
   18.71111107  104.43099976    4.90999985    2.53999996
   18.71527863  102.01300049    4.90999985    2.55999994
   18.71861076  103.48000336    4.90999985    2.53999996
   18.72055626   95.34470367    4.90999985    2.50000000
   18.72222328   95.14839935    4.90999985    2.53999996
   18.72555542   95.76039886    4.90999985    2.53999996
   18.72861099  102.70500183    4.90999985    2.51999998
   18.73194504  106.39700317    4.90999985    2.51999998
   18.73527718  101.48400116    4.90999985    2.55999994
   18.73833275  107.58599854    4.90999985    2.55999994
   18.74166679   98.57430267    4.90999985    2.53999996
   18.74472237  110.83499908    4.90999985    2.55999994
   18.74805641   99.92990112    4.90999985    2.53999996
   18.75388908   99.92990112    4.90999985    2.53999996
   18.75805473  109.58899689    4.90999985    2.53999996
   18.76138878   98.63500214    4.90999985    2.55999994
   18.76472282  100.41400146    4.90999985    2.55999994
   18.76777840   97.05110168    4.90999985    2.53999996
   18.77111053   86.76869965    4.90999985    2.51999998
   18.77444458  104.10099792    4.90999985    2.53999996
   18.77750015   97.06120300    4.90999985    2.57999992
   18.78083229   94.30519867    4.90999985    2.57999992
   18.78388786   96.02970123    4.86999989    2.55999994
   18.78722191   97.96099854    4.90999985    2.55999994
   18.78916550   95.96009827    4.90999985    2.55999994
   18.79083252   95.05719757    4.90999985    2.55999994
   18.79694366   95.05719757    4.90999985    2.55999994
   18.80111122   99.44129944    4.86999989    2.55999994
   18.80416679   99.84690094    4.86999989    2.55999994
   18.80749893   97.24130249    4.84999990    2.53999996
   18.81055450  102.64399719    4.88999987    2.55999994
   18.81388855  111.07299805    4.80999994    2.55999994
   18.81722260  103.95899963    4.78000021    2.53999996
   18.82027817  107.18599701    4.86999989    2.53999996
   18.82250023  106.82800293    4.90999985    2.53999996
   18.82389069  113.31999969    4.90999985    2.53999996
   18.82722282  107.74299622    4.90999985    2.55999994
   18.83055687  101.76999664    4.90999985    2.55999994
   18.83361244  104.05400085    4.90999985    2.55999994
   18.83972359  104.05400085    4.90999985    2.53999996
   18.84388924  111.62799835    4.86999989    2.53999996
   18.84694481  101.47100067    4.86999989    2.53999996
   18.85027885  113.53500366    4.82999992    2.53999996
   18.85361099  109.76799774    4.80999994    2.55999994
   18.85583305   97.89890289    4.28999996    2.53999996
   18.85722351   97.23719788    4.09999990    2.51999998
   18.86055565  103.16500092    4.00000000    2.53999996
   18.86361122   93.76180267    3.64000010    2.57999992
   18.86694527  100.18900299    2.75000000    2.57999992
   18.87027740   98.03479767    2.53999996    2.59999990
   18.87333298   99.13980103    2.42000008    2.59999990
   18.87666702   95.82099915    2.05999994    2.59999990
   18.88249969   95.82099915    2.01999998    2.59999990
   18.88666725  107.64099884    2.05999994    2.59999990
   18.88916588  111.63200378    2.17000008    2.59999990
   18.89027786   97.78130341    2.40000010    2.57999992
   18.89361191   90.80570221    2.69000006    2.57999992
   18.89666748   95.77050018    3.11999989    2.57999992
   18.89999962   99.40229797    3.45000005    2.57999992
   18.90333366   98.66790009    3.45000005    2.55999994
   18.90638924   97.17220306    3.61999989    2.53999996
   18.90972137  100.43699646    3.97000003    2.53999996
   18.91277695  109.32299805    3.72000003    2.57999992
   18.91611099   99.38259888    3.46000004    2.57999992
   18.91944313  111.87599945    3.41000009    2.51999998
   18.92527771  111.87599945    3.72000003    2.57999992
   18.92944336   98.80590057    3.11999989    2.59999990
   18.93277740   98.68399811    2.91000009    2.50000000
   18.93610954  108.15399933    3.21000004    2.55999994
   18.93916512   94.71289825    3.00000000    2.59999990
   18.94249916   97.89990234    2.64000010    2.59999990
   18.94555473   94.81040192    1.73000002    2.61999989
   18.94888878   93.70269775    1.19000006    2.59999990
   18.95222282   91.18810272    1.11000001    2.59999990
   18.95527840   97.43499756    0.98000002    2.59999990
   18.95639038  100.08699799    0.98000002    2.57999992
   18.95888901  105.09999847    1.00000000    2.57999992
   18.96222305   97.69120026    1.01999998    2.57999992
   18.96833420   97.69120026    0.80000001    2.59999990
   18.97249985   96.56120300    0.52999997    2.59999990
   18.97555542   94.08889771    0.52999997    2.59999990
   18.97888947  101.15699768    0.70999998    2.59999990
   18.98194504   92.18070221    0.73000002    2.59999990
   18.98527718  106.51499939    0.98000002    2.61999989
   18.98861122   99.59719849    1.01999998    2.59999990
   18.98972321  101.05899811    1.07000005    2.59999990
   18.99194527  103.58799744    1.36000001    2.57999992
   18.99527740   96.87069702    1.76999998    2.57999992
   18.99861145   99.32749939    1.85000002    2.59999990
   19.00166702  100.16300201    1.16999996    2.59999990
   19.00499916  104.07900238    1.07000005    2.57999992
   19.01111031  104.07900238    1.21000004    2.57999992
   19.01527786   93.62640381    1.36000001    2.57999992
   19.01833344   96.39440155    1.38000000    2.57999992
   19.02166557   99.00469971    1.44000006    2.55999994
   19.02305603  107.55500031    1.44000006    2.55999994
   19.02527809   95.86640167    1.53999996    2.57999992
   19.02861023   99.54709625    1.55999994    2.57999992
   19.03166580   92.94419861    1.53999996    2.57999992
   19.03499985   96.36889648    1.41999996    2.57999992
   19.03833199   99.35520172    1.39999998    2.59999990
   19.04138756  104.00000000    1.41999996    2.57999992
   19.04472160   99.39720154    1.41999996    2.57999992
   19.04777718   98.07769775    1.44000006    2.55999994
   19.05388832   98.07769775    1.36000001    2.57999992
   19.07222366   93.84410095    0.98000002    2.57999992
   19.07555580   96.15360260    1.05999994    2.57999992
   19.07888985   93.90209961    1.05999994    2.57999992
   19.08194542   98.12310028    1.13000000    2.55999994
   19.08527756   97.15249634    1.33000004    2.57999992
   19.08861160   96.53119659    1.25000000    2.59999990
   19.09166718   95.36859894    0.75000000    2.59999990
   19.09694481   95.36859894    0.75000000    2.59999990
   19.10111237  100.32499695    0.98000002    2.55999994
   19.10444450   94.42479706    1.25000000    2.57999992
   19.10527802  103.82299805    1.25000000    2.57999992
   19.10805511   97.59709930    1.33000004    2.57999992
   19.11138916   95.03379822    1.30999994    2.59999990
   19.11444473   99.44930267    1.28999996    2.57999992
   19.11777878  106.50099945    1.28999996    2.57999992
   19.12111092   99.41089630    1.28999996    2.59999990
   19.12416649   90.11609650    1.46000004    2.55999994
   19.12750053  109.82900238    1.48000002    2.55999994
   19.13083267   89.27290344    1.69000006    2.53999996
   19.13388824   98.45549774    2.57999992    2.57999992
   19.13999939   98.45549774    3.20000005    2.55999994
   19.14388847   94.25000000    3.75000000    2.53999996
   19.14722252   99.96559906    4.09999990    2.50000000
   19.15055466   97.57879639    4.21999979    2.48000002
   19.15361023   92.92639923    4.01999998    2.48000002
   19.15694427  102.27100372    3.39000010    2.51999998
   19.16027832  101.70999908    2.82999992    2.51999998
   19.16333389   94.69830322    2.42000008    2.51999998
   19.16666603   90.43579865    2.13000011    2.53999996
   19.16972160   98.39099884    1.94000006    2.55999994
   19.17194366  100.50900269    1.98000002    2.53999996
   19.17333221   91.34410095    1.98000002    2.53999996
   19.17666626   98.82119751    1.88000000    2.53999996
   19.18277740   98.82119751    1.28999996    2.57999992
   19.18694305  101.70600128    1.28999996    2.57999992
   19.18999863  101.36599731    1.23000002    2.57999992
   19.19333267   99.97949982    1.14999998    2.55999994
   19.19666672   98.83200073    1.34000003    2.55999994
   19.19972038  105.22200012    1.53999996    2.55999994
   19.20305634  103.30599976    1.60000002    2.55999994
   19.20527840  110.19400024    1.58000004    2.55999994
   19.20666695   93.65200043    1.58000004    2.55999994
   19.21000099  102.53099823    1.51999998    2.53999996
   19.21305656   99.59680176    1.34000003    2.55999994
   19.21638870  108.11499786    1.16999996    2.55999994
   19.21972275  107.58899689    1.01999998    2.55999994
   19.22555542  107.58899689    0.67000002    2.55999994
   19.22972298  100.62300110    0.64999998    2.55999994
   19.23305511   98.75109863    0.63000000    2.55999994
   19.23611069   91.45459747    0.63000000    2.57999992
   19.23861122  101.68900299    0.63000000    2.55999994
   19.23972321   97.81950378    0.63000000    2.55999994
   19.24305534  100.44499969    0.63000000    2.55999994
   19.24611092   99.52960205    0.63000000    2.55999994
   19.24944496  109.56600189    0.63000000    2.55999994
   19.25277710   93.33699799    0.63000000    2.55999994
   19.25583267   98.59940338    0.70999998    2.57999992
   19.25916672   91.38359833    0.80000001    2.55999994
   19.26222229   96.38909912    1.03999996    2.55999994
   19.26833344   96.38909912    1.16999996    2.55999994
   19.27249908  102.08599854    1.16999996    2.55999994
   19.27583313  105.13999939    1.16999996    2.55999994
   19.27916718   99.36049652    1.11000001    2.55999994
   19.28222275   89.66560364    1.01999998    2.55999994
   19.28555489   86.48940277    1.00000000    2.55999994
   19.28861046   94.05390167    0.98000002    2.55999994
   19.29194450  102.06300354    0.88000000    2.55999994
   19.29527664   96.99169922    0.88000000    2.55999994
   19.29833221   91.06060028    0.79000002    2.55999994
   19.30166626   99.73059845    0.88000000    2.55999994
   19.30499840   94.95089722    0.88000000    2.55999994
   19.30555534   96.05400085    0.88000000    2.55999994
   19.31138802   96.05400085    0.86000001    2.53999996
   19.31527710  104.25800323    0.75000000    2.55999994
   19.31861115   91.50000000    0.63000000    2.55999994
   19.32194519   94.25409698    0.58999997    2.55999994
   19.32500076   93.46260071    0.58999997    2.55999994
   19.32833481   97.94899750    0.58999997    2.55999994
   19.33166695   94.91760254    0.61000001    2.55999994
   19.33472252  100.44999695    0.69000000    2.53999996
   19.33805656  106.23400116    0.80000001    2.55999994
   19.33889008  105.81600189    0.80000001    2.55999994
   19.34166718  113.18399811    0.80000001    2.55999994
   19.34500122  109.60900116    0.81999999    2.55999994
   19.34833336  106.24099731    0.83999997    2.55999994
   19.35416794  106.24099731    0.70999998    2.55999994
   19.35833359   98.17140198    0.69000000    2.53999996
   19.36138916  100.90299988    0.67000002    2.53999996
   19.36472321  109.94000244    0.67000002    2.55999994
   19.36777878  100.52999878    0.70999998    2.55999994
   19.37111092   99.18550110    0.73000002    2.53999996
   19.37222290  103.29199982    0.73000002    2.53999996
   19.37472153   94.66130066    0.73000002    2.53999996
   19.37805557  103.40399933    0.75000000    2.53999996
   19.38138962   98.51770020    0.75000000    2.55999994
   19.38444519   92.08229828    0.76999998    2.55999994
   19.38777733   95.96299744    0.80000001    2.55999994
   19.39111137   97.96209717    0.88000000    2.53999996
   19.39694405   97.96209717    0.92000002    2.55999994
   19.40111160   97.46240234    0.95999998    2.53999996
   19.40444374   85.72840118    0.95999998    2.53999996
   19.40555573   88.96880341    1.03999996    2.53999996
   19.40777779  108.27999878    1.30999994    2.51999998
   19.41110992  102.18399811    1.38000000    2.51999998
   19.41444397   99.13580322    1.41999996    2.53999996
   19.41749954   94.86750031    1.44000006    2.53999996
   19.42083359  113.11100006    1.55999994    2.53999996
   19.42388916   97.14559937    1.28999996    2.53999996
   19.42722130  100.68699646    1.21000004    2.53999996
   19.43055534  108.36100006    1.23000002    2.53999996
   19.43361092   97.93489838    1.19000006    2.53999996
   19.43972206   97.93489838    0.76999998    2.53999996
   19.44388771  102.54599762    0.61000001    2.53999996
   19.44722176   95.99279785    0.58999997    2.53999996
   19.45027924   94.29380035    0.56999999    2.53999996
   19.45361137   94.87999725    0.55000001    2.53999996
   19.45694542  109.29199982    0.52999997    2.53999996
   19.46000099  103.00900269    0.52999997    2.53999996
   19.46333504   98.15899658    0.51999998    2.53999996
   19.46666718  104.80799866    0.51999998    2.53999996
   19.46972275   96.10829926    0.51999998    2.55999994
   19.47222328   95.39939880    0.51999998    2.53999996
   19.47333336   98.29750061    0.52999997    2.53999996
   19.47666740  100.01699829    0.51999998    2.53999996
   19.48277855  100.01699829    0.52999997    2.53999996
   19.48666763  107.57900238    0.52999997    2.53999996
   19.48999977  112.46600342    0.52999997    2.53999996
   19.49333382   98.27739716    0.51999998    2.53999996
   19.49638939   94.54810333    0.50000000    2.55999994
   19.49972153  102.98899841    0.50000000    2.53999996
   19.50305557  104.94799805    0.50000000    2.53999996
   19.50555611   90.57369995    0.50000000    2.51999998
   19.50638962  102.63600159    0.50000000    2.53999996
   19.50972176  102.07599640    0.50000000    2.53999996
   19.51305580  106.94499969    0.50000000    2.53999996
   19.51611137  103.19000244    0.50000000    2.53999996
   19.51944351  105.64800262    0.50000000    2.53999996
   19.52555466  105.64800262    0.50000000    2.53999996
   19.52972221   92.12999725    0.50000000    2.53999996
   19.53277779   96.79170227    0.51999998    2.51999998
   19.53610992  104.11399841    0.50000000    2.51999998
   19.53888893  109.21499634    0.50000000    2.51999998
   19.53972244   94.34739685    0.50000000    2.51999998
   19.54305458   98.43990326    0.50000000    2.51999998
   19.54638863   99.00250244    0.50000000    2.51999998
   19.54944420   92.19339752    0.50000000    2.51999998
   19.55277634   99.32939911    0.50000000    2.51999998
   19.55583191  103.76499939    0.50000000    2.51999998
   19.55916595  108.48799896    0.50000000    2.53999996
   19.56250000  100.56800079    0.47999999    2.51999998
   19.56833458  100.56800079    0.47999999    2.53999996
   19.57250023  104.60199738    0.47999999    2.51999998
   19.57583427   92.36959839    0.50000000    2.51999998
   19.57888985   94.00180054    0.50000000    2.51999998
   19.58222389   89.71990204    0.47999999    2.51999998
   19.58527756   95.95359802    0.50000000    2.51999998
   19.58861160   97.64289856    0.47999999    2.53999996
   19.59194565  107.50700378    0.47999999    2.53999996
   19.59500122   92.30359650    0.50000000    2.50000000
   19.59833336  106.83200073    0.50000000    2.51999998
   19.60138893  104.30999756    0.51999998    2.51999998
   19.60472298   93.70379639    0.50000000    2.51999998
   19.60555649   97.09190369    0.50000000    2.51999998
   19.61111069   97.09190369    0.50000000    2.51999998
   19.61527824   93.45600128    0.51999998    2.51999998
   19.61861038   95.89620209    0.51999998    2.51999998
   19.62166595   93.40699768    0.51999998    2.51999998
   19.62500000   94.06880188    0.51999998    2.50000000
   19.62833405   90.06880188    0.50000000    2.51999998
   19.63166618   89.71920013    0.50000000    2.51999998
   19.63472176  106.66300201    0.50000000    2.50000000
   19.63805580  109.35800171    0.51999998    2.51999998
   19.63888931   90.14969635    0.50000000    2.50000000
   19.64166641  102.81099701    0.51999998    2.51999998
   19.64472198   98.79609680    0.51999998    2.50000000
   19.64805603   98.07939911    0.51999998    2.50000000
   19.65416718   98.07939911    0.50000000    2.50000000
   19.65805435   99.95159912    0.51999998    2.50000000
   19.66138840  112.69799805    0.51999998    2.51999998
   19.66472244   93.00420380    0.50000000    2.51999998
   19.66777802  110.84300232    0.50000000    2.50000000
   19.67111015   97.85829926    0.51999998    2.50000000
   19.67222214   88.34809875    0.51999998    2.50000000
   19.67444420   97.06210327    0.51999998    2.50000000
   19.67777634   99.61669922    0.51999998    2.50000000
   19.68111038  100.27600098    0.51999998    2.50000000
   19.68416595   92.55100250    0.51999998    2.50000000
   19.68750000   90.36090088    0.51999998    2.50000000
   19.69083214   99.64089966    0.51999998    2.50000000
   19.69694328   99.64089966    0.51999998    2.50000000
   19.70111275   91.65879822    0.51999998    2.50000000
   19.70416832  101.06700134    0.51999998    2.50000000
   19.70555687   92.27110291    0.51999998    2.50000000
   19.70805550   93.21459961    0.51999998    2.48000002
   19.71111107   89.09110260    0.51999998    2.48000002
   19.71444511   85.51119995    0.52999997    2.50000000
   19.71750069   87.29260254    0.52999997    2.50000000
   19.72083473   88.39980316    0.52999997    2.48000002
   19.72416687   93.82530212    0.55000001    2.48000002
   19.72722244   89.60559845    0.52999997    2.48000002
   19.73055649   82.97720337    0.55000001    2.48000002
   19.73388863   87.67949677    0.52999997    2.48000002
   19.73972321   87.67949677    0.55000001    2.48000002
   19.74388885  122.96199799    0.55000001    2.48000002
   19.74722290  120.01200104    0.55000001    2.48000002
   19.75027847  119.26899719    0.55000001    2.48000002
   19.75361061  156.63299561    0.55000001    2.48000002
   19.75666618  303.60598755    0.55000001    2.48000002
   19.75888824  177.84599304    0.55000001    2.48000002
   19.75888824  156.63299561    0.55000001    2.48000002
   19.75888824  303.60598755    0.55000001    2.48000002
   19.75916672   93.82530212    0.55000001    2.48000002
   19.75916672   89.60559845    0.52999997    2.48000002
   19.75916672   82.97720337    0.55000001    2.48000002
   19.75944519   87.67949677    0.52999997    2.48000002
   19.75944519  122.96199799    0.55000001    2.48000002
   19.75972176  120.01200104    0.55000001    2.48000002
   19.75972176  119.26899719    0.55000001    2.48000002
   19.76166725   -1.00000000    0.55000001    2.48000002
   19.76499939   -1.00000000    0.55000001    2.48000002
   19.76805496   -1.00000000    0.55000001    2.48000002
   19.77138901   -1.00000000    0.55000001    2.48000002
   19.77472115   -1.00000000    0.55000001    2.48000002
