    HOUR (UT)   FLARE FACTOR    SKY TESTER    SUN TESTER
   11.92138958   -1.00000000   -1.00000000   -1.00000000
   11.95861053   96.91470337    0.86000001    2.51999998
   11.96194458   93.80549622    0.86000001    2.51999998
   11.96500015   87.14559937    0.86000001    2.51999998
   11.96833324   97.91059875    0.86000001    2.53999996
   11.97166634  101.78099823    0.88000000    2.53999996
   11.97472191   89.20790100    0.86000001    2.53999996
   11.97888851   89.20790100    0.86000001    2.53999996
   11.98305511  104.81800079    0.86000001    2.53999996
   11.98638916  105.75000000    0.86000001    2.53999996
   11.98944473  117.89700317    0.86000001    2.53999996
   11.99194431  129.40899658    0.86000001    2.53999996
   11.99333382  118.15499878    0.86000001    2.53999996
   11.99638939  127.42099762    0.83999997    2.55999994
   11.99972248  153.02999878    0.83999997    2.53999996
   12.00277805  163.06700134    0.83999997    2.55999994
   12.00611115  114.97200012    0.83999997    2.55999994
   12.00944424  139.89500427    0.83999997    2.53999996
   12.01361084  139.89500427    0.83999997    2.53999996
   12.01777744  127.17099762    0.83999997    2.55999994
   12.02083302  132.86999512    0.83999997    2.53999996
   12.02416611  132.16999817    0.83999997    2.55999994
   12.02527714  142.78500366    0.81999999    2.55999994
   12.02777767  116.26399994    0.81999999    2.55999994
   12.03111076  125.53099823    0.81999999    2.55999994
   12.03444481  150.07000732    0.83999997    2.55999994
   12.03777790  128.89300537    0.83999997    2.55999994
   12.04111195  109.44699860    0.83999997    2.55999994
   12.04444504  118.59500122    0.83999997    2.55999994
   12.04944515  118.59500122    0.83999997    2.55999994
   12.05416679  122.14399719    0.83999997    2.55999994
   12.05749989  109.48600006    0.83999997    2.55999994
   12.06027794   97.39769745    0.83999997    2.55999994
   12.06361103  120.37899780    0.81999999    2.57999992
   12.06750011  114.28199768    0.81999999    2.55999994
   12.07138920  113.27600098    0.83999997    2.57999992
   12.07499981  112.80300140    0.81999999    2.55999994
   12.07833290  117.84999847    0.81999999    2.57999992
   12.08388901  117.84999847    0.81999999    2.57999992
   12.08833313  112.69499969    0.81999999    2.57999992
   12.09166622  112.56199646    0.81999999    2.57999992
   12.09222221  116.09100342    0.81999999    2.57999992
   12.09499931  115.67400360    0.81999999    2.57999992
   12.09833336  103.37799835    0.83999997    2.57999992
   12.10166740  105.70600128    0.81999999    2.57999992
   12.10500050  100.51399994    0.81999999    2.57999992
   12.10833359  105.13300323    0.80000001    2.57999992
   12.11166668  114.07299805    0.81999999    2.59999990
   12.11777782  114.07299805    0.80000001    2.57999992
   12.12194443   94.82730103    0.81999999    2.57999992
   12.12555599  108.94200134    0.80000001    2.57999992
   12.12611103   99.87200165    0.80000001    2.59999990
   12.12944412   93.84210205    0.80000001    2.57999992
   12.13277817  105.32199860    0.80000001    2.59999990
   12.13611126  109.22899628    0.80000001    2.59999990
   12.13944435   97.75910187    0.79000002    2.59999990
   12.14305496   97.43070221    0.80000001    2.59999990
   12.14638901   96.64640045    0.79000002    2.59999990
   12.15222168   96.64640045    0.79000002    2.59999990
   12.15638828  113.16999817    0.79000002    2.59999990
   12.15944386   97.81320190    0.79000002    2.59999990
   12.15999985  103.91500092    0.79000002    2.59999990
   12.16333294  102.38200378    0.76999998    2.59999990
   12.16666698   96.70220184    0.76999998    2.59999990
   12.17000008   98.69740295    0.79000002    2.59999990
   12.17333412   96.69539642    0.76999998    2.59999990
   12.17750072   91.94020081    0.79000002    2.59999990
   12.18166733  100.06199646    0.76999998    2.59999990
   12.18750000  100.06199646    0.76999998    2.59999990
   12.19166660   91.67600250    0.76999998    2.59999990
   12.19333363  106.23000336    0.76999998    2.59999990
   12.19555569  112.28099823    0.76999998    2.61999989
   12.19888878  111.41100311    0.76999998    2.61999989
   12.20222187  106.92199707    0.76999998    2.61999989
   12.20583344  124.55999756    0.76999998    2.61999989
   12.20916653  124.23000336    0.76999998    2.61999989
   12.21249962  114.28900146    0.76999998    2.61999989
   12.21611118  135.20899963    0.76999998    2.61999989
   12.22138882  135.20899963    0.76999998    2.64000010
   12.22555542  132.75300598    0.76999998    2.61999989
   12.22666645  134.57299805    0.79000002    2.61999989
   12.22972202  125.32700348    0.76999998    2.64000010
   12.23305511  123.07599640    0.76999998    2.61999989
   12.23638916  113.28399658    0.76999998    2.61999989
   12.23972225  123.37300110    0.79000002    2.61999989
   12.24305534  110.22699738    0.76999998    2.61999989
   12.24666691  114.70700073    0.79000002    2.61999989
   12.25000000  106.85700226    0.76999998    2.64000010
   12.25583363  106.85700226    0.76999998    2.61999989
   12.26027775  118.71900177    0.79000002    2.61999989
   12.26361084  113.88400269    0.76999998    2.61999989
   12.26694393  103.62999725    0.76999998    2.61999989
   12.27027798  111.20899963    0.76999998    2.64000010
   12.27361107  113.97299957    0.76999998    2.64000010
   12.27694416  111.27500153    0.79000002    2.64000010
   12.28027725   91.14759827    0.76999998    2.64000010
   12.28361130  107.33399963    0.76999998    2.64000010
   12.29027843  107.33399963    0.76999998    2.64000010
   12.29500008   97.69380188    0.76999998    2.64000010
   12.29805565   97.55259705    0.76999998    2.64000010
   12.30138874  100.78600311    0.76999998    2.64000010
   12.30527782   96.60389709    0.76999998    2.64000010
   12.30833340  101.99800110    0.75000000    2.64000010
   12.31166649   92.06050110    0.75000000    2.64000010
   12.31500053   85.18379974    0.75000000    2.64000010
   12.31833363   93.76069641    0.75000000    2.64000010
   12.32499981   93.76069641    0.75000000    2.66000009
   12.32916641   98.23269653    0.75000000    2.64000010
   12.33249950   94.93509674    0.75000000    2.64000010
   12.33583260   98.23320007    0.75000000    2.66000009
   12.33916664   96.03160095    0.75000000    2.66000009
   12.34222221   89.12670135    0.75000000    2.66000009
   12.34555531   97.70220184    0.75000000    2.64000010
   12.34888840   95.91010284    0.73000002    2.66000009
   12.35194492   91.44999695    0.73000002    2.66000009
   12.35527802   97.05619812    0.73000002    2.66000009
   12.35944462   97.05619812    0.73000002    2.66000009
   12.36361122  107.18800354    0.73000002    2.66000009
   12.36694431  107.27200317    0.73000002    2.66000009
   12.36999989   96.30650330    0.70999998    2.66000009
   12.37333393   95.08180237    0.70999998    2.66000009
   12.37666702   93.38330078    0.73000002    2.66000009
   12.37972260   95.05879974    0.73000002    2.66000009
   12.38333321   92.00810242    0.70999998    2.66000009
   12.38694477   95.13510132    0.70999998    2.66000009
   12.39027786   96.17279816    0.70999998    2.66000009
   12.39444447   96.17279816    0.70999998    2.66000009
   12.39861107   93.02749634    0.70999998    2.66000009
   12.40194416   92.51490021    0.70999998    2.66000009
   12.40499973   98.51049805    0.70999998    2.66000009
   12.40833282   94.61090088    0.70999998    2.66000009
   12.41166592  104.30599976    0.70999998    2.66000009
   12.41472149   92.89080048    0.70999998    2.67000008
   12.41805553   96.50389862    0.70999998    2.67000008
   12.42166710   96.37950134    0.70999998    2.67000008
   12.42500019   97.86509705    0.70999998    2.67000008
   12.42944431   97.86509705    0.70999998    2.67000008
   12.43361092   99.46749878    0.70999998    2.67000008
   12.43694496   93.05740356    0.70999998    2.67000008
   12.44027805   94.45300293    0.70999998    2.67000008
   12.44333363  105.02500153    0.70999998    2.67000008
   12.44694424   89.04029846    0.70999998    2.67000008
   12.44999981   92.04609680    0.70999998    2.67000008
   12.45333290   84.48989868    0.70999998    2.67000008
   12.45666695   93.33000183    0.70999998    2.67000008
   12.46000004   89.30079651    0.70999998    2.67000008
   12.46416664   89.30079651    0.70999998    2.67000008
   12.46833324   90.68779755    0.70999998    2.67000008
   12.47166634   99.03589630    0.70999998    2.67000008
   12.47499943   91.17259979    0.70999998    2.67000008
   12.47833252   84.06390381    0.70999998    2.67000008
   12.48166656   83.84680176    0.70999998    2.67000008
   12.48500061   93.63249969    0.70999998    2.69000006
   12.48833370   93.35209656    0.70999998    2.69000006
   12.49166679   86.54699707    0.70999998    2.69000006
   12.49499989   88.57250214    0.69000000    2.69000006
   12.49916649   88.57250214    0.70999998    2.69000006
   12.50333309   88.16400146    0.69000000    2.69000006
   12.50666714   97.66529846    0.70999998    2.69000006
   12.51000023   85.48750305    0.70999998    2.69000006
   12.51305580   84.78479767    0.69000000    2.69000006
   12.51638889   92.48560333    0.69000000    2.69000006
   12.51972198   89.73580170    0.69000000    2.69000006
   12.52277756   84.81580353    0.69000000    2.69000006
   12.52611065   80.94609833    0.69000000    2.69000006
   12.52944374   86.47989655    0.67000002    2.69000006
   12.53388977   86.47989655    0.69000000    2.69000006
   12.53805637   86.13269806    0.69000000    2.71000004
   12.54138947   84.13310242    0.69000000    2.69000006
   12.54472256   84.45269775    0.69000000    2.71000004
   12.54805565   93.56009674    0.67000002    2.69000006
   12.55111122   85.14880371    0.67000002    2.71000004
   12.55444431   84.31050110    0.67000002    2.69000006
   12.55777836   88.64920044    0.67000002    2.69000006
   12.56111145   88.19899750    0.67000002    2.71000004
   12.56416702   88.39299774    0.67000002    2.69000006
   12.56833363   88.39299774    0.67000002    2.71000004
   12.57277775   81.87460327    0.67000002    2.71000004
   12.57638836   90.75610352    0.67000002    2.71000004
   12.57972240   82.73799896    0.67000002    2.69000006
   12.58305550   90.34200287    0.67000002    2.71000004
   12.58611107   87.89550018    0.67000002    2.69000006
   12.59000015   93.43920135    0.67000002    2.71000004
   12.59333324   90.75589752    0.67000002    2.71000004
   12.59666634   88.78230286    0.67000002    2.71000004
   12.60472298   88.78230286    0.67000002    2.71000004
   12.61055565   86.88839722    0.69000000    2.71000004
   12.61527824   89.66030121    0.69000000    2.71000004
   12.61944485   89.57849884    0.67000002    2.71000004
   12.62388897   94.83470154    0.67000002    2.71000004
   12.62722206   80.11009979    0.67000002    2.71000004
   12.63111115   85.15509796    0.67000002    2.71000004
   12.63833332   85.15509796    0.67000002    2.71000004
   12.64249992   90.26750183    0.67000002    2.71000004
   12.64583302   83.76589966    0.67000002    2.73000002
   12.64944458   86.92859650    0.67000002    2.71000004
   12.65333271   88.59989929    0.67000002    2.73000002
   12.65666676   82.71779633    0.64999998    2.73000002
   12.65999985   85.34429932    0.64999998    2.73000002
   12.66305542   81.18969727    0.67000002    2.73000002
   12.66694450   85.37899780    0.64999998    2.73000002
   12.67250061   85.37899780    0.64999998    2.71000004
   12.67666721   77.03720093    0.64999998    2.73000002
   12.68000031   85.74739838    0.64999998    2.75000000
   12.68305588   84.25579834    0.64999998    2.73000002
   12.68638897   86.26029968    0.67000002    2.73000002
   12.68972206   84.59850311    0.64999998    2.73000002
   12.69305515   79.69290161    0.64999998    2.73000002
   12.69638920   83.73149872    0.64999998    2.73000002
   12.69972229   85.69120026    0.64999998    2.73000002
   12.70305538   83.66919708    0.64999998    2.73000002
   12.70722198   83.66919708    0.64999998    2.73000002
   12.71138859   88.68430328    0.64999998    2.73000002
   12.71472168   84.19920349    0.64999998    2.75000000
   12.71805477   84.03260040    0.64999998    2.75000000
   12.72194386   87.20290375    0.63000000    2.73000002
   12.72555542   87.63200378    0.63000000    2.73000002
   12.72888851   82.74970245    0.63000000    2.75000000
   12.73222160   74.26290131    0.64999998    2.73000002
   12.73555565   82.17970276    0.64999998    2.73000002
   12.74194431   82.17970276    0.64999998    2.73000002
   12.74611092   86.46690369    0.64999998    2.75000000
   12.75055599   89.09980011    0.64999998    2.75000000
   12.75416660   80.76909637    0.64999998    2.75000000
   12.75777817   89.31990051    0.67000002    2.75000000
   12.76138878   85.90480042    0.64999998    2.75000000
   12.76555538   93.45480347    0.64999998    2.73000002
   12.76944447   87.52559662    0.64999998    2.75000000
   12.77666664   87.52559662    0.63000000    2.75000000
   12.78166676   85.52480316    0.63000000    2.75000000
   12.78527832   89.53240204    0.63000000    2.75000000
   12.78944492   76.47219849    0.63000000    2.75000000
   12.79305553   85.45559692    0.64999998    2.75000000
   12.79666710   85.74810028    0.64999998    2.75000000
   12.80000019   88.99859619    0.64999998    2.75000000
   12.80305576   85.75039673    0.64999998    2.75000000
   12.80638885   81.70939636    0.64999998    2.75000000
   12.81083393   81.70939636    0.64999998    2.75000000
   12.81527805   82.90380096    0.63000000    2.75000000
   12.81861115   85.12220001    0.63000000    2.76999998
   12.82194424   76.87789917    0.63000000    2.75000000
   12.82555580   82.01860046    0.63000000    2.76999998
   12.82888889   88.96990204    0.63000000    2.75000000
   12.83222198   80.39150238    0.63000000    2.75000000
   12.83666611   78.78829956    0.63000000    2.75000000
   12.84111118   82.67890167    0.63000000    2.76999998
   12.84777737   82.67890167    0.63000000    2.76999998
   12.85333347   80.62290192    0.61000001    2.75000000
   12.85888958   88.60079956    0.61000001    2.75000000
   12.86333370   87.59960175    0.61000001    2.76999998
   12.86916637   95.07109833    0.61000001    2.76999998
   12.87527752   87.89440155    0.58999997    2.75000000
   12.88333321   87.89440155    0.61000001    2.76999998
   12.88833332   93.73660278    0.58999997    2.76999998
   12.89222240   92.93479919    0.61000001    2.76999998
   12.89583302   89.24099731    0.61000001    2.76999998
   12.89972210   83.90899658    0.58999997    2.76999998
   12.90388870   86.88729858    0.58999997    2.76999998
   12.90805531   90.23850250    0.61000001    2.76999998
   12.91444397   90.23850250    0.61000001    2.76999998
   12.91888905   87.17310333    0.61000001    2.76999998
   12.91972256   87.41249847    0.61000001    2.76999998
   12.92250061   92.44560242    0.58999997    2.76999998
   12.92638874   89.50199890    0.58999997    2.76999998
   12.92944431   84.47409821    0.58999997    2.76999998
   12.93361092   88.46379852    0.58999997    2.78999996
   12.93694496   83.04540253    0.58999997    2.78999996
   12.94027805   82.61949921    0.58999997    2.76999998
   12.94388866   88.92230225    0.58999997    2.76999998
   12.94916630   88.92230225    0.58999997    2.78999996
   12.95333290   80.41259766    0.61000001    2.76999998
   12.95638847   88.88379669    0.61000001    2.76999998
   12.95972157   93.01989746    0.61000001    2.76999998
   12.97972202   85.66269684    0.58999997    2.78999996
   12.98388958   85.66269684    0.58999997    2.78999996
   12.98805618   86.81849670    0.58999997    2.78999996
   12.99138927   85.91300201    0.58999997    2.76999998
   12.99472237   85.16549683    0.61000001    2.78999996
   12.99805546   87.91059875    0.58999997    2.78999996
   13.00138855   90.74019623    0.61000001    2.78999996
   13.00472260   80.98370361    0.58999997    2.78999996
   13.00777817   88.35050201    0.58999997    2.78999996
   13.01111126   86.74210358    0.58999997    2.78999996
   13.01444435   86.81739807    0.61000001    2.78999996
   13.01888847   86.81739807    0.58999997    2.78999996
   13.02305508   88.00009918    0.61000001    2.78999996
   13.02638817   89.81659698    0.61000001    2.78999996
   13.02944374   93.33509827    0.61000001    2.78999996
   13.03277779   97.08110046    0.61000001    2.78999996
   13.03583336   95.37249756    0.58999997    2.78999996
   13.03916740   84.06300354    0.61000001    2.78999996
   13.04277802   92.83609772    0.58999997    2.78999996
   13.04611111   90.66719818    0.58999997    2.78999996
   13.05361176   90.66719818    0.55000001    2.80999994
   13.05777836   92.65190125    0.55000001    2.80999994
   13.06138897   91.08799744    0.52999997    2.78999996
   13.06472206   90.21070099    0.52999997    2.78999996
   13.06805515   99.97709656    0.51999998    2.80999994
   13.07138920   95.76629639    0.52999997    2.78999996
   13.07472229   87.72879791    0.51999998    2.78999996
   13.07833290   94.42179871    0.51999998    2.80999994
   13.08166695   84.75350189    0.50000000    2.80999994
   13.08805561   84.75350189    0.50000000    2.80999994
   13.09249973   90.93650055    0.47999999    2.80999994
   13.09583282   92.46099854    0.50000000    2.80999994
   13.09916592   90.96379852    0.50000000    2.80999994
   13.10249996   91.97270203    0.50000000    2.80999994
   13.10583401  100.34600067    0.50000000    2.80999994
   13.10916710   96.16410065    0.50000000    2.80999994
   13.11250019  102.68800354    0.50000000    2.80999994
   13.11583328   97.25910187    0.50000000    2.80999994
   13.12277794   97.25910187    0.51999998    2.80999994
   13.12722206   91.24060059    0.51999998    2.80999994
   13.13055611   92.92980194    0.51999998    2.80999994
   13.13388920   85.39050293    0.51999998    2.80999994
   13.13722229   92.78220367    0.51999998    2.80999994
   13.14083290   81.46499634    0.51999998    2.80999994
   13.14416695   94.13700104    0.50000000    2.82999992
   13.14750004   88.46119690    0.51999998    2.82999992
   13.15111065   88.71309662    0.52999997    2.82999992
   13.15722179   88.71309662    0.55000001    2.80999994
   13.16166592   83.20159912    0.61000001    2.80999994
   13.16527748   86.91490173    0.61000001    2.80999994
   13.16861153   87.26170349    0.64999998    2.80999994
   13.17194462   80.98529816    0.58999997    2.80999994
   13.17527771   84.68930054    0.56999999    2.80999994
   13.17861176   82.58260345    0.55000001    2.82999992
   13.18194485   89.26550293    0.55000001    2.80999994
   13.18555546   85.65110016    0.55000001    2.80999994
   13.19166660   85.65110016    0.52999997    2.80999994
   13.19611073   85.18119812    0.52999997    2.80999994
   13.19944477   79.87580109    0.55000001    2.80999994
   13.20277786   81.46769714    0.55000001    2.80999994
   13.20638847   86.39890289    0.55000001    2.82999992
   13.20972157   86.83390045    0.55000001    2.80999994
   13.21305561   81.95149994    0.55000001    2.82999992
   13.21638870   84.57319641    0.52999997    2.82999992
   13.21972179   84.99199677    0.52999997    2.80999994
   13.22638798   84.99199677    0.52999997    2.82999992
   13.23083305   91.45330048    0.52999997    2.82999992
   13.23416710   86.88120270    0.51999998    2.80999994
   13.23750019   85.47910309    0.52999997    2.80999994
   13.24083328   88.44249725    0.52999997    2.82999992
   13.24416733   89.96330261    0.52999997    2.80999994
   13.24750042   84.79149628    0.52999997    2.82999992
   13.25111103   83.41699982    0.52999997    2.82999992
   13.25444412   81.99629974    0.52999997    2.82999992
   13.26083374   81.99629974    0.52999997    2.82999992
   13.26527786   88.62570190    0.52999997    2.82999992
   13.26833344   81.53050232    0.51999998    2.82999992
   13.27194405   85.66310120    0.52999997    2.82999992
   13.27527714   86.14550018    0.52999997    2.82999992
   13.27888870   87.38809967    0.52999997    2.80999994
   13.28222179   81.24379730    0.52999997    2.82999992
   13.28555584   86.72270203    0.52999997    2.82999992
   13.28888893   83.69539642    0.55000001    2.82999992
   13.29527855   83.69539642    0.52999997    2.82999992
   13.29972267   85.30310059    0.52999997    2.82999992
   13.30305576   82.17569733    0.52999997    2.82999992
   13.30638885   88.45790100    0.52999997    2.84999990
   13.30972195   84.94429779    0.52999997    2.82999992
   13.31277752   83.97640228    0.52999997    2.82999992
   13.31611156   88.85109711    0.52999997    2.84999990
   13.31972218   83.56250000    0.51999998    2.82999992
   13.32305527   83.24289703    0.52999997    2.82999992
   13.32999992   83.24289703    0.52999997    2.82999992
   13.33444405   84.80690002    0.52999997    2.84999990
   13.33805561   86.76200104    0.52999997    2.82999992
   13.34138870   92.86280060    0.52999997    2.82999992
   13.34472179   83.40750122    0.51999998    2.84999990
   13.34805489   89.39720154    0.51999998    2.82999992
   13.35138893   92.42340088    0.51999998    2.82999992
   13.35472298   88.59870148    0.51999998    2.82999992
   13.35777855   90.56420135    0.52999997    2.82999992
   13.36388969   90.56420135    0.52999997    2.84999990
   13.36833382   92.30410004    0.51999998    2.82999992
   13.37166691  100.72899628    0.51999998    2.82999992
   13.37527752  107.91100311    0.52999997    2.84999990
   13.37861156  100.14399719    0.51999998    2.82999992
   13.38222218  100.03800201    0.51999998    2.84999990
   13.38555527  109.12300110    0.51999998    2.84999990
   13.38916683   99.43560028    0.51999998    2.84999990
   13.39249992  100.03399658    0.51999998    2.84999990
   13.39916611  100.03399658    0.51999998    2.84999990
   13.40333271  102.17400360    0.51999998    2.84999990
   13.40666676  111.20800018    0.51999998    2.84999990
   13.40972137  109.35199738    0.51999998    2.84999990
   13.41305542  129.88400269    0.50000000    2.84999990
   13.41638851  106.54299927    0.50000000    2.82999992
   13.42000008  114.08100128    0.50000000    2.84999990
   13.42333412  104.80300140    0.50000000    2.84999990
   13.42666721  117.15399933    0.51999998    2.84999990
   13.43305588  117.15399933    0.50000000    2.84999990
   13.43750000  125.93000031    0.50000000    2.84999990
   13.44083309  133.05700684    0.50000000    2.82999992
   13.44416714  136.65100098    0.50000000    2.84999990
   13.44777775  136.19999695    0.50000000    2.84999990
   13.45111084  142.72599792    0.50000000    2.84999990
   13.45444393  144.81900024    0.50000000    2.84999990
   13.45777798  156.58399963    0.50000000    2.84999990
   13.46111107  161.98100281    0.50000000    2.84999990
   13.46777725  161.98100281    0.50000000    2.84999990
   13.47222137  204.74600220    0.50000000    2.84999990
   13.47555542  222.24499512    0.50000000    2.86999989
   13.47888851  198.98800659    0.50000000    2.84999990
   13.48222160  209.22399902    0.50000000    2.84999990
   13.48555565  248.94500732    0.50000000    2.84999990
   13.48888874  263.53500366    0.50000000    2.84999990
   13.49194431  231.63699341    0.50000000    2.84999990
   13.49527836  256.82501221    0.50000000    2.84999990
   13.50194454  256.82501221    0.50000000    2.86999989
   13.50611115  110.76999664    0.50000000    2.86999989
   13.50944424   89.48699951    0.50000000    2.82999992
   13.51277733   68.44920349    0.50000000    2.84999990
   13.51611137   -1.00000000   -1.00000000   -1.00000000
   13.51944447   -1.00000000   -1.00000000   -1.00000000
   13.52305508   -1.00000000   -1.00000000   -1.00000000
   13.52638817   -1.00000000    0.47999999    2.86999989
   13.52972221   -1.00000000    0.50000000    2.86999989
   13.53666687   -1.00000000    0.47999999    2.86999989
   13.54083347   -1.00000000    0.47999999    2.86999989
   13.54416752   -1.00000000    0.47999999    2.86999989
   13.54750061   -1.00000000    0.47999999    2.84999990
   13.55111122   -1.00000000    0.47999999    2.86999989
   13.55472279   -1.00000000    0.50000000    2.86999989
   13.55805588   -1.00000000    0.47999999    2.86999989
   13.56138897   -1.00000000    0.47999999    2.86999989
   13.56500053   -1.00000000    0.47999999    2.86999989
   13.57111073   -1.00000000    0.47999999    2.86999989
   13.57555580   -1.00000000    0.47999999    2.86999989
   13.57861137   -1.00000000    0.47999999    2.84999990
   13.58194447   -1.00000000    0.47999999    2.86999989
   13.58527756   -1.00000000    0.50000000    2.86999989
   13.58833313   -1.00000000    0.47999999    2.86999989
   13.59166622   -1.00000000    0.47999999    2.86999989
   13.59499931   -1.00000000    0.47999999    2.86999989
   13.59805489   -1.00000000    0.47999999    2.86999989
   13.60138893   -1.00000000    0.47999999    2.86999989
   13.60555553   -1.00000000    0.47999999    2.86999989
   13.60972214   -1.00000000    0.47999999    2.86999989
   13.61277771   -1.00000000    0.47999999    2.86999989
   13.61611176   -1.00000000    0.47999999    2.86999989
   13.61916637   -1.00000000    0.47999999    2.86999989
   13.62250042   -1.00000000    0.47999999    2.86999989
   13.62583351   -1.00000000    0.47999999    2.86999989
   13.62888908   -1.00000000    0.50000000    2.86999989
   13.63222218   -1.00000000    0.47999999    2.86999989
   13.63555527   -1.00000000    0.50000000    2.86999989
   13.64416695   -1.00000000    0.50000000    2.86999989
   13.64722252   -1.00000000    0.50000000    2.86999989
   13.65055561   -1.00000000    0.50000000    2.86999989
   13.65361118   -1.00000000    0.50000000    2.86999989
   13.65694427   -1.00000000    0.50000000    2.86999989
   13.66027737   87.64060211    0.50000000    2.86999989
   13.66333294   85.15940094    0.50000000    2.86999989
   13.66666698   76.69979858    0.50000000    2.86999989
   13.67000008   81.16089630    0.50000000    2.86999989
   13.67444515   81.16089630    0.51999998    2.86999989
   13.67861176   77.29290009    0.51999998    2.86999989
   13.68194485   87.37760162    0.50000000    2.86999989
   13.68500042   87.14369965    0.51999998    2.89000010
   13.68833351   80.70140076    0.51999998    2.86999989
   13.69166660   77.73789978    0.51999998    2.84999990
   13.69472218   76.43560028    0.51999998    2.86999989
   13.69805527   78.52590179    0.51999998    2.86999989
   13.70111084   78.22579956    0.51999998    2.86999989
   13.70444393   78.34619904    0.51999998    2.86999989
   13.70888901   78.34619904    0.51999998    2.86999989
   13.71305561   80.58540344    0.51999998    2.86999989
   13.71638870   80.17269897    0.52999997    2.86999989
   13.71972179   81.91760254    0.51999998    2.86999989
   13.72277737   78.97959900    0.51999998    2.86999989
   13.72611046   87.05740356    0.51999998    2.86999989
   13.72916603   81.76509857    0.52999997    2.86999989
   13.73249912   83.07060242    0.51999998    2.86999989
   13.73583317   78.93080139    0.51999998    2.86999989
   13.73888874   78.14640045    0.51999998    2.86999989
   13.74361134   78.14640045    0.51999998    2.89000010
   13.74777794   77.81929779    0.51999998    2.86999989
   13.75083351   78.77519989    0.51999998    2.86999989
   13.75416660   76.04550171    0.51999998    2.86999989
   13.75722218   78.18019867    0.51999998    2.86999989
   13.76055527   79.27780151    0.51999998    2.86999989
   13.76388931   76.05500031    0.51999998    2.86999989
   13.76694393   80.72019958    0.51999998    2.86999989
   13.77027798   83.65550232    0.51999998    2.86999989
   13.77361107   85.09089661    0.51999998    2.89000010
   13.77805519   85.09089661    0.51999998    2.89000010
   13.78222179   83.98789978    0.52999997    2.89000010
   13.78527832   84.10910034    0.56999999    2.86999989
   13.78861141   80.40239716    0.56999999    2.89000010
   13.79194450   89.83750153    0.58999997    2.86999989
   13.79500008   90.90989685    0.61000001    2.89000010
   13.79833412   84.70670319    0.61000001    2.89000010
   13.80138874   79.11669922    0.58999997    2.86999989
   13.80472279   81.49539948    0.56999999    2.86999989
   13.80805588   77.74700165    0.56999999    2.89000010
   13.81250000   77.74700165    0.55000001    2.89000010
   13.81666660   79.25839996    0.56999999    2.89000010
   13.81999969   81.63629913    0.56999999    2.89000010
   13.82305527   83.25360107    0.55000001    2.89000010
   13.82638836   82.98110199    0.61000001    2.89000010
   13.82972240   84.01619720    0.64999998    2.86999989
   13.83277798   84.02809906    0.61000001    2.89000010
   13.83611107   88.74569702    0.61000001    2.89000010
   13.83916664   82.96920013    0.61000001    2.89000010
   13.84249973   77.91159821    0.64999998    2.86999989
   13.84694386   77.91159821    0.67000002    2.89000010
   13.85111141   81.94259644    0.70999998    2.89000010
   13.85444450   79.19139862    0.70999998    2.89000010
   13.85750008   84.92710114    0.73000002    2.89000010
   13.86083412   84.44580078    0.70999998    2.89000010
   13.86416721   84.03209686    0.70999998    2.89000010
   13.86722279   82.82720184    0.70999998    2.89000010
   13.87055588   86.11840057    0.70999998    2.89000010
   13.87388897   78.97740173    0.69000000    2.89000010
   13.87694454   83.31549835    0.69000000    2.89000010
   13.88166714   83.31549835    0.70999998    2.89000010
   13.88555527   83.85359955    0.70999998    2.86999989
   13.88888836   78.45320129    0.70999998    2.86999989
   13.89222240   81.16999817    0.73000002    2.89000010
   13.89527798   74.26660156    0.73000002    2.89000010
   13.89861107   78.83450317    0.75000000    2.89000010
   13.90194416   80.54959869    0.75000000    2.89000010
   13.90499973   74.59100342    0.75000000    2.89000010
   13.90833282   77.64839935    0.76999998    2.91000009
   13.91138840   79.72239685    0.75000000    2.89000010
   13.91611099   79.72239685    0.73000002    2.89000010
   13.92027855   82.84110260    0.73000002    2.89000010
   13.92333412   83.38569641    0.70999998    2.86999989
   13.92666721   77.30059814    0.70999998    2.91000009
   13.93000031   76.66870117    0.69000000    2.89000010
   13.93305588   77.92179871    0.69000000    2.91000009
   13.93638897   80.31670380    0.67000002    2.89000010
   13.93944454   83.44080353    0.69000000    2.89000010
   13.94277763   83.33350372    0.67000002    2.89000010
   13.94611073   80.84259796    0.67000002    2.89000010
   13.95055580   80.84259796    0.64999998    2.89000010
   13.95472240   88.20439911    0.64999998    2.89000010
   13.95777798   77.73590088    0.64999998    2.89000010
   13.96111107   81.63670349    0.64999998    2.89000010
   13.96444416   76.70439911    0.63000000    2.89000010
   13.96749973   81.57779694    0.63000000    2.91000009
   13.97083282   81.67720032    0.63000000    2.89000010
   13.97416592   83.71269989    0.63000000    2.89000010
   13.97722149   79.57250214    0.61000001    2.89000010
   14.00000000   79.57250214    0.56999999    2.91000009
   14.00388908   79.37190247    0.55000001    2.91000009
   14.00722218   83.66329956    0.55000001    2.91000009
   14.01055527   80.94380188    0.55000001    2.91000009
   14.01361084   79.34590149    0.55000001    2.89000010
   14.01694393   82.56590271    0.55000001    2.91000009
   14.02027798   80.57189941    0.52999997    2.91000009
   14.02333355   86.86389923    0.51999998    2.89000010
   14.02666664   83.08779907    0.52999997    2.89000010
   14.02972221   80.79759979    0.51999998    2.91000009
   14.03444481   80.79759979    0.51999998    2.91000009
   14.03833389   80.72170258    0.50000000    2.91000009
   14.04166698   86.77559662    0.50000000    2.91000009
   14.04500008   89.23899841    0.50000000    2.91000009
   14.04805565   79.93560028    0.50000000    2.91000009
   14.05138874   76.33860016    0.47999999    2.91000009
   14.05444431   82.56880188    0.47999999    2.91000009
   14.05777836   84.69909668    0.46000001    2.91000009
   14.06111145   81.10679626    0.46000001    2.91000009
   14.06416702   79.68409729    0.46000001    2.91000009
   14.06888866   79.68409729    0.44000000    2.91000009
   14.07305527   80.10389709    0.44000000    2.91000009
   14.07611084   85.72730255    0.44000000    2.91000009
   14.07944393   79.23490143    0.44000000    2.91000009
   14.08277798   84.13729858    0.44000000    2.93000007
   14.08583260   83.82080078    0.44000000    2.91000009
   14.08916664   79.49559784    0.41999999    2.91000009
   14.09222221   84.42299652    0.44000000    2.91000009
   14.09555531   78.37270355    0.41999999    2.91000009
   14.09888840   74.10459900    0.44000000    2.91000009
   14.10333347   74.10459900    0.41999999    2.91000009
   14.10750008   81.88549805    0.41999999    2.91000009
   14.11055565   90.08609772    0.41999999    2.91000009
   14.11388969   80.48280334    0.41999999    2.91000009
   14.11722279   83.16639709    0.41999999    2.91000009
   14.12027836   77.11229706    0.40000001    2.91000009
   14.12361145   78.16130066    0.41999999    2.91000009
   14.12694454   82.99909973    0.41999999    2.91000009
   14.13000011   77.07389832    0.40000001    2.91000009
   14.13333321   74.21170044    0.40000001    2.91000009
   14.13777733   74.21170044    0.40000001    2.91000009
   14.14194393   83.28230286    0.40000001    2.91000009
   14.14527798   87.44290161    0.40000001    2.91000009
   14.14833355   86.06439972    0.38000000    2.91000009
   14.15166664   80.19159698    0.38000000    2.91000009
   14.15499973   84.88089752    0.38000000    2.91000009
   14.15805531   80.46990204    0.38000000    2.91000009
   14.16138840   79.56459808    0.40000001    2.91000009
   14.16444397   83.24340057    0.38000000    2.91000009
   14.16777802   80.17130280    0.40000001    2.91000009
   14.17222214   80.17130280    0.40000001    2.91000009
   14.17638874   86.86920166    0.40000001    2.91000009
   14.17972279   82.67510223    0.40000001    2.91000009
   14.18277836   78.65160370    0.40000001    2.91000009
   14.18611145   80.82620239    0.44000000    2.89000010
   14.18944454   77.14499664    0.44000000    2.93000007
   14.19250011   84.44229889    0.41999999    2.91000009
   14.19583321   77.68689728    0.41999999    2.91000009
   14.19916630   82.53620148    0.41999999    2.91000009
   14.20222187   77.98139954    0.41999999    2.91000009
   14.20694447   77.98139954    0.40000001    2.91000009
   14.21083355   78.78009796    0.40000001    2.93000007
   14.21416664   81.02629852    0.40000001    2.91000009
   14.21749973   78.93650055    0.40000001    2.91000009
   14.22055531   80.10739899    0.40000001    2.91000009
   14.22388840   80.08020020    0.40000001    2.91000009
   14.22722149   84.49749756    0.40000001    2.91000009
   14.23027706   85.14420319    0.40000001    2.91000009
   14.23361111   82.18000031    0.40000001    2.91000009
   14.23694515   77.51719666    0.40000001    2.91000009
   14.24138927   77.51719666    0.44000000    2.91000009
   14.24555588   79.68460083    0.41999999    2.93000007
   14.24861145   77.04060364    0.41999999    2.93000007
   14.25194454   84.16790009    0.41999999    2.93000007
   14.25527763   77.57759857    0.41999999    2.93000007
   14.25833321   82.96600342    0.41999999    2.91000009
   14.26166630   76.54699707    0.41999999    2.93000007
   14.26500034   78.96279907    0.40000001    2.93000007
   14.26805496   75.97850037    0.40000001    2.91000009
   14.27138901   81.65540314    0.40000001    2.91000009
   14.27583313   81.65540314    0.40000001    2.91000009
   14.27999973   82.20359802    0.41999999    2.93000007
   14.28333378   76.96299744    0.41999999    2.93000007
   14.28638935   78.24800110    0.41999999    2.91000009
   14.28972244   77.13349915    0.41999999    2.93000007
   14.29305553   78.13839722    0.41999999    2.93000007
   14.29611111   78.11840057    0.41999999    2.93000007
   14.29944515   90.58020020    0.41999999    2.93000007
   14.30277824   85.73010254    0.41999999    2.93000007
   14.30583382   77.64070129    0.44000000    2.93000007
   14.31027794   77.64070129    0.41999999    2.93000007
   14.31444454   79.72619629    0.44000000    2.93000007
   14.31777763   77.75099945    0.41999999    2.93000007
   14.32111073   81.42939758    0.41999999    2.93000007
   14.32416630   85.76740265    0.44000000    2.93000007
   14.32750034   78.03980255    0.41999999    2.93000007
   14.33055592   78.43640137    0.44000000    2.93000007
   14.33388901   80.82980347    0.44000000    2.93000007
   14.33722210   79.05509949    0.44000000    2.93000007
   14.34027767   79.01409912    0.46000001    2.91000009
   14.34499931   79.01409912    0.44000000    2.93000007
   14.34888840   80.58159637    0.46000001    2.93000007
   14.35222244   78.66750336    0.44000000    2.91000009
   14.35555553   82.43419647    0.46000001    2.91000009
   14.35861111   78.87850189    0.44000000    2.93000007
   14.36194515   76.36150360    0.46000001    2.91000009
   14.36527824   76.15499878    0.46000001    2.93000007
   14.36833382   77.70670319    0.44000000    2.93000007
   14.37166691   77.19349670    0.46000001    2.93000007
   14.37472248   78.55039978    0.44000000    2.91000009
   14.37944412   78.55039978    0.44000000    2.93000007
   14.38361073   77.06340027    0.44000000    2.93000007
   14.38666630   76.56900024    0.44000000    2.93000007
   14.39000034   82.19139862    0.44000000    2.93000007
   14.39305496   79.86550140    0.44000000    2.91000009
   14.39638901   75.06539917    0.44000000    2.93000007
   14.39972210   81.61100006    0.44000000    2.93000007
   14.40277767   75.24079895    0.44000000    2.93000007
   14.40611076   74.73139954    0.44000000    2.91000009
   14.40944386   79.81970215    0.44000000    2.93000007
   14.41388893   79.81970215    0.44000000    2.93000007
   14.41805553   75.83869934    0.44000000    2.91000009
   14.42111111   75.28810120    0.44000000    2.93000007
   14.42444515   77.13670349    0.44000000    2.93000007
   14.42777824   76.73100281    0.41999999    2.93000007
   14.43083382   75.14369965    0.40000001    2.94000006
   14.43416691   81.48090363    0.40000001    2.93000007
   14.43750000   80.97850037    0.40000001    2.93000007
   14.44055557   77.17109680    0.40000001    2.94000006
   14.44388866   74.56759644    0.40000001    2.93000007
   14.44833374   74.56759644    0.40000001    2.93000007
   14.45249939   79.49890137    0.41999999    2.93000007
   14.45583344   80.82530212    0.41999999    2.93000007
   14.45888901   79.87519836    0.40000001    2.94000006
   14.46222210   79.32469940    0.40000001    2.93000007
   14.46555519   83.28500366    0.40000001    2.93000007
   14.46861076   79.04270172    0.40000001    2.94000006
   14.47194386   74.62409973    0.40000001    2.94000006
   14.47499943   77.40100098    0.40000001    2.94000006
   14.47833252   77.01260376    0.40000001    2.93000007
   14.48277760   77.01260376    0.40000001    2.94000006
   14.48694515   75.54750061    0.40000001    2.93000007
   14.49027824   79.81449890    0.44000000    2.93000007
   14.49361134   78.84079742    0.46000001    2.93000007
   14.49666691   78.63760376    0.46000001    2.96000004
   14.50000000   76.01309967    0.47999999    2.93000007
   14.50305557   78.44509888    0.50000000    2.93000007
   14.50638866   76.85479736    0.52999997    2.93000007
   14.50972176   75.86789703    0.52999997    2.94000006
   14.51277733   79.23059845    0.51999998    2.93000007
   14.51749992   79.23059845    0.50000000    2.93000007
   14.52166653   80.18560028    0.50000000    2.93000007
   14.52472210   76.14199829    0.47999999    2.94000006
   14.52805519   76.13379669    0.47999999    2.94000006
   14.53111076   76.20130157    0.47999999    2.93000007
   14.53444481   89.58619690    0.47999999    2.93000007
   14.53777790   78.35520172    0.47999999    2.93000007
   14.54083347   76.60179901    0.47999999    2.94000006
   14.54416752   72.66770172    0.47999999    2.94000006
   14.54750061   76.13110352    0.47999999    2.94000006
   14.55194473   76.13110352    0.47999999    2.93000007
   14.55611134   79.92089844    0.47999999    2.93000007
   14.55916691   74.79149628    0.47999999    2.93000007
   14.56250000   77.84369659    0.47999999    2.93000007
   14.56583309   75.00959778    0.46000001    2.93000007
   14.56888866   72.40499878    0.46000001    2.93000007
   14.57222176   78.18759918    0.46000001    2.93000007
   14.57527733   76.20800018    0.46000001    2.94000006
   14.57861137   79.66429901    0.46000001    2.94000006
   14.58194447   78.05120087    0.46000001    2.94000006
   14.58638859   78.05120087    0.46000001    2.94000006
   14.59055519   79.71559906    0.46000001    2.94000006
   14.59388828   82.22010040    0.44000000    2.93000007
   14.59694386   83.93000031    0.44000000    2.93000007
   14.60027790   76.56469727    0.46000001    2.94000006
   14.60333347   78.98239899    0.44000000    2.94000006
   14.60666752   75.27510071    0.44000000    2.93000007
   14.61000061   78.94200134    0.44000000    2.93000007
   14.61305618   75.77349854    0.44000000    2.94000006
   14.61638927   76.96050262    0.44000000    2.94000006
   14.62083340   76.96050262    0.44000000    2.94000006
   14.62500000   78.27320099    0.44000000    2.93000007
   14.62833309   76.55400085    0.44000000    2.94000006
   14.63138866   75.72709656    0.44000000    2.93000007
   14.63472176   76.49459839    0.41999999    2.94000006
   14.63805580   74.53230286    0.41999999    2.93000007
   14.64111137   80.40080261    0.41999999    2.94000006
   14.64444447   84.43730164    0.41999999    2.94000006
   14.64777756   80.91380310    0.41999999    2.94000006
   14.65083313   78.70339966    0.41999999    2.94000006
   14.65555477   78.70339966    0.41999999    2.93000007
   14.65944386   75.68219757    0.41999999    2.93000007
   14.66277695   75.05159760    0.41999999    2.94000006
   14.66611099   80.28379822    0.41999999    2.94000006
   14.66916656   78.73300171    0.41999999    2.94000006
   14.67250061   75.61679840    0.40000001    2.94000006
   14.67583370   76.86370087    0.40000001    2.94000006
   14.67888927   73.09950256    0.40000001    2.94000006
   14.68222237   76.28559875    0.40000001    2.94000006
   14.68555546   76.78099823    0.40000001    2.94000006
   14.69000053   76.78099823    0.40000001    2.94000006
   14.69416714   75.66220093    0.41999999    2.93000007
   14.69722271   74.73829651    0.41999999    2.93000007
   14.70055580   77.60189819    0.41999999    2.93000007
   14.70388889   78.26679993    0.41999999    2.94000006
   14.70694447   72.99420166    0.41999999    2.94000006
   14.71027756   78.19750214    0.41999999    2.94000006
   14.71361065   74.77860260    0.41999999    2.94000006
   14.71666622   78.86879730    0.41999999    2.94000006
   14.71999931   78.11399841    0.41999999    2.94000006
   14.72444439   78.11399841    0.41999999    2.94000006
   14.72861099   75.03500366    0.41999999    2.94000006
   14.73166656   84.93589783    0.44000000    2.94000006
   14.73500061   78.52169800    0.44000000    2.94000006
   14.73833370   79.28959656    0.44000000    2.94000006
   14.74138927   81.64219666    0.44000000    2.94000006
   14.74472237   77.74870300    0.44000000    2.94000006
   14.74805546   80.14350128    0.44000000    2.94000006
   14.75111103   74.39820099    0.44000000    2.93000007
   14.75444412   75.99030304    0.44000000    2.93000007
   14.75888920   75.99030304    0.44000000    2.94000006
   14.76305580   75.73459625    0.44000000    2.94000006
   14.76638889   82.55860138    0.44000000    2.94000006
   14.76944447   71.70590210    0.44000000    2.96000004
   14.77277756   75.07740021    0.44000000    2.93000007
   14.77611065   73.33840179    0.44000000    2.93000007
   14.77916622   73.44709778    0.44000000    2.94000006
   14.78249931   74.19950104    0.46000001    2.96000004
   14.78583336   71.86849976    0.46000001    2.94000006
   14.78888893   76.25990295    0.46000001    2.93000007
   14.79333401   76.25990295    0.46000001    2.94000006
   14.79750061   77.29450226    0.46000001    2.94000006
   14.80083370   75.96569824    0.46000001    2.94000006
   14.80416679   79.52220154    0.46000001    2.94000006
   14.80722237   82.05670166    0.46000001    2.94000006
   14.81055546   73.27639771    0.46000001    2.94000006
   14.81361103   83.91889954    0.46000001    2.94000006
   14.81694412   78.21469879    0.47999999    2.94000006
   14.82027817   78.55130005    0.47999999    2.94000006
   14.82333374   77.28350067    0.46000001    2.94000006
   14.82805538   77.28350067    0.47999999    2.94000006
   14.83222198   76.04979706    0.47999999    2.94000006
   14.83527756   77.26629639    0.47999999    2.94000006
   14.83861065   77.83619690    0.46000001    2.94000006
   14.84166622   75.20790100    0.46000001    2.94000006
   14.84499931   85.59210205    0.46000001    2.94000006
   14.84833336   76.57189941    0.47999999    2.94000006
   14.85138893   76.84140015    0.47999999    2.94000006
   14.85472298   75.28710175    0.47999999    2.94000006
   14.85805607   76.84480286    0.47999999    2.94000006
   14.86250019   76.84480286    0.47999999    2.94000006
   14.86666679   73.99569702    0.47999999    2.94000006
   14.86972237   79.24030304    0.47999999    2.94000006
   14.87305546   76.96980286    0.51999998    2.94000006
   14.87638855   77.39469910    0.52999997    2.94000006
   14.87944412   76.55740356    0.56999999    2.94000006
   14.88277817   76.96369934    0.63000000    2.94000006
   14.88611126   75.67549896    0.63000000    2.94000006
   14.88916683   76.78959656    0.67000002    2.94000006
   14.89249992   76.34799957    0.67000002    2.94000006
   14.89694405   76.34799957    0.69000000    2.93000007
   14.90111065   78.70839691    0.64999998    2.94000006
   14.90444374   75.95690155    0.64999998    2.94000006
   14.90749931   78.45269775    0.63000000    2.94000006
   14.91083336   79.68039703    0.63000000    2.94000006
   14.91416645   75.08409882    0.56999999    2.94000006
   14.91722298   75.54149628    0.58999997    2.94000006
   14.92055607   79.80879974    0.56999999    2.93000007
   14.92361164   78.76629639    0.56999999    2.94000006
   14.92694473   79.46910095    0.56999999    2.93000007
   14.93138885   79.46910095    0.55000001    2.94000006
   14.93555546   75.70369720    0.52999997    2.94000006
   14.93888855   71.12460327    0.52999997    2.94000006
   14.94194412   79.92120361    0.52999997    2.93000007
   14.94527817   72.38009644    0.51999998    2.94000006
   14.94861126   76.31680298    0.51999998    2.94000006
   14.95166683   72.74389648    0.51999998    2.94000006
   14.95499992   78.97489929    0.51999998    2.94000006
   14.95833302   80.46980286    0.50000000    2.94000006
   14.96138859   77.53520203    0.50000000    2.94000006
   14.96611118   77.53520203    0.50000000    2.94000006
   14.97027779   75.23880005    0.51999998    2.94000006
   14.97333336   83.19740295    0.50000000    2.94000006
   14.97666645   75.51830292    0.47999999    2.94000006
   14.97972202   83.67559814    0.47999999    2.94000006
   14.98305511   75.42939758    0.47999999    2.94000006
   14.98638916   82.49700165    0.46000001    2.94000006
   14.98944473   76.49770355    0.46000001    2.94000006
   14.99277782   75.89939880    0.46000001    2.94000006
   14.99611092   79.06590271    0.44000000    2.94000006
   15.01666641   79.06590271    0.44000000    2.96000004
   15.02083302   78.61119843    0.46000001    2.94000006
   15.02388859   79.36849976    0.46000001    2.94000006
   15.02750015   81.93209839    0.46000001    2.94000006
   15.03055573   74.52559662    0.46000001    2.94000006
   15.03388977   75.86239624    0.46000001    2.94000006
   15.03694534   77.29609680    0.47999999    2.94000006
   15.04027843   83.04889679    0.47999999    2.94000006
   15.04361153   76.14839935    0.47999999    2.94000006
   15.04666710   81.93789673    0.46000001    2.94000006
   15.05111122   81.93789673    0.47999999    2.94000006
   15.05527782   73.10829926    0.47999999    2.94000006
   15.05833340   76.75569916    0.47999999    2.94000006
   15.06166649   78.92630005    0.47999999    2.94000006
   15.06472206   76.35310364    0.47999999    2.94000006
   15.06805515   78.86309814    0.47999999    2.94000006
   15.07138920   73.49140167    0.47999999    2.94000006
   15.07444477   84.18689728    0.47999999    2.94000006
   15.07777786   79.00509644    0.47999999    2.94000006
   15.08111095   74.13590240    0.47999999    2.94000006
   15.08555508   74.13590240    0.47999999    2.96000004
   15.08972168   75.04589844    0.47999999    2.96000004
   15.09277725   75.75289917    0.47999999    2.94000006
   15.09611034   73.96980286    0.47999999    2.94000006
   15.09944439   81.13020325    0.50000000    2.94000006
   15.10249996   79.18019867    0.50000000    2.94000006
   15.10583401   80.82510376    0.51999998    2.94000006
   15.10916710   79.06639862    0.51999998    2.94000006
   15.11222267   78.62419891    0.51999998    2.94000006
   15.11555576   75.76799774    0.52999997    2.94000006
   15.11999989   75.76799774    0.51999998    2.96000004
   15.12416649   74.82309723    0.51999998    2.94000006
   15.12750053   74.64990234    0.51999998    2.94000006
   15.13055611   74.63040161    0.52999997    2.94000006
   15.13388920   76.97350311    0.52999997    2.96000004
   15.13722229   78.40499878    0.52999997    2.94000006
   15.14027786   74.72570038    0.52999997    2.94000006
   15.14361095   80.83550262    0.52999997    2.94000006
   15.14694405   74.19860077    0.55000001    2.96000004
   15.14999962   75.43810272    0.55000001    2.93000007
   15.15444374   75.43810272    0.52999997    2.94000006
   15.15861034   78.88790131    0.52999997    2.94000006
   15.16194439   74.19229889    0.52999997    2.94000006
   15.16527748   78.35199738    0.52999997    2.94000006
   15.16833401   81.80850220    0.51999998    2.94000006
   15.17166710   74.95429993    0.51999998    2.94000006
   15.17472267   74.95130157    0.51999998    2.94000006
   15.27305508   -1.00000000   -1.00000000   -1.00000000
   15.64861107   -1.00000000   -1.00000000   -1.00000000
   15.79277802   -1.00000000   -1.00000000   -1.00000000
   15.96666622   62.86029816    0.52999997    2.96000004
   15.96999931   76.36969757    0.52999997    2.96000004
   15.97333336   76.74120331    0.55000001    2.98000002
   15.97666645   75.80789948    0.56999999    2.96000004
   15.97972202   74.86840057    0.56999999    2.94000006
   15.98305511   72.83300018    0.55000001    2.96000004
   15.98722267   72.83300018    0.55000001    2.96000004
   15.99138927   78.20159912    0.56999999    2.96000004
   15.99444485   83.14859772    0.55000001    2.94000006
   15.99777794   78.49099731    0.55000001    2.96000004
   16.00000000   78.61750031    0.55000001    2.96000004
   16.00138855   72.77490234    0.56999999    2.96000004
   16.00472260   70.80619812    0.56999999    2.94000006
   16.00777817   81.71320343    0.55000001    2.96000004
   16.01111031   79.71730042    0.52999997    2.96000004
   16.01444435   75.03309631    0.55000001    2.96000004
   16.01749992   75.48729706    0.52999997    2.98000002
   16.02166557   75.48729706    0.55000001    2.96000004
   16.02583313   74.07550049    0.56999999    2.96000004
   16.02916718   78.95359802    0.55000001    2.96000004
   16.03222275   70.93609619    0.67000002    2.98000002
   16.03361130   78.16010284    0.67000002    2.96000004
   16.03583336   78.22969818    0.58999997    2.96000004
   16.03916550   77.83080292    0.56999999    2.96000004
   16.04249954   80.41110229    0.55000001    2.96000004
   16.04555511   76.19210052    0.52999997    2.98000002
   16.04888916   76.49179840    0.51999998    2.98000002
   16.05222130   75.89779663    0.52999997    2.98000002
   16.05611038   75.89779663    0.55000001    2.96000004
   16.06027794   73.90299988    0.52999997    2.98000002
   16.06361008   73.99210358    0.52999997    2.96000004
   16.06694603   75.64550018    0.52999997    2.96000004
   16.06722260   77.38559723    0.55000001    2.98000002
   16.07055664   72.13580322    0.55000001    2.96000004
   16.07389069   75.64089966    0.55000001    2.96000004
   16.07694626   76.82409668    0.52999997    2.96000004
   16.08027840   72.41709900    0.52999997    2.96000004
   16.08361244   76.48470306    0.51999998    2.96000004
   16.08666801   79.45379639    0.52999997    2.96000004
   16.09083366   79.45379639    0.58999997    2.96000004
   16.09500122   79.17739868    0.51999998    2.98000002
   16.09833336   73.37409973    0.52999997    2.98000002
   16.10027885   74.07360077    0.51999998    2.98000002
   16.10166740   79.11900330    0.52999997    2.96000004
   16.10499954   78.78710175    0.51999998    2.96000004
   16.10833359   75.42510223    0.50000000    2.96000004
   16.11138916   78.79830170    0.47999999    2.98000002
   16.11472321   79.16179657    0.47999999    2.96000004
   16.11805534   79.93820190    0.47999999    2.96000004
   16.12111092   76.94539642    0.46000001    2.96000004
   16.12527847   76.94539642    0.47999999    2.96000004
   16.12944412   76.12200165    0.47999999    2.96000004
   16.13277817   76.76309967    0.47999999    2.96000004
   16.13361168   82.43569946    0.47999999    2.96000004
   16.13611031   76.01609802    0.47999999    2.98000002
   16.13944435   77.46549988    0.47999999    2.98000002
   16.14277840   77.73179626    0.47999999    2.96000004
   16.14583397   76.63249969    0.47999999    2.98000002
   16.14916611   78.81060028    0.47999999    2.96000004
   16.15250015   75.81909943    0.47999999    2.96000004
   16.15555573   78.65509796    0.47999999    2.98000002
   16.15999985   78.65509796    0.47999999    2.96000004
   16.16388893   77.19370270    0.47999999    2.96000004
   16.16694450   82.22930145    0.47999999    2.96000004
   16.16749954   75.63320160    0.47999999    2.96000004
   16.17083359   79.36879730    0.47999999    2.98000002
   16.17416573   74.95310211    0.47999999    2.96000004
   16.17722130   73.78690338    0.47999999    2.96000004
   16.18055534   73.99759674    0.46000001    2.98000002
   16.18388748   74.16660309    0.47999999    2.96000004
   16.18694305   71.42919922    0.47999999    2.98000002
   16.19027710   78.38710022    0.47999999    2.98000002
   16.19444275   78.38710022    0.47999999    2.98000002
   16.19861031   80.66870117    0.47999999    2.98000002
   16.20027924   76.62809753    0.47999999    2.96000004
   16.20194435   77.62599945    0.50000000    2.96000004
   16.20527840   76.62030029    0.47999999    2.98000002
   16.20861244   75.18450165    0.47999999    2.98000002
   16.21166801   70.70420074    0.47999999    2.98000002
   16.21500015   69.55619812    0.47999999    2.98000002
   16.21833420   74.49050140    0.46000001    2.98000002
   16.22138977   75.73940277    0.47999999    2.96000004
   16.22472191   79.92620087    0.46000001    2.98000002
   16.22888947   79.92620087    0.47999999    2.96000004
   16.23305511   78.45359802    0.46000001    2.96000004
   16.23361206   74.68609619    0.46000001    2.96000004
   16.23666763   75.56639862    0.46000001    2.98000002
   16.23972321   76.45459747    0.44000000    2.98000002
   16.24305534   80.98539734    0.44000000    2.98000002
   16.24611092   73.10630035    0.46000001    2.98000002
   16.24944496   73.51730347    0.41999999    2.98000002
   16.25277710   78.00370026    0.41999999    2.98000002
   16.25583267   79.13529968    0.41999999    2.98000002
   16.25916672   75.98570251    0.41999999    2.98000002
   16.26333427   75.98570251    0.40000001    2.98000002
   16.26749992   77.43720245    0.41999999    2.98000002
   16.27083397   71.51899719    0.41999999    2.98000002
   16.27388954   79.25499725    0.41999999    2.98000002
   16.27722168   76.31269836    0.41999999    2.98000002
   16.28055573   73.90750122    0.41999999    2.98000002
   16.28361130   74.41649628    0.41999999    2.98000002
   16.28694344   77.56710052    0.41999999    2.98000002
   16.29027748   77.52649689    0.40000001    2.98000002
   16.29333305   75.23699951    0.41999999    2.98000002
   16.29777718   75.23699951    0.41999999    2.96000004
   16.30194283   73.54219818    0.41999999    2.98000002
   16.30527687   75.56990051    0.40000001    2.98000002
   16.30861092   75.35119629    0.41999999    2.98000002
   16.31166649   78.30220032    0.40000001    2.98000002
   16.31499863   77.65969849    0.40000001    2.98000002
   16.31833458   75.57589722    0.40000001    2.98000002
   16.32139015   75.80950165    0.41999999    2.98000002
   16.32472229   78.44969940    0.40000001    2.98000002
   16.32805634   77.26889801    0.40000001    2.96000004
   16.33250046   77.26889801    0.40000001    2.98000002
   16.33666801   76.91349792    0.38000000    2.98000002
   16.33972359   74.23819733    0.40000001    2.98000002
   16.34305573   75.14620209    0.40000001    2.98000002
   16.34638977   74.44259644    0.40000001    2.98000002
   16.34944534   73.20999908    0.40000001    2.98000002
   16.35277748   76.29340363    0.40000001    2.98000002
   16.35583305   72.60269928    0.41999999    2.98000002
   16.35916710   72.65740204    0.41999999    2.98000002
   16.36250114   74.37930298    0.44000000    2.96000004
   16.36694527   74.37930298    0.44000000    2.96000004
   16.37111092   76.63469696    0.44000000    2.96000004
   16.37416649   77.47000122    0.44000000    2.96000004
   16.37750053   76.93869781    0.44000000    2.98000002
   16.38083267   77.66400146    0.44000000    2.96000004
   16.38388824   73.02140045    0.44000000    2.98000002
   16.38722229   83.50569916    0.46000001    2.98000002
   16.39055634   78.17369843    0.46000001    2.98000002
   16.39361191   77.44490051    0.46000001    2.98000002
   16.39694405   77.78199768    0.46000001    2.98000002
   16.40138817   77.78199768    0.46000001    2.96000004
   16.40555573   77.38880157    0.46000001    2.98000002
   16.40888786   77.97779846    0.44000000    2.98000002
   16.41194344   79.85119629    0.44000000    2.98000002
   16.41527748   81.07659912    0.44000000    2.96000004
   16.41860962   73.71600342    0.44000000    2.98000002
   16.42166519   73.64160156    0.44000000    2.98000002
   16.42499924   75.13860321    0.44000000    2.96000004
   16.42805481   73.92030334    0.46000001    2.98000002
   16.43138885   74.97879791    0.46000001    2.98000002
   16.43583298   74.97879791    0.44000000    2.98000002
   16.43999863   73.53810120    0.44000000    2.98000002
   16.44333267   72.66069794    0.44000000    2.98000002
   16.44666672   76.00759888    0.46000001    2.96000004
   16.44972038   75.83010101    0.47999999    2.98000002
   16.45305634   76.82340240    0.47999999    2.96000004
   16.45611191   76.14689636    0.50000000    2.96000004
   16.45944595   77.10540009    0.50000000    2.96000004
   16.46277809   73.30000305    0.50000000    2.98000002
   16.46583366   72.19709778    0.50000000    2.98000002
   16.47055626   72.19709778    0.51999998    2.96000004
   16.47444534   72.47789764    0.51999998    2.96000004
   16.47777748   74.81770325    0.50000000    2.98000002
   16.48111153   72.81390381    0.51999998    2.96000004
   16.48416710   74.21029663    0.50000000    2.96000004
   16.48750114   72.12030029    0.50000000    2.96000004
   16.49083328   75.09159851    0.51999998    2.98000002
   16.49388885   74.05300140    0.51999998    2.96000004
   16.49722290   74.82070160    0.51999998    2.98000002
   16.50027847   71.46459961    0.51999998    2.98000002
   16.50499916   71.46459961    0.51999998    2.96000004
   16.50916672   73.36990356    0.50000000    2.98000002
   16.51222229   71.61340332    0.50000000    2.96000004
   16.51555634   74.32450104    0.47999999    2.96000004
   16.51888847   76.76239777    0.47999999    2.98000002
   16.52194405   81.09320068    0.47999999    2.98000002
   16.52527809   74.56269836    0.47999999    2.96000004
   16.52833366   75.49919891    0.47999999    2.98000002
   16.53166580   78.47940063    0.50000000    2.98000002
   16.53499985   79.01760101    0.51999998    2.98000002
   16.53944397   79.01760101    0.50000000    2.98000002
   16.54361153   77.88200378    0.50000000    2.96000004
   16.54694366   78.60859680    0.50000000    2.96000004
   16.54999924   80.59529877    0.47999999    2.98000002
   16.55333328   79.00450134    0.50000000    2.96000004
   16.55638885   75.39939880    0.50000000    2.96000004
   16.55972099   74.19339752    0.50000000    2.96000004
   16.56305504   77.15820313    0.51999998    2.98000002
   16.56611061   77.54699707    0.52999997    2.98000002
   16.56944466   78.72399902    0.52999997    2.98000002
   16.57389069   78.72399902    0.52999997    2.98000002
   16.57805634   76.18910217    0.52999997    2.96000004
   16.58139038   80.60820007    0.52999997    2.98000002
   16.58444595   74.68499756    0.52999997    2.96000004
   16.58777809   75.99310303    0.52999997    2.98000002
   16.59111214   77.18489838    0.52999997    2.96000004
   16.59416771   77.84310150    0.52999997    2.98000002
   16.59749985   82.44090271    0.55000001    2.98000002
   16.60083389   77.51509857    0.55000001    2.98000002
   16.60388947   76.49009705    0.56999999    2.98000002
   16.60833359   76.49009705    0.56999999    2.98000002
   16.61250114   78.93620300    0.56999999    2.98000002
   16.61583328   77.96369934    0.56999999    2.98000002
   16.61916733   81.53720093    0.56999999    2.98000002
   16.62222290   76.98889923    0.56999999    2.96000004
   16.62555504   78.18080139    0.55000001    2.98000002
   16.62888908   78.31009674    0.55000001    2.96000004
   16.63194466   79.10130310    0.56999999    2.96000004
   16.63527679   79.06230164    0.56999999    2.96000004
   16.63833237   79.53230286    0.58999997    2.96000004
   16.64305496   79.53230286    0.58999997    2.98000002
   16.64722252   74.81610107    0.61000001    2.96000004
   16.65027809   77.09929657    0.61000001    2.98000002
   16.65361023   78.82029724    0.63000000    2.96000004
   16.65666580   78.47709656    0.63000000    2.96000004
   16.65999985   74.04350281    0.63000000    2.96000004
   16.66333389   79.48159790    0.61000001    2.98000002
   16.66638756   75.53359985    0.61000001    2.96000004
   16.66972160   74.29370117    0.61000001    2.96000004
   16.67305565   74.84549713    0.58999997    2.98000002
   16.67749977   74.84549713    0.58999997    2.98000002
   16.68166542   71.53749847    0.55000001    2.98000002
   16.68499947   75.34819794    0.55000001    2.98000002
   16.68805504   73.95210266    0.55000001    2.98000002
   16.69138718   77.19830322    0.55000001    2.96000004
   16.69444275   74.56140137    0.55000001    2.98000002
   16.69777679   76.53659821    0.55000001    2.98000002
   16.70111275   75.51799774    0.55000001    2.98000002
   16.70416832   73.88600159    0.52999997    2.98000002
   16.70750046   73.81849670    0.52999997    2.96000004
   16.71194458   73.81849670    0.55000001    2.98000002
   16.71611214   73.84670258    0.52999997    2.98000002
   16.71944427   75.85600281    0.51999998    2.98000002
   16.72249985   75.23400116    0.52999997    2.98000002
   16.72583389   73.34059906    0.51999998    2.98000002
   16.72916794   72.16919708    0.51999998    2.96000004
   16.73222351   75.95459747    0.52999997    2.96000004
   16.73555565   75.13020325    0.51999998    2.98000002
   16.73888969   74.70839691    0.51999998    2.98000002
   16.74194527   72.89880371    0.51999998    2.98000002
   16.74638939   72.89880371    0.52999997    2.98000002
   16.75055504   75.29479980    0.52999997    2.98000002
   16.75388908   73.00969696    0.51999998    2.98000002
   16.75722313   79.03589630    0.51999998    2.98000002
   16.76027870   81.28970337    0.51999998    2.96000004
   16.76361084   74.45950317    0.51999998    2.98000002
   16.76666641   79.23320007    0.50000000    2.98000002
   16.77000046   74.21279907    0.51999998    2.96000004
   16.77333260   74.02500153    0.50000000    2.98000002
   16.77638817   73.03479767    0.50000000    2.98000002
   16.78111076   73.03479767    0.50000000    2.98000002
   16.78527641   79.86299896    0.47999999    2.98000002
   16.78833199   77.50669861    0.46000001    2.96000004
   16.79166603   78.68679810    0.46000001    2.98000002
   16.79500008   83.62310028    0.46000001    2.98000002
   16.79805565   84.88780212    0.44000000    2.98000002
   16.80138779   90.18289948    0.44000000    2.98000002
   16.80444336   81.86779785    0.44000000    2.98000002
   16.80777740   88.86849976    0.47999999    2.98000002
   16.81110954   83.69149780    0.47999999    2.98000002
   16.81555557   83.69149780    0.47999999    2.96000004
   16.81972313   90.40859985    0.50000000    2.98000002
   16.82277870   93.96949768    0.50000000    2.98000002
   16.82611275   84.75240326    0.47999999    2.98000002
   16.82944489   96.57409668    0.50000000    2.98000002
   16.83250046   93.00720215    0.50000000    2.96000004
   16.83583450   98.56230164    0.50000000    2.98000002
   16.83916664  102.60600281    0.50000000    2.96000004
   16.84222221  104.69300079    0.50000000    2.98000002
   16.84555626  107.59999847    0.47999999    2.98000002
   16.85000038  107.59999847    0.50000000    2.96000004
   16.85416794  130.42700195    0.50000000    2.98000002
   16.85722351  144.47900391    0.50000000    2.98000002
   16.86083412  155.92999268    0.50000000    2.98000002
   16.86388969  189.37600708    0.51999998    2.98000002
   16.86722183  196.88400269    0.51999998    2.98000002
   16.87055588  213.32699585    0.51999998    2.98000002
   16.87361145  212.95599365    0.52999997    2.98000002
   16.87694550  144.34700012    0.52999997    2.96000004
   16.88027763   -1.00000000   -1.00000000   -1.00000000
   16.88444519   -1.00000000   -1.00000000   -1.00000000
   16.88861084   -1.00000000    0.51999998    2.98000002
   16.89194489   -1.00000000    0.51999998    2.96000004
   16.89500046   -1.00000000    0.50000000    2.98000002
   16.89833260   -1.00000000    0.50000000    2.98000002
   16.90166664   -1.00000000    0.50000000    2.98000002
   16.90472221   -1.00000000    0.50000000    2.98000002
   16.90805435   -1.00000000    0.47999999    2.96000004
   16.91138840   -1.00000000    0.46000001    2.98000002
   16.91444397   -1.00000000    0.46000001    2.98000002
   16.91916656   -1.00000000    0.47999999    2.96000004
   16.92305565   -1.00000000    0.47999999    2.96000004
   16.92638779   -1.00000000    0.47999999    2.98000002
   16.92972183   -1.00000000    0.50000000    2.98000002
   16.93277740   -1.00000000    0.50000000    2.98000002
   16.93610954   -1.00000000    0.47999999    2.98000002
   16.93944359   -1.00000000    0.46000001    2.98000002
   16.94249916   -1.00000000    0.47999999    2.98000002
   16.94583321   -1.00000000    0.47999999    2.98000002
   16.94888878   -1.00000000    0.47999999    2.96000004
   16.95750046   -1.00000000    0.51999998    2.98000002
   16.96083450   -1.00000000    0.51999998    2.96000004
   16.96416664   -1.00000000    0.51999998    2.96000004
   16.96722221   -1.00000000    0.51999998    2.98000002
   16.99222183   -1.00000000    0.47999999    2.98000002
   16.99555588   -1.00000000    0.47999999    2.98000002
   16.99861145   -1.00000000    0.46000001    2.98000002
   17.00194359   -1.00000000    0.46000001    2.96000004
   17.00499916   -1.00000000    0.46000001    2.98000002
   17.00833321   -1.00000000    0.46000001    2.98000002
   17.01166725   -1.00000000    0.50000000    2.98000002
   17.01472282   -1.00000000    0.50000000    2.98000002
   17.01805496   -1.00000000    0.50000000    2.96000004
   17.02666664   -1.00000000    0.51999998    2.96000004
   17.02972221   -1.00000000    0.52999997    2.96000004
   17.03305435   -1.00000000    0.52999997    2.98000002
   17.03638840   -1.00000000    0.55000001    2.96000004
   17.03944397   -1.00000000    0.55000001    2.98000002
   17.04277802   -1.00000000    0.56999999    2.98000002
   17.04611015   -1.00000000    0.56999999    2.96000004
   17.04916573   -1.00000000    0.56999999    2.98000002
   17.05249977   -1.00000000    0.55000001    2.98000002
   17.06110954   -1.00000000    0.56999999    2.96000004
   17.06444359   -1.00000000    0.58999997    2.96000004
   17.06750107   -1.00000000    0.58999997    2.96000004
   17.07083511   -1.00000000    0.58999997    2.96000004
   17.07389069   -1.00000000    0.58999997    2.96000004
   17.07722282   -1.00000000    0.58999997    2.98000002
   17.08055687   -1.00000000    0.58999997    2.96000004
   17.08361244   -1.00000000    0.61000001    2.96000004
   17.08694458   -1.00000000    0.61000001    2.96000004
   17.09555626   -1.00000000    0.61000001    2.96000004
   17.09889030   -1.00000000    0.61000001    2.96000004
   17.10194397   -1.00000000    0.61000001    2.96000004
   17.10527802   -1.00000000    0.61000001    2.96000004
   17.10861206   -1.00000000    0.61000001    2.96000004
   17.11166763   -1.00000000    0.63000000    2.96000004
   17.11499977   -1.00000000    0.63000000    2.96000004
   17.11833382   -1.00000000    0.64999998    2.98000002
   17.12138939   -1.00000000    0.64999998    2.96000004
   17.13000107   -1.00000000    0.64999998    2.96000004
   17.13333321   -1.00000000    0.63000000    2.96000004
   17.13666725   -1.00000000    0.63000000    2.96000004
   17.13972282   -1.00000000    0.63000000    2.96000004
   17.14305496   -1.00000000    0.63000000    2.96000004
   17.14638901   -1.00000000    0.63000000    2.96000004
   17.14944458   -1.00000000    0.63000000    2.96000004
   17.15277672   -1.00000000    0.63000000    2.98000002
   17.15583229   -1.00000000    0.63000000    2.98000002
   17.16472244   -1.00000000    0.64999998    2.98000002
   17.16777802   -1.00000000    0.63000000    2.96000004
   17.17111015   -1.00000000    0.61000001    2.96000004
   17.17444420   -1.00000000    0.61000001    2.96000004
   17.17749977   -1.00000000    0.61000001    2.96000004
   17.18083191   -1.00000000    0.58999997    2.98000002
   17.18416595   -1.00000000    0.61000001    2.96000004
   17.18722153   -1.00000000    0.61000001    2.96000004
   17.19055557   -1.00000000    0.61000001    2.98000002
   17.19916534   -1.00000000    0.63000000    2.96000004
   17.20222282   -1.00000000    0.63000000    2.96000004
   17.20555687   -1.00000000    0.63000000    2.96000004
   17.20888901   -1.00000000    0.61000001    2.96000004
   17.21194458   -1.00000000    0.61000001    2.96000004
   17.21527863   -1.00000000    0.58999997    2.98000002
   17.21861076   -1.00000000    0.58999997    2.96000004
   17.22166634   -1.00000000    0.56999999    2.98000002
   17.22500038   -1.00000000    0.55000001    2.96000004
   17.23361206   -1.00000000    0.51999998    2.98000002
   17.23694420   -1.00000000    0.55000001    2.98000002
   17.23999977   -1.00000000    0.55000001    2.98000002
   17.24333382   -1.00000000    0.52999997    2.98000002
   17.24666786   -1.00000000    0.52999997    2.98000002
   17.24972153   -1.00000000    0.52999997    2.98000002
   17.25305557   -1.00000000    0.52999997    2.98000002
   17.25638962   -1.00000000    0.52999997    2.98000002
   17.25944519   -1.00000000    0.52999997    2.96000004
   17.26805496   -1.00000000    0.55000001    2.96000004
   17.27138901   -1.00000000    0.56999999    2.96000004
   17.27472115   -1.00000000    0.56999999    2.98000002
   17.27777672   -1.00000000    0.56999999    2.98000002
   17.28111076   -1.00000000    0.55000001    2.96000004
   17.28416634   -1.00000000    0.55000001    2.98000002
   17.28750038   -1.00000000    0.55000001    2.96000004
   17.29083252   -1.00000000    0.55000001    2.98000002
   17.29388809   -1.00000000    0.56999999    2.98000002
   17.30277634   -1.00000000    0.58999997    2.98000002
   17.30583191   -1.00000000    0.61000001    2.96000004
   17.30916595   -1.00000000    0.63000000    2.96000004
   17.31250000   -1.00000000    0.64999998    2.96000004
   17.31555557   -1.00000000    0.63000000    2.96000004
   17.31888962   -1.00000000    0.64999998    2.96000004
   17.32194519   -1.00000000    0.61000001    2.96000004
   17.32527924   -1.00000000    0.61000001    2.96000004
   17.32861137   -1.00000000    0.61000001    2.96000004
   17.33722305   -1.00000000    0.64999998    2.98000002
   17.34027863   -1.00000000    0.64999998    2.96000004
   17.34361267   -1.00000000    0.67000002    2.96000004
   17.34694481   -1.00000000    0.67000002    2.96000004
   17.35000038   -1.00000000    0.67000002    2.96000004
   17.35333443   -1.00000000    0.67000002    2.96000004
   17.35666656   -1.00000000    0.67000002    2.96000004
   17.35972214   -1.00000000    0.67000002    2.96000004
   17.36305618   -1.00000000    0.64999998    2.96000004
   17.37166595   -1.00000000    0.63000000    2.98000002
   17.37500000   -1.00000000    0.61000001    2.96000004
   17.37805557   -1.00000000    0.58999997    2.98000002
   17.38138962   -1.00000000    0.61000001    2.98000002
   17.38472176   -1.00000000    0.61000001    2.96000004
   17.38777733   -1.00000000    0.61000001    2.96000004
   17.39111137   -1.00000000    0.61000001    2.96000004
   17.39416695   -1.00000000    0.63000000    2.96000004
   17.39749908   -1.00000000    0.64999998    2.96000004
   17.40611076   -1.00000000    0.67000002    2.96000004
   17.40944481   -1.00000000    0.64999998    2.96000004
   17.41250038   -1.00000000    0.64999998    2.96000004
   17.41583252   -1.00000000    0.64999998    2.96000004
   17.41916656   -1.00000000    0.64999998    2.96000004
   17.42222214   -1.00000000    0.64999998    2.96000004
   17.42555428   -1.00000000    0.67000002    2.96000004
   17.42888832   -1.00000000    0.67000002    2.96000004
   17.43194389   -1.00000000    0.67000002    2.96000004
   17.44055557   -1.00000000    0.67000002    2.96000004
   17.44388771   -1.00000000    0.67000002    2.96000004
   17.44722176   -1.00000000    0.64999998    2.96000004
   17.45027924   -1.00000000    0.64999998    2.96000004
   17.45361137   -1.00000000    0.64999998    2.98000002
   17.45694542   -1.00000000    0.64999998    2.96000004
   17.46000099   -1.00000000    0.64999998    2.96000004
   17.46333504   -1.00000000    0.63000000    2.96000004
   17.46638870   -1.00000000    0.63000000    2.94000006
   17.47527885   -1.00000000    0.63000000    2.96000004
   17.47833443   -1.00000000    0.63000000    2.96000004
   17.48166656   -1.00000000    0.63000000    2.96000004
   17.48500061   -1.00000000    0.64999998    2.98000002
   17.48805618   -1.00000000    0.64999998    2.98000002
   17.49138832   -1.00000000    0.64999998    2.96000004
   17.49472237   -1.00000000    0.67000002    2.96000004
   17.49777794   -1.00000000    0.64999998    2.96000004
   17.50111198   -1.00000000    0.67000002    2.96000004
   17.50972176   -1.00000000    0.64999998    2.96000004
   17.51305580   -1.00000000    0.67000002    2.96000004
   17.51611137   -1.00000000    0.67000002    2.96000004
   17.54722214   79.95700073    0.70999998    2.96000004
   17.55055428   95.43119812    0.70999998    2.96000004
   17.55360985   81.04380035    0.69000000    2.96000004
   17.55694389   86.15670013    0.69000000    2.96000004
   17.56027794   84.52639771    0.69000000    2.96000004
   17.56333351   86.60919952    0.67000002    2.96000004
   17.56750107   86.60919952    0.64999998    2.98000002
   17.57166672   90.90090179    0.63000000    2.96000004
   17.57500076   99.76490021    0.58999997    2.98000002
   17.57805634  108.75399780    0.58999997    2.98000002
   17.58055687  104.88200378    0.55000001    2.96000004
   17.58194542  113.25800323    0.55000001    2.96000004
   17.58500099   96.72239685    0.55000001    2.98000002
   17.58833313  100.84300232    0.51999998    2.98000002
   17.59166718  103.86000061    0.50000000    2.98000002
   17.59472275   84.39830017    0.51999998    2.98000002
   17.59805679  106.60500336    0.50000000    2.98000002
   17.60222244  106.60500336    0.51999998    2.98000002
   17.60639000  108.87300110    0.56999999    2.98000002
   17.60944557  106.30999756    0.61000001    2.96000004
   17.61277771  105.64800262    0.61000001    2.96000004
   17.61388969  121.44999695    0.61000001    2.98000002
   17.61638832   95.68930054    0.64999998    2.96000004
   17.61972237   94.97080231    0.63000000    2.96000004
   17.62277794  114.60700226    0.63000000    2.96000004
   17.62611198  104.72799683    0.63000000    2.98000002
   17.62916756   96.66190338    0.61000001    2.98000002
   17.63249969  105.25599670    0.58999997    2.98000002
   17.63666725  105.25599670    0.56999999    2.96000004
   17.64083290   87.59510040    0.56999999    2.98000002
   17.64388847   90.86940002    0.56999999    2.98000002
   17.64722252   90.23190308    0.56999999    2.96000004
   17.64777756   86.42089844    0.56999999    2.96000004
   17.65111160   95.96240234    0.56999999    2.98000002
   17.65416718   76.31030273    0.56999999    2.98000002
   17.65749931   83.75160217    0.58999997    2.98000002
   17.66055489   86.55069733    0.58999997    2.96000004
   17.66388893   95.46430206    0.58999997    2.96000004
   17.66722107   82.60089874    0.58999997    2.96000004
   17.67138863   82.60089874    0.63000000    2.98000002
   17.67527771   73.55989838    0.63000000    2.96000004
   17.67860985   77.68840027    0.69000000    2.96000004
   17.68055534   73.27749634    0.67000002    2.94000006
   17.68222237   82.19909668    0.70999998    2.96000004
   17.68555450   77.68219757    0.73000002    2.96000004
   17.68861008   87.74440002    0.75000000    2.96000004
   17.69194412   75.36180115    0.76999998    2.96000004
   17.69499969   77.71289825    0.76999998    2.96000004
   17.69833183   80.33920288    0.76999998    2.98000002
   17.70166779   77.96440125    0.80000001    2.96000004
   17.70583344   77.96440125    0.83999997    2.94000006
   17.71000099   90.52700043    0.88000000    2.96000004
   17.71305656   74.45890045    0.89999998    2.96000004
   17.71416664   84.77670288    0.89999998    2.96000004
   17.71722221   83.81680298    0.86000001    2.96000004
   17.72027779   86.64219666    0.86000001    2.96000004
   17.72361183   77.47969818    0.86000001    2.94000006
   17.72694588   87.35079956    0.86000001    2.94000006
   17.73000145   80.11710358    0.88000000    2.96000004
   17.73333359   77.11309814    0.89999998    2.96000004
   17.73638916   84.99310303    0.92000002    2.96000004
   17.74055672   84.99310303    0.89999998    2.96000004
   17.74472237   84.93099976    0.86000001    2.94000006
   17.74722290   74.94660187    0.86000001    2.94000006
   17.74833298   77.53600311    0.86000001    2.94000006
   17.75166702   83.70670319    0.86000001    2.96000004
   17.75472260   79.86660004    0.86000001    2.96000004
   17.75805473   79.22260284    0.88000000    2.96000004
   17.76138878   73.41030121    0.83999997    2.96000004
   17.76444435   74.04409790    0.88000000    2.96000004
   17.76777840   85.95210266    0.92000002    2.96000004
   17.77083397   82.73040009    0.80000001    2.96000004
   17.77527809   82.73040009    0.70999998    2.98000002
   17.77916718   90.26650238    0.64999998    2.98000002
   17.78055573   75.46029663    0.64999998    2.98000002
   17.78305435   85.08350372    0.64999998    2.96000004
   17.78638840   87.18640137    0.58999997    2.96000004
   17.78944397   83.06710052    0.56999999    2.98000002
   17.79277802   73.85820007    0.55000001    2.98000002
   17.79611015   83.64510345    0.51999998    2.96000004
   17.79916573   82.20549774    0.51999998    2.98000002
   17.80249977   77.73400116    0.52999997    2.98000002
   17.80583191   81.02999878    0.51999998    2.98000002
   17.80999947   81.02999878    0.55000001    2.96000004
   17.81388855   78.92310333    0.58999997    2.98000002
   17.81722260   76.87879944    0.58999997    2.98000002
   17.82055664   73.53440094    0.70999998    2.96000004
   17.82361221   74.71640015    0.73000002    2.96000004
   17.82694626   76.67929840    0.76999998    2.96000004
   17.83027840   78.05180359    0.76999998    2.96000004
   17.83333397   75.87599945    0.76999998    2.94000006
   17.83666801   76.79709625    0.76999998    2.96000004
   17.83972359   77.68620300    0.76999998    2.94000006
   17.84444427   77.68620300    0.76999998    2.96000004
   17.84861183   76.45850372    0.75000000    2.96000004
   17.85166740   76.10099792    0.73000002    2.96000004
   17.85499954   75.86329651    0.75000000    2.96000004
   17.85833359   75.96510315    0.75000000    2.96000004
   17.86138916   76.47509766    0.75000000    2.96000004
   17.86472321   76.33799744    0.73000002    2.96000004
   17.86777878   74.47920227    0.75000000    2.96000004
   17.87111092   74.10810089    0.75000000    2.96000004
   17.87444496   77.06330109    0.75000000    2.96000004
   17.87888908   77.06330109    0.73000002    2.96000004
   17.88305473   86.09269714    0.73000002    2.96000004
   17.88638878   79.13680267    0.76999998    2.96000004
   17.88944435   74.19719696    0.75000000    2.96000004
   17.89277840   77.89099884    0.76999998    2.96000004
   17.89583397   78.10610199    0.75000000    2.94000006
   17.89916611   78.25140381    0.75000000    2.96000004
   17.90250015   79.51360321    0.75000000    2.96000004
   17.90555573   75.08280182    0.75000000    2.96000004
   17.90888786   76.90129852    0.73000002    2.96000004
   17.91333389   76.90129852    0.75000000    2.94000006
   17.91749954   79.70050049    0.69000000    2.96000004
   17.92083359   79.09159851    0.69000000    2.96000004
   17.92388916   73.41429901    0.64999998    2.96000004
   17.92722130   77.30940247    0.63000000    2.94000006
   17.93055534   78.60739899    0.63000000    2.96000004
   17.93361092   75.60590363    0.63000000    2.96000004
   17.93694305   86.71640015    0.61000001    2.96000004
   17.93999863   73.99539948    0.61000001    2.96000004
   17.94333267   75.74590302    0.61000001    2.96000004
   17.94777679   75.74590302    0.58999997    2.96000004
   17.95194435   78.79799652    0.58999997    2.96000004
   17.95527840   75.07810211    0.61000001    2.96000004
   17.95861244   78.17870331    0.63000000    2.96000004
   17.96166801   76.26660156    0.61000001    2.96000004
   17.96500015   71.82019806    0.63000000    2.96000004
   17.96833420   75.25270081    0.64999998    2.96000004
   17.97138977   76.04550171    0.64999998    2.96000004
   17.97472191   76.81829834    0.64999998    2.96000004
   17.97805595   72.90370178    0.63000000    2.96000004
   17.98250008   72.90370178    0.63000000    2.96000004
   17.98666763   76.73220062    0.61000001    2.96000004
   17.98972321   78.65229797    0.61000001    2.96000004
   17.99305534   76.97219849    0.61000001    2.98000002
   17.99638939   78.58039856    0.58999997    2.96000004
   17.99944496   74.23580170    0.58999997    2.96000004
   18.00277710   79.66169739    0.56999999    2.96000004
   18.00583267   79.03459930    0.55000001    2.96000004
   18.00916672   76.96939850    0.55000001    2.96000004
   18.01250076   76.14489746    0.52999997    2.96000004
   18.01694489   76.14489746    0.52999997    2.96000004
   18.02111053   73.77259827    0.51999998    2.96000004
   18.02416611   77.89379883    0.51999998    2.96000004
   18.02750015   75.49179840    0.51999998    2.98000002
   18.03083229   73.90609741    0.51999998    2.98000002
   18.03388786   73.92910004    0.52999997    2.98000002
   18.03722191   75.41629791    0.51999998    2.96000004
   18.04055595   72.86509705    0.52999997    2.96000004
   18.04388809   73.94719696    0.56999999    2.96000004
   18.04694366   76.77919769    0.61000001    2.94000006
   18.05138779   76.77919769    0.64999998    2.94000006
   18.05555534   77.34200287    0.67000002    2.96000004
   18.05888748   75.11840057    0.69000000    2.96000004
   18.06194305   74.29290009    0.70999998    2.96000004
   18.06527710   75.17539978    0.69000000    2.94000006
   18.06833458   77.89679718    0.69000000    2.96000004
   18.07166672   81.12370300    0.70999998    2.94000006
   18.07500076   84.21720123    0.69000000    2.94000006
   18.07805634   80.92070007    0.70999998    2.94000006
   18.08139038   83.63159943    0.70999998    2.94000006
   18.08583450   83.63159943    0.70999998    2.96000004
   18.09000015   77.58660126    0.73000002    2.96000004
   18.09333420   73.49040222    0.73000002    2.94000006
   18.09638977   76.44509888    0.75000000    2.94000006
   18.09972191   85.24690247    0.75000000    2.94000006
   18.10305595   79.19719696    0.75000000    2.94000006
   18.10611153   75.98349762    0.81999999    2.94000006
   18.10944557   77.57959747    0.83999997    2.96000004
   18.11277771   75.78569794    0.79000002    2.94000006
   18.11583328   73.98310089    0.79000002    2.94000006
   18.12055588   73.98310089    0.75000000    2.94000006
   18.12444496   80.27960205    0.69000000    2.96000004
   18.12777710   79.04540253    0.70999998    2.94000006
   18.13111115   75.49739838    0.69000000    2.94000006
   18.13416672   78.79630280    0.63000000    2.96000004
   18.13750076   78.21320343    0.63000000    2.96000004
   18.14083290   73.98429871    0.61000001    2.96000004
   18.14388847   75.10220337    0.61000001    2.94000006
   18.14722252   79.58989716    0.63000000    2.96000004
   18.15055466   77.57640076    0.61000001    2.96000004
   18.15499878   77.57640076    0.56999999    2.96000004
   18.15916634   78.33730316    0.56999999    2.96000004
   18.16222191   76.80919647    0.52999997    2.96000004
   18.16555595   75.27200317    0.52999997    2.94000006
   18.16888809   74.13870239    0.51999998    2.96000004
   18.17194366   79.75029755    0.52999997    2.96000004
   18.17527771   77.70320129    0.55000001    2.96000004
   18.17860985   77.85420227    0.56999999    2.94000006
   18.18166542   75.35199738    0.61000001    2.94000006
   18.18499947   73.94550323    0.58999997    2.94000006
   18.18944359   73.94550323    0.61000001    2.96000004
   18.19361115   77.86750031    0.61000001    2.94000006
   18.19694328   75.55069733    0.64999998    2.94000006
   18.20000076   77.16100311    0.64999998    2.94000006
   18.20333481   76.02790070    0.67000002    2.94000006
   18.20639038   82.24210358    0.67000002    2.94000006
   18.20972252   80.43329620    0.64999998    2.96000004
   18.21305656   77.41130066    0.64999998    2.94000006
   18.21611214   80.06390381    0.67000002    2.94000006
   18.21944427   82.80249786    0.69000000    2.94000006
   18.22389030   82.80249786    0.69000000    2.94000006
   18.22805595   83.03649902    0.69000000    2.96000004
   18.23139000   75.14109802    0.67000002    2.94000006
   18.23444557   80.72640228    0.67000002    2.96000004
   18.23777771   74.36039734    0.67000002    2.94000006
   18.24111176   78.73079681    0.67000002    2.94000006
   18.24416733   75.27089691    0.67000002    2.94000006
   18.24749947   72.78800201    0.67000002    2.94000006
   18.25055504   77.25540161    0.67000002    2.94000006
   18.25388908   74.52600098    0.67000002    2.94000006
   18.25861168   74.52600098    0.67000002    2.96000004
   18.26250076   83.09439850    0.64999998    2.94000006
   18.26583290   80.33049774    0.67000002    2.94000006
   18.26916695   73.07319641    0.67000002    2.94000006
   18.27222252   72.78829956    0.64999998    2.94000006
   18.27555466   72.97399902    0.63000000    2.94000006
   18.27861023   76.12999725    0.63000000    2.94000006
   18.28194427   75.17880249    0.63000000    2.94000006
   18.28527641   75.61689758    0.63000000    2.96000004
   18.28833199   77.68109894    0.63000000    2.94000006
   18.29305458   77.68109894    0.61000001    2.94000006
   18.29722214   76.62129974    0.61000001    2.96000004
   18.30027771   75.45559692    0.61000001    2.94000006
   18.30360985   75.51119995    0.61000001    2.94000006
   18.30666542   74.23290253    0.56999999    2.96000004
   18.30999947   76.37000275    0.56999999    2.94000006
   18.31333351   73.74089813    0.55000001    2.94000006
   18.31638718   74.44570160    0.55000001    2.94000006
   18.31972313   77.28520203    0.55000001    2.96000004
   18.32305717   77.13649750    0.56999999    2.94000006
   18.32750130   77.13649750    0.56999999    2.94000006
   18.33166695   75.95259857    0.56999999    2.94000006
   18.33500099   80.21050262    0.56999999    2.94000006
   18.33805656   80.16120148    0.55000001    2.94000006
   18.34138870   76.23889923    0.55000001    2.94000006
   18.34444427   72.68129730    0.55000001    2.96000004
   18.34777832   72.63729858    0.52999997    2.94000006
   18.35111237   74.81569672    0.52999997    2.94000006
   18.35416794   79.96980286    0.51999998    2.96000004
   18.35750008   77.44480133    0.51999998    2.96000004
   18.36194420   77.44480133    0.51999998    2.94000006
   18.36611176   76.09950256    0.51999998    2.96000004
   18.36944389   74.07530212    0.51999998    2.94000006
   18.37249947   78.79730225    0.51999998    2.96000004
   18.37583351   74.77300262    0.51999998    2.94000006
   18.37916756   78.58399963    0.52999997    2.96000004
   18.38222313   74.74130249    0.51999998    2.94000006
   18.38555527   76.45989990    0.52999997    2.94000006
   18.38861084   76.73110199    0.52999997    2.94000006
   18.39194489   76.19239807    0.52999997    2.96000004
   18.39638901   76.19239807    0.56999999    2.94000006
   18.40055466   81.24330139    0.56999999    2.94000006
   18.40388870   76.78910065    0.56999999    2.96000004
   18.40722275   74.89929962    0.56999999    2.94000006
   18.41027832   72.89469910    0.58999997    2.94000006
   18.41361046   73.93370056    0.58999997    2.94000006
   18.41666603   75.32299805    0.58999997    2.94000006
   18.42000008   77.01899719    0.64999998    2.94000006
   18.42333221   78.18599701    0.67000002    2.94000006
   18.42638779   73.50740051    0.69000000    2.94000006
   18.43111038   73.50740051    0.70999998    2.94000006
   18.43499947   81.02940369    0.73000002    2.94000006
   18.43833160   79.47509766    0.70999998    2.94000006
   18.44166565   77.63749695    0.70999998    2.94000006
   18.44472122   74.74400330    0.73000002    2.94000006
   18.44805527   73.69909668    0.73000002    2.94000006
   18.45138931   74.18489838    0.73000002    2.94000006
   18.45444489   76.57479858    0.75000000    2.94000006
   18.45777893   74.29090118    0.75000000    2.94000006
   18.46083450   81.13430023    0.73000002    2.93000007
   18.46555710   81.13430023    0.73000002    2.94000006
   18.46972275   76.99430084    0.70999998    2.94000006
   18.47277832   78.72769928    0.70999998    2.94000006
   18.47611237   74.95739746    0.70999998    2.94000006
   18.47944450   76.72799683    0.70999998    2.94000006
   18.48250008   75.87740326    0.70999998    2.94000006
   18.48583412   81.16629791    0.70999998    2.94000006
   18.48916626   81.53630066    0.70999998    2.94000006
   18.49222183   75.30899811    0.73000002    2.94000006
   18.49555588   77.74199677    0.73000002    2.94000006
   18.50000000   77.74199677    0.75000000    2.94000006
   18.50416756   75.88909912    0.75000000    2.94000006
   18.50749969   73.94120026    0.75000000    2.94000006
   18.51055527   77.05950165    0.75000000    2.93000007
   18.51388931   76.55519867    0.76999998    2.94000006
   18.51722145   77.64810181    0.76999998    2.94000006
   18.52027702   73.43419647    0.79000002    2.94000006
   18.52361107   77.46070099    0.80000001    2.94000006
   18.52694511   84.30660248    0.81999999    2.94000006
   18.53000069   74.57240295    0.81999999    2.93000007
   18.53444481   74.57240295    0.81999999    2.94000006
   18.53861046   76.79910278    0.80000001    2.93000007
   18.54194450   75.21640015    0.79000002    2.93000007
   18.54500008   77.89199829    0.79000002    2.94000006
   18.56472206   73.66549683    0.67000002    2.94000006
   18.56916809   73.66549683    0.64999998    2.94000006
   18.57333374   78.35710144    0.63000000    2.94000006
   18.57638931   76.82929993    0.63000000    2.94000006
   18.57972336   78.38169861    0.63000000    2.94000006
   18.58305550   79.78089905    0.63000000    2.94000006
   18.58611107   75.61060333    0.64999998    2.94000006
   18.58944511   76.40499878    0.64999998    2.94000006
   18.59277916   76.80619812    0.64999998    2.94000006
   18.59583473   81.06629944    0.67000002    2.94000006
   18.59916687   77.41850281    0.67000002    2.93000007
   18.60361099   77.41850281    0.64999998    2.94000006
   18.60777855   69.35820007    0.63000000    2.94000006
   18.61111069   77.99749756    0.63000000    2.94000006
   18.61416626   81.79979706    0.63000000    2.94000006
   18.61750031   79.44580078    0.67000002    2.94000006
   18.62055588   75.34429932    0.67000002    2.94000006
   18.62388992   74.52259827    0.69000000    2.94000006
   18.62722206   73.91739655    0.69000000    2.93000007
   18.63027763   76.90879822    0.69000000    2.94000006
   18.63361168   77.96469879    0.73000002    2.93000007
   18.63805580   77.96469879    0.70999998    2.93000007
   18.64222145   72.62899780    0.67000002    2.94000006
   18.64555550   75.68830109    0.67000002    2.94000006
   18.64861107   75.71759796    0.63000000    2.94000006
   18.65194321   75.76760101    0.61000001    2.94000006
   18.65527725   73.71990204    0.56999999    2.94000006
   18.65833282   73.87349701    0.52999997    2.94000006
   18.66166687   72.99919891    0.51999998    2.94000006
   18.66499901   76.03649902    0.46000001    2.94000006
   18.66805458   76.46459961    0.46000001    2.94000006
   18.67277718   76.46459961    0.47999999    2.94000006
   18.67666626   80.30200195    0.50000000    2.94000006
   18.68000031   74.42150116    0.50000000    2.96000004
   18.68333244   74.32450104    0.50000000    2.94000006
   18.68638802   74.30229950    0.51999998    2.94000006
   18.68972206   78.18229675    0.51999998    2.94000006
   18.69305420   78.08350372    0.55000001    2.94000006
   18.69610977   74.65070343    0.55000001    2.94000006
   18.69944382   75.46150208    0.56999999    2.94000006
   18.70250130   78.36450195    0.56999999    2.94000006
   18.70722389   78.36450195    0.58999997    2.93000007
   18.71138954   74.11190033    0.58999997    2.94000006
   18.71444511   72.41560364    0.56999999    2.94000006
   18.71777916   74.65619659    0.56999999    2.94000006
   18.72111130   75.48429871    0.56999999    2.94000006
   18.72416687   75.53250122    0.56999999    2.94000006
   18.72750092   76.39240265    0.55000001    2.94000006
   18.73055649   74.98069763    0.55000001    2.94000006
   18.73388863   75.78379822    0.55000001    2.94000006
   18.73722267   74.08799744    0.55000001    2.94000006
   18.74166679   74.08799744    0.52999997    2.94000006
   18.74583435   72.90339661    0.51999998    2.94000006
   18.74888992   75.81289673    0.50000000    2.94000006
   18.75222206   74.35980225    0.50000000    2.94000006
   18.75555611   76.08129883    0.47999999    2.94000006
   18.75861168   72.03040314    0.47999999    2.94000006
   18.76194382   72.98760223    0.47999999    2.96000004
   18.76527786   74.61049652    0.46000001    2.94000006
   18.76833344   77.99019623    0.46000001    2.94000006
   18.77166557   76.56320190    0.46000001    2.94000006
   18.77611160   76.56320190    0.46000001    2.94000006
   18.78027725   74.47499847    0.46000001    2.94000006
   18.78361130   74.71730042    0.46000001    2.94000006
   18.78666687   75.04100037    0.46000001    2.94000006
   18.78999901   72.40550232    0.46000001    2.94000006
   18.79333305   72.64890289    0.46000001    2.94000006
   18.79638863   76.68550110    0.46000001    2.94000006
   18.79972076   74.74880219    0.47999999    2.94000006
   18.80277634   76.06680298    0.47999999    2.93000007
   18.80611038   76.65149689    0.47999999    2.94000006
   18.81055450   76.65149689    0.47999999    2.94000006
   18.81472206   73.68840027    0.47999999    2.94000006
   18.81805611   78.41030121    0.46000001    2.94000006
   18.82139015   76.55670166    0.46000001    2.94000006
   18.82444572   76.36499786    0.47999999    2.94000006
   18.82777786   75.95259857    0.46000001    2.94000006
   18.83111191   76.53269958    0.47999999    2.94000006
   18.83444595   75.29609680    0.47999999    2.94000006
   18.83750153   80.21829987    0.47999999    2.94000006
   18.84083366   77.34279633    0.47999999    2.94000006
   18.84527779   77.34279633    0.47999999    2.94000006
   18.84944534   71.77980042    0.47999999    2.94000006
   18.85250092   75.46040344    0.47999999    2.94000006
   18.85583305   77.61900330    0.47999999    2.94000006
   18.85888863   73.38860321    0.47999999    2.94000006
   18.86222267   74.14530182    0.47999999    2.93000007
   18.86555672   72.61239624    0.47999999    2.94000006
   18.86861038   76.33350372    0.47999999    2.94000006
   18.87194443   74.39939880    0.47999999    2.94000006
   18.87527847   74.27169800    0.47999999    2.94000006
   18.87972260   74.27169800    0.47999999    2.94000006
   18.88388824   78.15910339    0.47999999    2.94000006
   18.88694382   73.36080170    0.47999999    2.93000007
   18.89027786   73.73169708    0.50000000    2.93000007
   18.89361191   73.00219727    0.50000000    2.94000006
   18.89666748   72.00099945    0.50000000    2.94000006
   18.89999962   73.56610107    0.50000000    2.94000006
   18.90333366   76.56680298    0.50000000    2.94000006
   18.90638924   76.30799866    0.51999998    2.94000006
   18.90972137   74.37400055    0.51999998    2.94000006
   18.91416550   74.37400055    0.51999998    2.94000006
   18.91833305   76.62850189    0.51999998    2.94000006
   18.92166519   76.17859650    0.51999998    2.94000006
   18.92472076   77.37220001    0.52999997    2.93000007
   18.92805481   75.71489716    0.52999997    2.94000006
   18.93111038   77.60119629    0.51999998    2.94000006
   18.93444443   74.81919861    0.52999997    2.93000007
   18.93777657   81.07170105    0.52999997    2.94000006
   18.94083214   75.83070374    0.52999997    2.94000006
   18.94416618   70.64420319    0.52999997    2.94000006
   18.94861031   70.64420319    0.55000001    2.94000006
   18.95277786   79.78759766    0.55000001    2.93000007
   18.95611191   79.27919769    0.55000001    2.94000006
   18.95916748   71.02239990    0.55000001    2.93000007
   18.96250153   76.35279846    0.55000001    2.94000006
   18.96583366   82.44059753    0.52999997    2.94000006
   18.96888924   77.35590363    0.55000001    2.93000007
   18.97222328   73.71679688    0.56999999    2.94000006
   18.97555542   78.19730377    0.56999999    2.94000006
   18.97861099   79.89720154    0.56999999    2.94000006
   18.98333359   79.89720154    0.56999999    2.94000006
   18.98722267   76.09320068    0.56999999    2.94000006
   18.99055672   77.14430237    0.56999999    2.94000006
   18.99388885   78.74069977    0.58999997    2.93000007
   18.99694443   75.21929932    0.56999999    2.93000007
   19.00027847   79.61650085    0.56999999    2.94000006
   19.00361061   74.40969849    0.56999999    2.94000006
   19.00666618   74.81710052    0.56999999    2.93000007
   19.01000023   70.86609650    0.56999999    2.94000006
   19.01333427   73.01480103    0.56999999    2.94000006
   19.01777840   73.01480103    0.56999999    2.94000006
   19.02194405   79.74320221    0.58999997    2.93000007
   19.02499962   77.92199707    0.56999999    2.94000006
   19.02833366   77.49230194    0.58999997    2.93000007
   19.03166580   76.37359619    0.58999997    2.93000007
   19.03472137   76.12490082    0.56999999    2.93000007
   19.03805542   77.13780212    0.56999999    2.93000007
   19.04111099   73.48860168    0.56999999    2.93000007
   19.04444313   73.39040375    0.56999999    2.94000006
   19.04777718   76.80840302    0.56999999    2.94000006
   19.05222130   76.80840302    0.61000001    2.94000006
   19.05638885   73.19660187    0.61000001    2.94000006
   19.05972099   76.09970093    0.61000001    2.94000006
   19.06277657   74.93170166    0.63000000    2.94000006
   19.06611061   76.37789917    0.63000000    2.93000007
   19.06944466   74.51450348    0.67000002    2.93000007
   19.07250023   75.26460266    0.67000002    2.93000007
   19.07583427   75.45130157    0.69000000    2.93000007
   19.07888985   82.36650085    0.69000000    2.93000007
   19.08222389   78.25350189    0.70999998    2.93000007
   19.08666801   78.25350189    0.70999998    2.93000007
   19.09083366  116.10199738    0.70999998    2.93000007
   19.09416771   76.35579681    0.73000002    2.91000009
   19.09722328   77.26730347    0.73000002    2.93000007
   19.10055542   76.72389984    0.73000002    2.93000007
   19.10388947   77.79450226    0.73000002    2.93000007
   19.10694504   79.72489929    0.70999998    2.93000007
   19.11027908   74.05960083    0.70999998    2.93000007
   19.11333466   78.28510284    0.70999998    2.93000007
   19.11666679   74.53520203    0.70999998    2.93000007
   19.12111092   74.53520203    0.70999998    2.93000007
   19.12527847   81.40529633    0.70999998    2.93000007
   19.12861061   74.72460175    0.70999998    2.93000007
   19.13194466   79.31710052    0.70999998    2.93000007
   19.13500023   76.27210236    0.70999998    2.93000007
   19.13833237   74.10610199    0.73000002    2.91000009
   19.14138794   78.68370056    0.73000002    2.91000009
   19.14472198   75.06510162    0.73000002    2.93000007
   19.14805603   77.13200378    0.75000000    2.93000007
   19.15111160   73.35260010    0.75000000    2.91000009
   19.15583229   73.35260010    0.75000000    2.93000007
   19.15999985   78.99009705    0.75000000    2.93000007
   19.16305542   78.34559631    0.75000000    2.93000007
   19.16638756   75.35410309    0.76999998    2.93000007
   19.16972160   78.44499969    0.75000000    2.93000007
   19.17277718   76.06620026    0.76999998    2.93000007
   19.17611122   77.72380066    0.76999998    2.93000007
   19.17916679   78.12180328    0.76999998    2.91000009
   19.18249893   77.00479889    0.76999998    2.91000009
   19.18583298   78.52799988    0.76999998    2.91000009
   19.19027710   78.52799988    0.79000002    2.93000007
   19.19444275   78.88179779    0.79000002    2.91000009
   19.19749832   74.72660065    0.79000002    2.93000007
   19.20083427   76.77940369    0.79000002    2.93000007
   19.20416832   71.35729980    0.79000002    2.93000007
   19.20750046   70.96549988    0.79000002    2.91000009
   19.21083450   71.18830109    0.79000002    2.93000007
   19.21389008   73.04699707    0.80000001    2.91000009
   19.21722221   77.66369629    0.79000002    2.93000007
   19.22027779   73.69969940    0.80000001    2.93000007
   19.22472191   73.69969940    0.80000001    2.91000009
   19.22888947   74.21050262    0.80000001    2.91000009
   19.23222351   74.99610138    0.80000001    2.91000009
   19.23527718   75.92199707    0.80000001    2.91000009
   19.23861122   76.15640259    0.83999997    2.93000007
   19.24194527   73.88189697    0.81999999    2.93000007
   19.24500084   75.60890198    0.81999999    2.91000009
   19.24833298   75.98229980    0.81999999    2.91000009
   19.25166702   75.05049896    0.81999999    2.91000009
   19.25472260   74.52439880    0.81999999    2.91000009
   19.25916672   74.52439880    0.81999999    2.91000009
   19.26333427   80.23570251    0.83999997    2.93000007
   19.26666641   72.16989899    0.83999997    2.93000007
   19.26972198   73.55239868    0.83999997    2.93000007
   19.27305603   74.06950378    0.83999997    2.93000007
   19.27638817   74.63200378    0.83999997    2.91000009
   19.27944374   79.52359772    0.83999997    2.91000009
   19.28277779   73.21269989    0.81999999    2.93000007
   19.28610992   74.60060120    0.83999997    2.91000009
   19.28916550   75.06539917    0.83999997    2.91000009
   19.29388809   75.06539917    0.83999997    2.91000009
   19.29805565   75.96859741    0.86000001    2.91000009
   19.30111122   73.37590027    0.86000001    2.91000009
   19.30444336   76.11009979    0.86000001    2.91000009
   19.30749893   79.54609680    0.86000001    2.91000009
   19.31083298   75.60710144    0.88000000    2.93000007
   19.31416512   72.98149872    0.86000001    2.91000009
   19.31750107   76.72090149    0.86000001    2.91000009
   19.32083511   75.26509857    0.86000001    2.91000009
   19.32389069   75.94100189    0.86000001    2.91000009
   19.32833481   75.94100189    0.83999997    2.91000009
   19.33250046   77.44879913    0.81999999    2.91000009
   19.33555603   75.34140015    0.83999997    2.91000009
   19.33889008   80.95960236    0.80000001    2.93000007
   19.34222221   72.94180298    0.81999999    2.91000009
   19.34527779   77.54660034    0.81999999    2.91000009
   19.34861183   77.26260376    0.80000001    2.91000009
   19.35194397   78.52639771    0.80000001    2.91000009
   19.35499954   75.51930237    0.83999997    2.91000009
   19.35833359   78.51930237    0.83999997    2.91000009
   19.36277771   78.51930237    0.83999997    2.91000009
   19.36694527   76.01409912    0.81999999    2.91000009
   19.37027740   76.24559784    0.81999999    2.91000009
   19.37333298   77.50060272    0.81999999    2.91000009
   19.37666702   78.33439636    0.81999999    2.91000009
   19.37972260   80.51210022    0.81999999    2.93000007
   19.38305473   73.94390106    0.81999999    2.91000009
   19.38638878   75.07530212    0.81999999    2.91000009
   19.38944435   77.58460236    0.81999999    2.91000009
   19.39277840   81.25460052    0.81999999    2.91000009
   19.39722252   81.25460052    0.81999999    2.93000007
   19.40138817   77.74069977    0.81999999    2.91000009
   19.40472221   72.52369690    0.81999999    2.91000009
   19.40777779   76.09220123    0.81999999    2.91000009
   19.41110992   76.76670074    0.81999999    2.91000009
   19.41444397   77.21219635    0.81999999    2.91000009
   19.41749954   80.29039764    0.81999999    2.91000009
   19.42083359   76.62380219    0.83999997    2.91000009
   19.42416573   77.37159729    0.81999999    2.91000009
   19.42722130   76.35820007    0.83999997    2.89000010
   19.43194389   76.35820007    0.86000001    2.91000009
   19.43583298   78.17790222    0.86000001    2.89000010
   19.43916512   77.98709869    0.88000000    2.91000009
   19.44249916   82.78160095    0.88000000    2.91000009
   19.44555473   78.16230011    0.89999998    2.91000009
   19.44888878   79.13680267    0.88000000    2.91000009
   19.45222282   76.64289856    0.88000000    2.91000009
   19.45527840   78.67690277    0.88000000    2.91000009
   19.45861244   77.57279968    0.89999998    2.91000009
   19.46166801   74.81240082    0.92000002    2.89000010
   19.46638870   74.81240082    0.94000000    2.89000010
   19.47055626   74.82409668    0.94000000    2.89000010
   19.47361183   79.05439758    0.95999998    2.91000009
   19.47694588   83.45580292    0.95999998    2.89000010
   19.48000145   79.40139771    0.98000002    2.89000010
   19.48333359   73.79789734    0.95999998    2.89000010
   19.48666763   84.45189667    0.95999998    2.89000010
   19.48972321   74.44200134    0.95999998    2.89000010
   19.49305534   77.32330322    0.95999998    2.89000010
   19.49638939   80.27739716    0.95999998    2.89000010
   19.50083351   80.27739716    0.94000000    2.89000010
   19.50499916   76.41860199    0.94000000    2.89000010
   19.50833321   78.21019745    0.94000000    2.91000009
   19.51138878   76.05970001    0.94000000    2.91000009
   19.51472282   76.09629822    0.94000000    2.89000010
   19.51777840   76.83249664    0.94000000    2.89000010
   19.52111053   75.93849945    0.94000000    2.91000009
   19.52444458   75.57649994    0.94000000    2.91000009
   19.52750015   80.28919983    0.92000002    2.91000009
   19.53083229   76.19000244    0.92000002    2.91000009
   19.53527641   76.19000244    0.94000000    2.89000010
   19.53944397   75.09329987    0.95999998    2.89000010
   19.54277802   75.10839844    0.94000000    2.89000010
   19.54583359   78.82720184    0.92000002    2.89000010
   19.54916573   76.89610291    0.92000002    2.89000010
   19.55249977   76.36540222    0.92000002    2.89000010
   19.55555534   75.55180359    0.92000002    2.91000009
   19.55888748   75.71589661    0.92000002    2.91000009
   19.56194305   77.34629822    0.92000002    2.89000010
   19.58472252   77.34629822    0.95999998    2.89000010
   19.58889008   76.63320160    0.95999998    2.89000010
   19.59194565   77.33339691    0.95999998    2.89000010
   19.59527779   76.16179657    0.98000002    2.89000010
   19.59861183   76.95819855    1.01999998    2.89000010
   19.60166740   75.95059967    1.01999998    2.86999989
   19.60499954   77.80719757    1.03999996    2.89000010
   19.60833359   82.08450317    1.09000003    2.89000010
   19.61138916   84.80950165    1.05999994    2.86999989
   19.61472321   73.48840332    1.07000005    2.86999989
   19.61916733   73.48840332    1.07000005    2.89000010
   19.62333298   79.64849854    1.05999994    2.89000010
   19.62638855   75.29769897    1.05999994    2.86999989
   19.62972260   78.39260101    1.07000005    2.89000010
   19.63305473   79.19300079    1.07000005    2.89000010
   19.63611031   74.18630219    1.13000000    2.89000010
   19.63944435   80.01770020    1.13000000    2.86999989
   19.64277840   76.73789978    1.14999998    2.89000010
   19.64611053   73.13310242    1.13000000    2.86999989
   19.64916611   77.76339722    1.13000000    2.86999989
   19.65361023   77.76339722    1.11000001    2.89000010
   19.65777779   77.07289886    1.09000003    2.89000010
   19.66110992   83.15779877    1.11000001    2.89000010
   19.66416550   79.66570282    1.11000001    2.86999989
   19.66749954   78.28829956    1.11000001    2.86999989
   19.67055511   75.66580200    1.11000001    2.89000010
   19.67388916   75.04570007    1.11000001    2.89000010
   19.67722130   74.80570221    1.13000000    2.86999989
   19.68027687   74.74990082    1.13000000    2.86999989
   19.68361092   76.38970184    1.13000000    2.86999989
   19.68805504   76.38970184    1.13000000    2.86999989
   19.69222069   75.55259705    1.13000000    2.86999989
   19.69555473   73.86830139    1.13000000    2.86999989
   19.69861031   76.82839966    1.13000000    2.86999989
   19.70194435   76.06839752    1.13000000    2.89000010
   19.70527840   81.08329773    1.14999998    2.86999989
   19.70833397   76.90910339    1.16999996    2.86999989
   19.71166801   74.59140015    1.16999996    2.86999989
   19.71472359   77.03189850    1.19000006    2.84999990
   19.71805573   76.75869751    1.19000006    2.86999989
   19.72277832   76.75869751    1.19000006    2.86999989
   19.72666740   74.50610352    1.23000002    2.84999990
   19.73000145   77.85559845    1.23000002    2.86999989
   19.73333359   77.41390228    1.23000002    2.86999989
   19.73638916   77.96849823    1.23000002    2.86999989
   19.73972321   79.42929840    1.23000002    2.86999989
   19.74305534   81.81569672    1.25000000    2.86999989
   19.74611092   81.60649872    1.26999998    2.86999989
   19.74944496   77.62860107    1.28999996    2.86999989
   19.75277710   73.78350067    1.30999994    2.84999990
   19.75722313   73.78350067    1.28999996    2.86999989
   19.76138878   75.78459930    1.28999996    2.84999990
   19.76444435   77.86589813    1.28999996    2.84999990
   19.76777840   76.17150116    1.26999998    2.86999989
   19.77083397   80.09380341    1.26999998    2.84999990
   19.77416611   76.85870361    1.26999998    2.84999990
   19.77750015   78.08249664    1.26999998    2.84999990
   19.78055573   77.61399841    1.26999998    2.84999990
   19.78388786   75.43869781    1.33000004    2.86999989
   19.78722191   80.61630249    1.36000001    2.84999990
   19.79166603   80.61630249    1.34000003    2.84999990
   19.79583359   76.49690247    1.36000001    2.84999990
   19.79888916   82.42749786    1.34000003    2.84999990
   19.80222130   74.43630219    1.33000004    2.84999990
   19.80555534   78.10140228    1.30999994    2.84999990
   19.80861092   76.12390137    1.28999996    2.84999990
   19.81194305   79.58910370    1.28999996    2.86999989
   19.81527710   79.46119690    1.25000000    2.86999989
   19.81833458   79.06379700    1.25000000    2.86999989
   19.82166672   78.14209747    1.25000000    2.86999989
   19.82611275   78.14209747    1.25000000    2.86999989
   19.83027840   76.09629822    1.26999998    2.84999990
   19.83361244   78.08809662    1.28999996    2.84999990
   19.83666801   75.95359802    1.28999996    2.84999990
   19.84000015   78.16320038    1.30999994    2.84999990
   19.84333420   77.07140350    1.28999996    2.84999990
   19.84638977   74.92040253    1.28999996    2.84999990
   19.84972191   71.74659729    1.30999994    2.84999990
   19.85277748   75.26609802    1.33000004    2.84999990
   19.85611153   74.58930206    1.33000004    2.84999990
   19.86055565   74.58930206    1.34000003    2.84999990
   19.86472321   76.30590057    1.34000003    2.86999989
   19.86805534   76.98539734    1.33000004    2.84999990
   19.87138939   74.55770111    1.33000004    2.84999990
   19.87444496   78.86990356    1.33000004    2.84999990
   19.87777710   78.19259644    1.33000004    2.84999990
   19.88111115   78.30010223    1.38000000    2.84999990
   19.88416672   76.48850250    1.36000001    2.86999989
   19.88750076   75.72200012    1.36000001    2.84999990
   19.89083290   76.43800354    1.36000001    2.86999989
   19.89527702   76.43800354    1.38000000    2.84999990
   19.89916611   72.42780304    1.41999996    2.84999990
   19.90250015   74.58070374    1.46000004    2.84999990
   19.90583229   74.21179962    1.46000004    2.84999990
   19.90888786   75.39379883    1.55999994    2.82999992
   19.91222191   78.71839905    1.58000004    2.82999992
   19.91555595   79.03610229    1.60000002    2.84999990
   19.91860962   77.49069977    1.60000002    2.82999992
   19.92194366   78.10140228    1.60000002    2.82999992
   19.92499924   76.64720154    1.60000002    2.82999992
   19.92972183   76.64720154    1.60000002    2.82999992
   19.93388748   78.71759796    1.60000002    2.84999990
   19.93694305   76.98010254    1.63000000    2.82999992
   19.94027710   82.37680054    1.63000000    2.82999992
   19.94361115   74.69129944    1.63000000    2.82999992
   19.94666672   76.02089691    1.66999996    2.82999992
   19.95000076   84.01979828    1.73000002    2.82999992
   19.95305634   77.85089874    1.78999996    2.82999992
   19.95639038   77.96769714    2.00000000    2.82999992
   19.95972252   80.49369812    2.19000006    2.80999994
   19.96416664   80.49369812    2.28999996    2.80999994
   19.96833420   75.90809631    2.39000010    2.80999994
   19.97166634   77.94349670    2.50000000    2.80999994
   19.97472191   81.15470123    2.71000004    2.80999994
   19.97805595   79.45980072    2.36999989    2.80999994
   19.98111153   78.13279724    3.18000007    2.80999994
   19.98444557   77.20099640    3.00000000    2.78999996
   19.98777771   77.86959839    2.61999989    2.80999994
   19.99083328   76.29949951    2.55999994    2.78999996
   19.99416733   83.05300140    2.69000006    2.80999994
   19.99861145   83.05300140    2.39000010    2.80999994
   20.00277710   86.98840332    2.40000010    2.80999994
   20.00611115   85.07569885    2.42000008    2.80999994
   20.00916672   79.21759796    2.44000006    2.80999994
   20.01250076   77.32109833    2.42000008    2.78999996
   20.01583290   78.05359650    2.40000010    2.78999996
   20.01888847   77.23970032    2.34999990    2.80999994
   20.02222252   76.00389862    2.30999994    2.80999994
   20.02555466   82.44560242    2.30999994    2.78999996
   20.02861023   78.47709656    2.28999996    2.78999996
   20.03333282   78.47709656    2.28999996    2.80999994
   20.03722191   80.52469635    2.26999998    2.80999994
   20.04055595   79.85780334    2.25000000    2.78999996
   20.04388809   84.16130066    2.19000006    2.80999994
   20.04694366   76.78690338    2.15000010    2.80999994
   20.05027771   75.52700043    2.13000011    2.80999994
   20.05360985   80.01770020    2.13000011    2.80999994
   20.05666542   79.94889832    2.15000010    2.78999996
   20.05999947   77.46579742    2.23000002    2.80999994
   20.06305504   79.39389801    2.19000006    2.78999996
   20.06777954   79.39389801    2.17000008    2.80999994
   20.07194519   76.83740234    2.19000006    2.80999994
   20.07500076   80.17209625    2.23000002    2.80999994
   20.07833481   83.63860321    2.26999998    2.78999996
   20.08166695   86.17030334    2.30999994    2.78999996
   20.08472252   79.35240173    2.32999992    2.78999996
   20.08805656   80.33489990    2.34999990    2.78999996
   20.09111214   78.24590302    2.30999994    2.78999996
   20.09444427   79.31809998    2.28999996    2.80999994
   20.09777832   83.25730133    2.36999989    2.78999996
   20.10222244   83.25730133    2.26999998    2.78999996
   20.10639000   76.68620300    2.25000000    2.78999996
   20.10944557   79.41079712    2.28999996    2.80999994
   20.11277771   84.80690002    2.34999990    2.78999996
   20.11611176   78.69580078    2.36999989    2.80999994
   20.11916733   81.05020142    2.42000008    2.78999996
   20.12249947   82.57710266    2.50000000    2.78999996
   20.12583351   76.00959778    2.48000002    2.78999996
   20.12888908   75.65589905    2.48000002    2.78999996
   20.13222313   76.77320099    2.50000000    2.78999996
   20.13666725   76.77320099    2.48000002    2.78999996
   20.14083290   78.41799927    2.39000010    2.78999996
   20.14416695   80.76850128    2.40000010    2.78999996
   20.14722252   76.13200378    2.32999992    2.78999996
   20.15055466   76.55460358    2.30999994    2.78999996
   20.15388870   80.16719818    2.28999996    2.78999996
   20.15694427   76.53829956    2.28999996    2.78999996
   20.16027832   75.34069824    2.25000000    2.78999996
   20.16333389   79.88480377    2.28999996    2.78999996
   20.16666603   83.14959717    2.26999998    2.78999996
   20.17111015   83.14959717    2.25000000    2.78999996
   20.17527771   80.97599792    2.17000008    2.78999996
   20.17860985   80.68620300    2.11999989    2.78999996
   20.18194389   79.23899841    2.13000011    2.78999996
   20.18499947   76.59349823    2.11999989    2.78999996
   20.18833160   78.40899658    2.07999992    2.78999996
   20.19138718   77.30380249    2.05999994    2.78999996
   20.19472122   78.56099701    2.05999994    2.78999996
   20.19805527   74.11239624    2.07999992    2.78999996
   20.20111275   78.32260132    2.09999990    2.78999996
   20.20583344   78.32260132    2.11999989    2.78999996
   20.21000099   76.43930054    2.07999992    2.78999996
   20.21305656   78.42220306    2.03999996    2.78999996
   20.21638870   72.90149689    2.09999990    2.78999996
   20.21944427   78.15149689    2.17000008    2.80999994
   20.22277832   77.06870270    2.13000011    2.78999996
   20.22611237   79.57379913    2.11999989    2.78999996
   20.22916794   80.73310089    2.15000010    2.78999996
   20.23250008   75.03079987    2.21000004    2.78999996
   20.23583412   86.75099945    2.19000006    2.78999996
   20.24027824   86.75099945    2.15000010    2.78999996
   20.24444389   76.56559753    2.13000011    2.78999996
   20.24749947   76.67340088    2.15000010    2.80999994
   20.25083351   80.45950317    2.17000008    2.78999996
   20.25416756   77.13110352    2.19000006    2.76999998
   20.25722313   77.50930023    2.21000004    2.78999996
   20.26055527   79.31649780    2.21000004    2.78999996
   20.26388931   75.91570282    2.15000010    2.78999996
   20.26694489   75.02210236    2.11999989    2.78999996
   20.27027702   81.37940216    2.09999990    2.78999996
   20.27472115   81.37940216    2.07999992    2.78999996
   20.27888870   78.03690338    2.05999994    2.78999996
   20.28222275   82.91030121    2.09999990    2.78999996
   20.28527641   80.14790344    2.11999989    2.78999996
   20.28861046   78.45120239    2.13000011    2.78999996
   20.29166603   79.00830078    2.15000010    2.78999996
   20.29500008   77.68450165    2.19000006    2.78999996
   20.29833221   77.47350311    2.19000006    2.78999996
   20.30138779   79.35700226    2.21000004    2.78999996
   20.30472183   78.15930176    2.23000002    2.76999998
   20.30916595   78.15930176    2.28999996    2.76999998
   20.31333351   78.43080139    2.32999992    2.76999998
   20.31666756   76.98899841    2.36999989    2.78999996
   20.31972313   79.20140076    2.44000006    2.76999998
   20.32305717   78.29419708    2.50000000    2.76999998
   20.32638931   83.14890289    2.55999994    2.75000000
   20.32944489   76.65100098    2.64000010    2.76999998
   20.33277893   79.72599792    2.69000006    2.76999998
   20.33611107   76.40429688    2.73000002    2.76999998
   20.33916664   79.27899933    2.80999994    2.75000000
   20.34388924   79.27899933    2.89000010    2.75000000
   20.34777832   78.93560028    2.96000004    2.75000000
   20.35111237   75.79149628    3.01999998    2.75000000
   20.35444450   77.86309814    3.03999996    2.75000000
   20.35750008   76.24620056    3.05999994    2.75000000
   20.36083412   76.60179901    3.07999992    2.75000000
   20.36416626   75.47650146    3.09999990    2.75000000
   20.36722183   80.83640289    3.09999990    2.75000000
   20.37055588   88.23269653    3.07999992    2.73000002
   20.37361145   82.21189880    3.05999994    2.75000000
   20.37833405   82.21189880    2.98000002    2.75000000
   20.38249969   81.65190125    2.91000009    2.75000000
   20.38555527   80.30560303    2.84999990    2.75000000
   20.38888931   80.79299927    2.76999998    2.75000000
   20.39222145   74.82879639    2.73000002    2.75000000
   20.39527702   79.10209656    2.69000006    2.75000000
   20.39861107   79.75160217    2.71000004    2.75000000
   20.40166664   82.34279633    2.71000004    2.75000000
   20.40499878   81.70870209    2.73000002    2.76999998
   20.40833282   79.67330170    2.73000002    2.75000000
   20.41277695   79.67330170    2.78999996    2.75000000
   20.41694450   82.26760101    2.82999992    2.75000000
   20.42027664   80.11350250    2.84999990    2.75000000
   20.42333221   78.71160126    2.86999989    2.75000000
   20.42666626   79.07589722    2.91000009    2.75000000
   20.42972183   80.28189850    2.96000004    2.73000002
   20.43305397   77.29609680    2.98000002    2.75000000
   20.43638802   85.90809631    3.01999998    2.75000000
   20.43944359   79.89469910    3.03999996    2.75000000
   20.44277763   79.59709930    3.03999996    2.75000000
   20.44722176   79.59709930    3.01999998    2.75000000
   20.45138931   83.94879913    3.03999996    2.73000002
   20.45472336   79.81670380    3.03999996    2.73000002
   20.45777893   76.38400269    3.03999996    2.73000002
   20.46111107   78.48930359    3.03999996    2.75000000
   20.46444511   79.15840149    3.01999998    2.75000000
   20.46750069   84.67310333    3.01999998    2.73000002
   20.47083473   82.21499634    3.01999998    2.75000000
   20.47416687   76.34839630    3.07999992    2.75000000
   20.47722244   76.35769653    3.11999989    2.73000002
   20.48166656   76.35769653    3.18000007    2.73000002
   20.48583412   80.73429871    3.25000000    2.73000002
   20.48916626   81.91929626    3.34999990    2.73000002
   20.49250031   81.08439636    3.51999998    2.71000004
   20.49555588   77.16660309    3.59999990    2.71000004
   20.49888992   78.79329681    3.64000010    2.71000004
   20.50194359   79.56790161    3.70000005    2.71000004
   20.50527763   81.62879944    3.70000005    2.73000002
   20.50861168   78.18370056    3.68000007    2.71000004
   20.51166725   83.00689697    3.68000007    2.71000004
   20.51638794   83.00689697    3.64000010    2.71000004
   20.52055550   79.71489716    3.66000009    2.71000004
   20.52361107   79.25650024    3.72000003    2.73000002
   20.52694511   80.50800323    3.73000002    2.71000004
   20.53000069   82.82520294    3.73000002    2.71000004
   20.53333282   80.95149994    3.72000003    2.71000004
   20.53666687   81.28579712    3.68000007    2.71000004
   20.53972244   78.10240173    3.64000010    2.71000004
   20.54305458   79.17199707    3.59999990    2.73000002
   20.54638863   83.10959625    3.55999994    2.71000004
   20.55083275   83.10959625    3.59999990    2.71000004
   20.55499840   82.68240356    3.66000009    2.71000004
   20.55805397   79.63890076    3.68000007    2.71000004
   20.56138802   79.07489777    3.68000007    2.71000004
   20.56472206   80.28949738    3.72000003    2.71000004
   20.56777954   79.20210266    3.73000002    2.71000004
   20.57111168   73.95999908    3.73000002    2.69000006
   20.57444572   77.71250153    3.73000002    2.71000004
   20.57750130   74.84169769    3.75000000    2.71000004
   20.58083344   77.38330078    3.73000002    2.71000004
   20.60138893   77.38330078    4.28999996    2.69000006
   20.60555649   80.08290100    4.28999996    2.69000006
   20.60888863   79.31459808    4.30999994    2.69000006
   20.61194420   80.90899658    4.26999998    2.69000006
   20.61527824   80.41970062    4.26999998    2.69000006
   20.61833382   81.16649628    4.28999996    2.69000006
   20.62166595   80.18190002    4.26999998    2.69000006
   20.62500000   79.32070160    4.34999990    2.71000004
   20.62805557   79.72229767    4.40999985    2.69000006
   20.63138962   78.18740082    4.42999983    2.69000006
   20.63583374   78.18740082    4.40999985    2.69000006
   20.63999939   82.12960052    4.40999985    2.69000006
   20.64333344   78.26879883    4.42999983    2.69000006
   20.64638901   77.62409973    4.40999985    2.69000006
   20.64972115   78.21350098    4.44999981    2.69000006
   20.65277672   81.72750092    4.36999989    2.69000006
   20.65611076   81.82469940    4.32999992    2.69000006
   20.65944481   81.58640289    4.34999990    2.69000006
   20.66250038   75.97299957    4.34999990    2.69000006
   20.66583252   80.19450378    4.36999989    2.69000006
   20.67027664   80.19450378    4.44999981    2.69000006
   20.67444420   79.82340240    4.46999979    2.67000008
   20.67777634   84.99790192    4.46999979    2.69000006
   20.68083191   78.93820190    4.44999981    2.69000006
   20.68416595   79.53299713    4.42999983    2.69000006
   20.68750000   79.99490356    4.44999981    2.69000006
   20.69055557   78.37969971    4.51000023    2.69000006
   20.69388771   81.87200165    4.55999994    2.67000008
   20.69694328   82.33599854    4.63999987    2.69000006
   20.70027924   82.24189758    4.71999979    2.67000008
   20.70472336   82.24189758    4.80999994    2.67000008
   20.70888901   85.66400146    4.86999989    2.67000008
   20.71222305   81.99459839    4.88999987    2.67000008
   20.71555710   87.13349915    4.88999987    2.67000008
   20.71861076   83.85030365    4.86999989    2.67000008
   20.72194481   83.71779633    4.88999987    2.67000008
   20.72500038   85.36859894    4.86999989    2.66000009
   20.72833443   92.99389648    4.88999987    2.67000008
   20.73166656   88.13369751    4.84999990    2.67000008
   20.73472214   90.51820374    4.88999987    2.67000008
   20.73944473   90.51820374    4.88999987    2.67000008
   20.74361229   94.97419739    4.90999985    2.66000009
   20.74666786   93.05750275    4.90999985    2.66000009
   20.75000000   97.89450073    4.90999985    2.66000009
   20.75305557  101.63300323    4.90999985    2.67000008
   20.75638962   98.83679962    4.90999985    2.66000009
   20.75972176  102.09600067    4.90999985    2.66000009
   20.76277733  104.52999878    4.90999985    2.66000009
   20.76611137  115.09100342    4.90999985    2.67000008
   20.76944351  111.23999786    4.90999985    2.67000008
   20.77388954  111.23999786    4.90999985    2.66000009
   20.77805519  123.24500275    4.90999985    2.66000009
   20.78111076  139.66900635    4.90999985    2.66000009
   20.78444481  142.00199890    4.90999985    2.66000009
   20.78777695  154.76100159    4.90999985    2.66000009
   20.79083252  171.85600281    4.90999985    2.66000009
   20.79416656  165.56799316    4.90999985    2.66000009
   20.79749870  204.69500732    4.90999985    2.66000009
   20.80055428  179.99400330    4.90999985    2.66000009
   20.80388832  172.83000183    4.90999985    2.66000009
   20.80833244  172.83000183    4.90999985    2.66000009
   20.81250000   -1.00000000    4.90999985    2.66000009
   20.81583214   -1.00000000    4.90999985    2.66000009
   20.81888962   -1.00000000    4.90999985    2.66000009
   20.82222366   -1.00000000    4.90999985    2.66000009
   20.82527924   -1.00000000    4.90999985    2.64000010
   20.82861137   -1.00000000    4.90999985    2.64000010
   20.83194542   -1.00000000    4.90999985    2.66000009
   20.83500099   -1.00000000    4.90999985    2.64000010
   20.83833313   -1.00000000    4.90999985    2.64000010
   20.84694481   -1.00000000    4.90999985    2.64000010
   20.85027885   -1.00000000    4.90999985    2.64000010
   20.85333443   -1.00000000    4.90999985    2.64000010
   20.85666656   -1.00000000    4.90999985    2.64000010
   20.85972214   -1.00000000    4.90999985    2.64000010
   20.86305618   -1.00000000    4.90999985    2.64000010
   20.86638832   -1.00000000    4.90999985    2.61999989
   20.86944389   -1.00000000    4.90999985    2.61999989
   20.87277794   -1.00000000    4.90999985    2.61999989
   20.88138962   -1.00000000    4.90999985    2.61999989
   20.88472176   -1.00000000    4.90999985    2.61999989
   20.88777733   -1.00000000    4.90999985    2.61999989
   20.89111137   -1.00000000    4.90999985    2.61999989
   20.89444351   -1.00000000    4.90999985    2.59999990
   20.89749908   -1.00000000    4.90999985    2.59999990
   20.90083313   -1.00000000    4.90999985    2.59999990
   20.90388870   -1.00000000    4.90999985    2.59999990
   20.90722275   -1.00000000    4.90999985    2.59999990
   20.91583252   -1.00000000    4.90999985    2.59999990
   20.91916656   -1.00000000    4.90999985    2.59999990
   20.92249870   -1.00000000    4.90999985    2.59999990
   20.92555428   -1.00000000    4.90999985    2.59999990
   20.92888832   -1.00000000    4.90999985    2.59999990
   20.93194389   -1.00000000    4.90999985    2.57999992
   20.93527603   -1.00000000    4.90999985    2.57999992
   20.93861008   -1.00000000    4.90999985    2.57999992
   20.94166565   -1.00000000    4.90999985    2.57999992
   20.95055580   -1.00000000    4.90999985    2.57999992
   20.95361137   -1.00000000    4.90999985    2.55999994
   20.95694542   -1.00000000    4.90999985    2.57999992
   20.96000099   -1.00000000    4.90999985    2.55999994
   20.96333504   -1.00000000    4.90999985    2.55999994
   20.96666718   -1.00000000    4.90999985    2.55999994
   20.96972275   -1.00000000    4.90999985    2.55999994
   20.97305679   -1.00000000    4.90999985    2.55999994
   20.97638893   -1.00000000    4.90999985    2.55999994
   20.98500061   -1.00000000    4.90999985    2.55999994
   20.98805618   -1.00000000    4.90999985    2.55999994
   20.99138832   -1.00000000    4.90999985    2.55999994
   20.99472237   -1.00000000    4.90999985    2.55999994
   20.99777794   -1.00000000    4.90999985    2.55999994
   21.00111198   -1.00000000    4.90999985    2.55999994
   21.00444412   -1.00000000    4.90999985    2.57999992
   21.00749969   -1.00000000    4.90999985    2.55999994
   21.01083374   -1.00000000    4.90999985    2.57999992
   21.01944351   -1.00000000    4.90999985    2.57999992
   21.02277756   -1.00000000    4.90999985    2.57999992
   21.02583313   -1.00000000    4.90999985    2.57999992
   21.02916718   -1.00000000    4.90999985    2.55999994
   21.03249931   -1.00000000    4.90999985    2.55999994
   21.03555489   -1.00000000    4.90999985    2.55999994
   21.03888893   -1.00000000    4.90999985    2.55999994
   21.04194450   -1.00000000    4.90999985    2.55999994
   21.04527664   -1.00000000    4.90999985    2.55999994
   21.05388832   -1.00000000    4.90999985    2.55999994
   21.05722237   -1.00000000    4.90999985    2.55999994
   21.06055450   -1.00000000    4.90999985    2.55999994
   21.06361008   -1.00000000    4.90999985    2.55999994
   21.06694603   -1.00000000    4.90999985    2.55999994
   21.07000160   -1.00000000    4.90999985    2.57999992
   21.07333374   -1.00000000    4.90999985    2.57999992
   21.07666779   -1.00000000    4.90999985    2.57999992
   21.07972336   -1.00000000    4.90999985    2.57999992
   21.08833313   -1.00000000    4.90999985    2.57999992
   21.09166718   -1.00000000    4.90999985    2.57999992
   21.09500122   -1.00000000    4.90999985    2.55999994
   21.09805679   -1.00000000    4.90999985    2.53999996
   21.10138893   -1.00000000    4.90999985    2.53999996
   21.10472298   -1.00000000    4.90999985    2.55999994
   21.10777855   -1.00000000    4.90999985    2.53999996
   21.11111069   -1.00000000    4.90999985    2.53999996
   21.11416626   -1.00000000    4.90999985    2.53999996
   21.12305641   -1.00000000    4.90999985    2.53999996
   21.12611198   -1.00000000    4.90999985    2.53999996
   21.12944412   -1.00000000    4.90999985    2.53999996
   21.13277817   -1.00000000    4.90999985    2.53999996
   21.13583374   -1.00000000    4.90999985    2.51999998
   21.13916588   -1.00000000    4.90999985    2.53999996
   21.14222145   -1.00000000    4.90999985    2.51999998
   21.14555550   -1.00000000    4.90999985    2.51999998
   21.14888954   -1.00000000    4.90999985    2.51999998
   21.15749931   -1.00000000    4.90999985    2.50000000
   21.16083336   -1.00000000    4.90999985    2.50000000
   21.16388893   -1.00000000    4.90999985    2.48000002
   21.16722107   -1.00000000    4.90999985    2.48000002
   21.17027664   -1.00000000    4.90999985    2.48000002
   21.17361069   -1.00000000    4.90999985    2.48000002
   21.17694473   -1.00000000    4.90999985    2.48000002
   21.18000031   -1.00000000    4.90999985    2.48000002
   21.18333244   -1.00000000    4.90999985    2.46000004
   21.19194412   -1.00000000    4.90999985    2.46000004
   21.19527626   -1.00000000    4.90999985    2.46000004
   21.19833183   -1.00000000    4.90999985    2.46000004
   21.20166779   -1.00000000    4.90999985    2.46000004
