    HOUR (UT)   FLARE FACTOR    SKY TESTER    SUN TESTER
   11.89444447   -1.00000000   -1.00000000   -1.00000000
   12.42666721  167.27200317    1.07000005    2.05999994
   12.42972279   -1.00000000    1.05999994    2.07999992
   12.43305588   -1.00000000    1.05999994    2.07999992
   12.43638897  102.54799652    1.05999994    2.07999992
   12.45694447  172.73599243    1.03999996    2.09999990
   12.46027756  160.86199951    1.03999996    2.09999990
   12.46083355  141.86000061    1.03999996    2.09999990
   12.46388912  142.12699890    1.01999998    2.09999990
   12.46722221  169.58799744    1.01999998    2.09999990
   12.47055531  136.71299744    1.00000000    2.09999990
   12.47472191  136.71299744    1.01999998    2.11999989
   12.47888851  145.69700623    1.01999998    2.09999990
   12.48194408  144.79600525    1.00000000    2.09999990
   12.48527813  147.43400574    1.00000000    2.11999989
   12.48861122  129.53799438    1.00000000    2.11999989
   12.49166679  134.54200745    1.00000000    2.11999989
   12.49416733  127.36900330    1.00000000    2.11999989
   12.49527836  152.01699829    1.00000000    2.11999989
   12.49861145  142.72799683    1.00000000    2.11999989
   12.50166702  138.78599548    1.00000000    2.11999989
   12.50500011  140.92999268    0.98000002    2.11999989
   12.50833321  147.83799744    0.98000002    2.11999989
   12.51138878  144.81599426    0.98000002    2.13000011
   12.51749992  144.81599426    0.98000002    2.13000011
   12.52166653  145.52400208    0.98000002    2.13000011
   12.52472210  149.36599731    0.98000002    2.13000011
   12.52750015  152.10499573    0.98000002    2.13000011
   12.52833271  152.82200623    0.98000002    2.13000011
   12.53166676  143.77600098    0.98000002    2.13000011
   12.53500080  146.53700256    0.98000002    2.13000011
   12.53805637  161.03500366    0.95999998    2.13000011
   12.54138947  141.43200684    0.95999998    2.13000011
   12.54444504  155.79899597    0.95999998    2.13000011
   12.54777813  154.04299927    0.95999998    2.15000010
   12.55111122  165.87500000    0.95999998    2.15000010
   12.55416679  138.15199280    0.95999998    2.15000010
   12.56027794  138.15199280    0.95999998    2.15000010
   12.56444454  148.21499634    0.95999998    2.15000010
   12.56777763  136.67799377    0.95999998    2.15000010
   12.57083321  123.39399719    0.94000000    2.15000010
   12.57416630  138.37100220    0.94000000    2.15000010
   12.57722187  138.22700500    0.94000000    2.17000008
   12.58055592  142.68400574    0.92000002    2.17000008
   12.58388901  129.88800049    0.92000002    2.17000008
   12.58694458  151.95399475    0.92000002    2.17000008
   12.59027767  131.70500183    0.92000002    2.17000008
   12.59361076  118.10600281    0.89999998    2.17000008
   12.59527779  149.68200684    0.89999998    2.17000008
   12.59722233  147.09300232    0.89999998    2.17000008
   12.60305595  147.09300232    0.88000000    2.17000008
   12.60722256  143.43699646    0.88000000    2.17000008
   12.61055565  131.39399719    0.88000000    2.17000008
   12.61388969  135.95100403    0.86000001    2.19000006
   12.61694431  129.49699402    0.86000001    2.19000006
   12.62027836  130.69500732    0.86000001    2.21000004
   12.62361145  139.51100159    0.86000001    2.19000006
   12.62666702  133.72799683    0.86000001    2.19000006
   12.62861156  155.02900696    0.86000001    2.19000006
   12.63027763  147.37399292    0.86000001    2.19000006
   12.63361073  170.01600647    0.86000001    2.19000006
   12.63666630  145.65699768    0.86000001    2.19000006
   12.64000034  142.65499878    0.86000001    2.21000004
   12.64611053  142.65499878    0.88000000    2.19000006
   12.64999962  150.74299622    0.86000001    2.19000006
   12.65333271  157.76800537    0.86000001    2.21000004
   12.65666676  138.27099609    0.83999997    2.21000004
   12.65972137  141.81399536    0.86000001    2.21000004
   12.66222191  144.31799316    0.83999997    2.21000004
   12.66361046  144.62100220    0.83999997    2.21000004
   12.66666698  148.73699951    0.83999997    2.21000004
   12.67000008  148.29299927    0.83999997    2.21000004
   12.67305565  137.99299622    0.83999997    2.21000004
   12.67638874  160.65499878    0.83999997    2.21000004
   12.67972279  135.02200317    0.81999999    2.21000004
   12.68277836  162.95399475    0.81999999    2.23000002
   12.68888855  162.95399475    0.81999999    2.23000002
   12.69305515  135.62300110    0.81999999    2.23000002
   12.69555569  140.74299622    0.81999999    2.23000002
   12.69666672  131.20199585    0.81999999    2.23000002
   12.69972229  125.84700012    0.83999997    2.23000002
   12.70305538  130.10699463    0.81999999    2.23000002
   12.70611095  139.86099243    0.81999999    2.23000002
   12.70944405  146.02200317    0.81999999    2.23000002
   12.71277714  130.41499329    0.81999999    2.25000000
   12.71583271  128.58299255    0.80000001    2.23000002
   12.71916580  129.08500671    0.80000001    2.25000000
   12.72249985  138.69400024    0.80000001    2.23000002
   12.72555542  136.01800537    0.80000001    2.23000002
   12.73166656  136.01800537    0.79000002    2.23000002
   12.73583317  149.54100037    0.79000002    2.25000000
   12.73916721  133.42199707    0.79000002    2.25000000
   12.74222279  128.68600464    0.79000002    2.25000000
   12.74555588  134.19799805    0.79000002    2.25000000
   12.74861145  131.50300598    0.79000002    2.25000000
   12.75194454  133.50100708    0.79000002    2.25000000
   12.75527763  144.55700684    0.79000002    2.25000000
   12.75833321  138.64700317    0.79000002    2.25000000
   12.76166630  136.18600464    0.79000002    2.25000000
   12.76249981  134.76600647    0.80000001    2.26999998
   12.76527786  143.86500549    0.80000001    2.25000000
   12.76861095  135.00100708    0.79000002    2.25000000
   12.77444458  135.00100708    0.79000002    2.26999998
   12.77861118  151.12100220    0.79000002    2.25000000
   12.78194427  139.26899719    0.79000002    2.26999998
   12.78500080  133.01199341    0.79000002    2.26999998
   12.78833389  131.83799744    0.79000002    2.26999998
   12.79166698  144.25999451    0.76999998    2.26999998
   12.79472256  142.27400208    0.76999998    2.26999998
   12.79583359  147.89399719    0.76999998    2.26999998
   12.79861164  131.25900269    0.76999998    2.26999998
   12.80194473  137.01199341    0.76999998    2.26999998
   12.80500031  136.70799255    0.76999998    2.26999998
   12.80833340  151.31300354    0.76999998    2.26999998
   12.81166649  136.33000183    0.76999998    2.26999998
   12.81750011  136.33000183    0.76999998    2.26999998
   12.82138920  138.72200012    0.76999998    2.28999996
   12.82472229  129.82800293    0.76999998    2.28999996
   12.82805538  122.45400238    0.76999998    2.26999998
   12.82944393  135.69200134    0.76999998    2.26999998
   12.83166695  126.63600159    0.76999998    2.28999996
   12.83472157  114.28099823    0.76999998    2.28999996
   12.83805561  114.99500275    0.76999998    2.28999996
   12.84138870  137.21200562    0.75000000    2.28999996
   12.84444427  119.14700317    0.75000000    2.28999996
   12.84777737  138.78700256    0.75000000    2.28999996
   12.85111141  137.74400330    0.75000000    2.30999994
   12.85416698  129.27499390    0.75000000    2.30999994
   12.86027813  129.27499390    0.75000000    2.30999994
   12.86444473  126.08399963    0.75000000    2.28999996
   12.86750031  129.16600037    0.73000002    2.30999994
   12.87083340  130.78900146    0.73000002    2.30999994
   12.87416649  131.95899963    0.73000002    2.30999994
   12.87722206  140.35800171    0.70999998    2.30999994
   12.88055611  126.01699829    0.70999998    2.30999994
   12.88361073  120.05699921    0.70999998    2.30999994
   12.88694477  126.64399719    0.70999998    2.30999994
   12.89027786  121.59300232    0.70999998    2.30999994
   12.89333344  120.59600067    0.70999998    2.30999994
   12.89611053  130.12399292    0.70999998    2.32999992
   12.89722252  127.03700256    0.70999998    2.32999992
   12.90305519  127.03700256    0.70999998    2.32999992
   12.90722179  138.72500610    0.73000002    2.30999994
   12.91055489  139.44500732    0.73000002    2.30999994
   12.91361046  130.10400391    0.73000002    2.30999994
   12.91694450  135.34100342    0.70999998    2.30999994
   12.92000008  115.87200165    0.70999998    2.30999994
   12.92333412  128.38299561    0.70999998    2.32999992
   12.92666721  123.11399841    0.69000000    2.32999992
   12.92944431  119.68099976    0.70999998    2.32999992
   12.93027782  127.07499695    0.69000000    2.32999992
   12.93333340  138.58099365    0.70999998    2.32999992
   12.93666649  128.48199463    0.70999998    2.32999992
   12.94000053  126.54199982    0.70999998    2.32999992
   12.94583321  126.54199982    0.70999998    2.32999992
   12.94999981  134.32400513    0.70999998    2.32999992
   12.95333290  135.44400024    0.70999998    2.32999992
   12.95666695  128.56900024    0.70999998    2.32999992
   12.95972157  121.82199860    0.70999998    2.32999992
   12.96277714  139.15400696    0.69000000    2.32999992
   12.96361065  116.34799957    0.70999998    2.32999992
   12.96666622  117.12999725    0.69000000    2.32999992
   12.96999931  131.46000671    0.70999998    2.32999992
   12.97333336  120.42600250    0.69000000    2.32999992
   12.97638798  129.47599792    0.69000000    2.34999990
   12.97972202  132.02600098    0.69000000    2.34999990
   12.98305511  127.42099762    0.69000000    2.34999990
   12.98888874  127.42099762    0.69000000    2.34999990
   12.99277782  134.26499939    0.69000000    2.34999990
   12.99611092  124.49500275    0.70999998    2.34999990
   12.99666691  125.56700134    0.70999998    2.34999990
   12.99972248  116.87500000    0.69000000    2.34999990
   13.00305557  123.11599731    0.69000000    2.34999990
   13.00638866  123.28500366    0.69000000    2.34999990
   13.00944424  129.05000305    0.69000000    2.34999990
   13.01277733  128.68400574    0.69000000    2.34999990
   13.01611137  121.68399811    0.67000002    2.36999989
   13.01916599  118.22699738    0.67000002    2.34999990
   13.02250004  121.68699646    0.69000000    2.36999989
   13.02555561  118.49700165    0.69000000    2.34999990
   13.03166676  118.49700165    0.67000002    2.36999989
   13.03583336  125.08999634    0.69000000    2.34999990
   13.03888893  114.68499756    0.67000002    2.34999990
   13.04222298  120.00399780    0.69000000    2.36999989
   13.04555607  110.27300262    0.67000002    2.34999990
   13.04861164  113.63300323    0.67000002    2.36999989
   13.05194473  122.90799713    0.67000002    2.36999989
   13.05500031  130.28700256    0.67000002    2.36999989
   13.05833340  116.53199768    0.67000002    2.36999989
   13.06166649  131.42199707    0.69000000    2.36999989
   13.06277752  114.99099731    0.69000000    2.36999989
   13.06527805  115.41100311    0.69000000    2.36999989
   13.06861115  115.10800171    0.67000002    2.36999989
   13.07444477  115.10800171    0.67000002    2.36999989
   13.07861137  118.58899689    0.67000002    2.36999989
   13.08166695  117.68900299    0.69000000    2.36999989
   13.08500004  119.47100067    0.69000000    2.36999989
   13.08833313  118.44699860    1.07000005    2.39000010
   13.09138870  112.09200287    1.07000005    2.39000010
   13.09472179  127.29100037    0.70999998    2.39000010
   13.09611034  106.66699982    0.70999998    2.39000010
   13.09833336  116.19000244    0.69000000    2.39000010
   13.10166740  110.71800232    0.70999998    2.40000010
   13.10472298  114.06300354    0.70999998    2.39000010
   13.10805607  108.84600067    0.70999998    2.36999989
   13.11111164  116.51499939    0.70999998    2.36999989
   13.11722279  116.51499939    0.67000002    2.39000010
   13.12138939  116.43900299    0.67000002    2.39000010
   13.12472248  100.82299805    0.69000000    2.40000010
   13.12777805  108.24500275    0.69000000    2.39000010
   13.12972260  107.07700348    0.69000000    2.39000010
   13.13166714  120.91300201    0.69000000    2.39000010
   13.13472176  116.31800079    0.69000000    2.39000010
   13.13805580  111.19200134    0.69000000    2.40000010
   13.14138889  115.00399780    0.69000000    2.39000010
   13.14472198  117.53600311    0.69000000    2.39000010
   13.14777756  111.69899750    0.69000000    2.40000010
   13.15111065  108.32499695    0.67000002    2.39000010
   13.15416622  117.62799835    0.67000002    2.39000010
   13.15999985  117.62799835    0.67000002    2.40000010
   13.16416645  106.69400024    0.64999998    2.40000010
   13.16750050  105.12200165    0.64999998    2.40000010
   13.17083359  102.18399811    0.64999998    2.40000010
   13.17388916  112.03700256    0.64999998    2.40000010
   13.17722225  108.36199951    0.63000000    2.40000010
   13.18027782  115.53500366    0.63000000    2.40000010
   13.18361092  109.07299805    0.63000000    2.39000010
   13.18694496  116.91100311    0.61000001    2.40000010
   13.19000053  114.38400269    0.61000001    2.39000010
   13.19333363  112.99400330    0.63000000    2.40000010
   13.19638920  111.39499664    0.61000001    2.40000010
   13.19694424  105.00399780    0.63000000    2.40000010
   13.20305538  105.00399780    0.63000000    2.42000008
   13.20722198  100.64299774    0.63000000    2.40000010
   13.21027756  104.95899963    0.63000000    2.40000010
   13.21361065  112.61699677    0.61000001    2.40000010
   13.21666622  121.29599762    0.61000001    2.40000010
   13.21999931  116.35600281    0.61000001    2.40000010
   13.22333336  112.95700073    0.61000001    2.42000008
   13.22638798  113.43099976    0.61000001    2.42000008
   13.22972202  109.38300323    0.61000001    2.40000010
   13.23027706  100.62500000    0.61000001    2.40000010
   13.23333359  118.74099731    0.63000000    2.42000008
   13.23666668  106.57800293    0.61000001    2.42000008
   13.23972225  122.06999969    0.61000001    2.44000006
   13.24583340  122.06999969    0.58999997    2.42000008
   13.25000000  115.19799805    0.61000001    2.42000008
   13.25305557  114.05000305    0.61000001    2.42000008
   13.25638866  100.28900146    0.61000001    2.42000008
   13.25972176  104.67700195    0.61000001    2.42000008
   13.26277733  117.43499756    0.61000001    2.42000008
   13.26333332  113.84400177    0.61000001    2.42000008
   13.26666641  105.50900269    0.61000001    2.44000006
   13.26999950  110.80300140    0.61000001    2.44000006
   13.27305508  115.30400085    0.61000001    2.44000006
   13.27638817  103.79000092    0.61000001    2.44000006
   13.27972221  101.55899811    0.61000001    2.42000008
   13.28277779  102.90899658    0.61000001    2.42000008
   13.28861141  102.90899658    0.61000001    2.44000006
   13.29277802  116.90799713    0.61000001    2.42000008
   13.29611111  106.05100250    0.61000001    2.44000006
   13.29666710  110.72000122    0.61000001    2.44000006
   13.29972267  109.81500244    0.63000000    2.42000008
   13.30305576  106.34899902    0.63000000    2.44000006
   13.30611134  114.36100006    0.63000000    2.42000008
   13.30944443  105.99299622    0.63000000    2.44000006
   13.31250000  109.24700165    0.64999998    2.44000006
   13.31583309  105.65599823    0.64999998    2.42000008
   13.31916618  108.10299683    0.64999998    2.42000008
   13.32222176   98.17209625    0.67000002    2.44000006
   13.32555580  106.05599976    0.67000002    2.46000004
   13.33138847  106.05599976    0.67000002    2.44000006
   13.33555508  105.92299652    0.67000002    2.42000008
   13.33888817  110.56500244    0.67000002    2.44000006
   13.34222221  112.64299774    0.67000002    2.46000004
   13.34527779  116.01100159    0.67000002    2.44000006
   13.34861088  106.75900269    0.64999998    2.44000006
   13.35194492  110.95899963    0.64999998    2.44000006
   13.35500050  110.94200134    0.64999998    2.44000006
   13.35833359  108.78199768    0.63000000    2.46000004
   13.36138916  108.65100098    0.63000000    2.44000006
   13.36333370  102.17900085    0.63000000    2.44000006
   13.36527824  109.55899811    0.63000000    2.46000004
   13.36861134  101.20300293    0.63000000    2.46000004
   13.37444496  101.20300293    0.63000000    2.46000004
   13.37861156  108.90799713    0.63000000    2.44000006
   13.38166714  113.16000366    0.63000000    2.46000004
   13.38500023  106.16699982    0.61000001    2.46000004
   13.38805580  110.84899902    0.61000001    2.44000006
   13.39138889  109.51899719    0.61000001    2.46000004
   13.39472198  115.06199646    0.61000001    2.46000004
   13.39666653  113.04499817    0.61000001    2.44000006
   13.39833355  109.02500153    0.61000001    2.46000004
   13.40166664   94.20690155    0.61000001    2.46000004
   13.40472221  119.12699890    0.61000001    2.46000004
   13.40805531  105.14900208    0.61000001    2.46000004
   13.41111088  105.57099915    0.61000001    2.46000004
   13.41722298  105.57099915    0.61000001    2.46000004
   13.42138958  116.25399780    0.63000000    2.46000004
   13.42444515   99.92680359    0.61000001    2.46000004
   13.42777824  108.36000061    0.61000001    2.46000004
   13.43000031  114.87300110    0.63000000    2.46000004
   13.43138885  118.40899658    0.61000001    2.46000004
   13.43472195  113.39700317    0.61000001    2.46000004
   13.43777752  112.51200104    0.63000000    2.46000004
   13.44111156  102.94499969    0.63000000    2.46000004
   13.44444466   98.59919739    0.63000000    2.48000002
   13.44750023  119.60600281    0.61000001    2.46000004
   13.45083332  106.22000122    0.63000000    2.48000002
   13.45416641  105.83699799    0.61000001    2.48000002
   13.47472191  105.83699799    0.61000001    2.48000002
   13.47888851   99.76830292    0.61000001    2.46000004
   13.48222160  102.98699951    0.61000001    2.46000004
   13.48527813   99.04489899    0.61000001    2.48000002
   13.48861122  112.36499786    0.58999997    2.48000002
   13.49194431   95.47389984    0.58999997    2.48000002
   13.49499989  109.21299744    0.61000001    2.48000002
   13.49833393  105.19300079    0.61000001    2.46000004
   13.50138855  104.05999756    0.61000001    2.48000002
   13.50472260  107.39399719    0.63000000    2.48000002
   13.50555515  110.05100250    0.63000000    2.48000002
   13.50833321  110.06800079    0.63000000    2.48000002
   13.51138878  112.23500061    0.63000000    2.46000004
   13.51749992  112.23500061    0.63000000    2.48000002
   13.52166653  109.98899841    0.63000000    2.48000002
   13.52499962  105.91200256    0.61000001    2.46000004
   13.52805519  100.29199982    0.61000001    2.48000002
   13.53138828  103.93199921    0.58999997    2.48000002
   13.53444481  102.84999847    0.58999997    2.48000002
   13.53777790   96.96309662    0.58999997    2.48000002
   13.53888893  108.61299896    0.58999997    2.48000002
   13.54138947  112.36699677    0.56999999    2.48000002
   13.54444504  110.83699799    0.58999997    2.48000002
   13.54777813  103.31099701    0.56999999    2.48000002
   13.55111122   95.18930054    0.56999999    2.48000002
   13.55416679  105.10600281    0.56999999    2.50000000
   13.56027794  105.10600281    0.56999999    2.48000002
   13.56444454  105.17500305    0.55000001    2.48000002
   13.56777763  109.30999756    0.55000001    2.50000000
   13.57083321  104.75099945    0.55000001    2.50000000
   13.57250023  104.42600250    0.55000001    2.48000002
   13.57472229  108.26000214    0.52999997    2.50000000
   13.57777786  108.63500214    0.55000001    2.48000002
   13.58111095  102.88300323    0.55000001    2.50000000
   13.58416653   96.36940002    0.55000001    2.48000002
   13.58749962   88.52310181    0.55000001    2.48000002
   13.59083271  102.90399933    0.55000001    2.50000000
   13.59388828  101.26599884    0.56999999    2.48000002
   13.59722233  104.27799988    0.56999999    2.48000002
   13.60333347  104.27799988    0.56999999    2.50000000
   13.60722256   96.30650330    0.56999999    2.50000000
   13.61055565   98.68099976    0.56999999    2.50000000
   13.61388969  102.25000000    0.56999999    2.50000000
   13.61694431  102.99199677    0.56999999    2.50000000
   13.62027836   99.94339752    0.56999999    2.50000000
   13.62361145  112.83000183    0.56999999    2.50000000
   13.62666702  105.65100098    0.56999999    2.50000000
   13.63000011   99.97450256    0.58999997    2.50000000
   13.63305569  102.52500153    0.56999999    2.48000002
   13.63638878   97.60959625    0.58999997    2.50000000
   13.63916683  102.22799683    0.58999997    2.50000000
   13.64027786  101.74800110    0.58999997    2.50000000
   13.64611053  101.74800110    0.58999997    2.51999998
   13.65027714  106.55400085    0.58999997    2.51999998
   13.65333271  103.08699799    0.58999997    2.50000000
   13.65666676  103.67299652    0.58999997    2.51999998
   13.65999985   99.54389954    0.56999999    2.50000000
   13.66305542   92.82469940    0.56999999    2.50000000
   13.66638851  109.96800232    0.56999999    2.50000000
   13.66944504  104.79699707    0.56999999    2.50000000
   13.67250061  100.27400208    0.56999999    2.50000000
   13.67333412   91.58300018    0.56999999    2.50000000
   13.67638874  107.60500336    0.56999999    2.51999998
   13.67972279  104.96499634    0.56999999    2.51999998
   13.68277836   98.10389709    0.56999999    2.51999998
   13.68888855   98.10389709    0.56999999    2.50000000
   13.69305515  104.02799988    0.56999999    2.50000000
   13.69638920  101.16000366    0.56999999    2.50000000
   13.69944477   99.89749908    0.56999999    2.50000000
   13.70277786   96.51490021    0.58999997    2.51999998
   13.70583344  101.66999817    0.56999999    2.51999998
   13.70666695  100.77899933    0.56999999    2.51999998
   13.70972157  102.41799927    0.56999999    2.51999998
   13.71305561   95.72599792    0.56999999    2.51999998
   13.71638870   97.99099731    0.56999999    2.51999998
   13.71944427   99.96610260    0.56999999    2.51999998
   13.72277737   92.03469849    0.56999999    2.51999998
   13.72611046   96.31449890    0.56999999    2.51999998
   13.73166656   96.31449890    0.56999999    2.51999998
   13.73583317   98.51629639    0.56999999    2.51999998
   13.73916721   99.77919769    0.56999999    2.51999998
   13.73972225  102.23899841    0.56999999    2.51999998
   13.74277782  100.43399811    0.56999999    2.51999998
   13.74611092   96.38729858    0.56999999    2.51999998
   13.74916649  109.76499939    0.55000001    2.51999998
   13.75249958  100.06500244    0.55000001    2.51999998
   13.75583363  103.69000244    0.55000001    2.53999996
   13.75888920   87.54429626    0.55000001    2.51999998
   13.76222229   95.00029755    0.55000001    2.53999996
   13.76555538  100.74299622    0.55000001    2.53999996
   13.76861095   96.82499695    0.55000001    2.51999998
   13.77472210   96.82499695    0.55000001    2.53999996
   13.77861118   99.36299896    0.55000001    2.53999996
   13.78194427  100.57299805    0.52999997    2.53999996
   13.78527832   94.33509827    0.52999997    2.53999996
   13.78833389  101.76200104    0.52999997    2.51999998
   13.79166698  105.65299988    0.52999997    2.51999998
   13.79500008   94.37480164    0.51999998    2.51999998
   13.79805565   95.46230316    0.52999997    2.53999996
   13.80138874   95.56189728    0.51999998    2.53999996
   13.80472279  103.90599823    0.52999997    2.53999996
   13.80583382   98.62539673    0.51999998    2.53999996
   13.80833340  110.19100189    0.51999998    2.53999996
   13.81138897   91.71640015    0.52999997    2.53999996
   13.81750011   91.71640015    0.52999997    2.53999996
   13.82166672   91.51570129    0.52999997    2.53999996
   13.82472229  112.84100342    0.52999997    2.53999996
   13.82805538  104.66500092    0.52999997    2.53999996
   13.83138847  101.71299744    0.52999997    2.53999996
   13.83444405  108.37899780    0.52999997    2.53999996
   13.83777714   99.36460114    0.52999997    2.53999996
   13.83916664  102.03900146    0.55000001    2.53999996
   13.84138870  105.14900208    0.55000001    2.53999996
   13.84444427  107.69200134    0.55000001    2.53999996
   13.84777737  104.53600311    0.55000001    2.53999996
   13.85111141  113.87599945    0.55000001    2.53999996
   13.85416698  101.69100189    0.55000001    2.53999996
   13.86027813  101.69100189    0.55000001    2.53999996
   13.86444473  100.34899902    0.52999997    2.53999996
   13.86777782  102.09500122    0.52999997    2.53999996
   13.87083340  102.98500061    0.52999997    2.55999994
   13.87277794  109.16400146    0.52999997    2.53999996
   13.87444496   98.84870148    0.52999997    2.53999996
   13.87777805  104.73999786    0.52999997    2.55999994
   13.88111115  105.40399933    0.51999998    2.53999996
   13.88416672   88.19249725    0.51999998    2.55999994
   13.88749981  108.12200165    0.51999998    2.53999996
   13.89083290  112.43900299    0.51999998    2.53999996
   13.89388847   98.87740326    0.52999997    2.55999994
   13.89722252  102.12300110    0.51999998    2.53999996
   13.90305519  102.12300110    0.51999998    2.53999996
   13.90722179   95.67070007    0.52999997    2.55999994
   13.91055489  106.44599915    0.52999997    2.53999996
   13.91361046   95.27390289    0.52999997    2.53999996
   13.91694450   95.24140167    0.52999997    2.53999996
   13.92027855  108.23699951    0.52999997    2.53999996
   13.92333412  101.20300293    0.55000001    2.55999994
   13.92666721  102.01200104    0.52999997    2.53999996
   13.93000031  103.99299622    0.55000001    2.57999992
   13.93305588  108.06199646    0.55000001    2.55999994
   13.93638897  100.18299866    0.55000001    2.53999996
   13.93944454   95.66570282    0.55000001    2.55999994
   13.94000053  106.85399628    0.55000001    2.55999994
   13.94611073  106.85399628    0.55000001    2.53999996
   13.94999981  103.89600372    0.55000001    2.55999994
   13.95333290  104.46499634    0.55000001    2.55999994
   13.95666695  106.16999817    0.55000001    2.55999994
   13.95972157  102.18099976    0.55000001    2.55999994
   13.96305561  102.60399628    0.52999997    2.55999994
   13.96638870   99.09320068    0.52999997    2.55999994
   13.96944427  107.63700104    0.52999997    2.55999994
   13.97277737   97.74980164    0.52999997    2.55999994
   13.97305489  102.16500092    0.52999997    2.55999994
   13.97638798  110.03299713    0.52999997    2.53999996
   13.97972202   97.06079865    0.51999998    2.55999994
   13.98277760  101.61799622    0.52999997    2.55999994
   13.98888874  101.61799622    0.52999997    2.55999994
   13.99305534   99.37689972    0.51999998    2.55999994
   13.99611092  103.97899628    0.51999998    2.55999994
   13.99944496   94.19090271    0.52999997    2.55999994
   14.00277805  106.57399750    0.52999997    2.55999994
   14.00583363  106.87899780    0.52999997    2.55999994
   14.00638866  102.81400299    0.52999997    2.55999994
   14.00972176  101.79799652    0.52999997    2.55999994
   14.01305580   97.58489990    0.52999997    2.55999994
   14.01611137   98.12879944    0.52999997    2.55999994
   14.01944447  105.50299835    0.52999997    2.57999992
   14.02250004  100.84899902    0.52999997    2.55999994
   14.02583313  106.16400146    0.52999997    2.55999994
   14.03166676  106.16400146    0.55000001    2.55999994
   14.03583336  105.14199829    0.55000001    2.55999994
   14.03916740  101.62300110    0.55000001    2.55999994
   14.03972244  105.90299988    0.55000001    2.55999994
   14.04277802   94.41130066    0.55000001    2.57999992
   14.04611111   99.63179779    0.55000001    2.55999994
   14.04916668   97.61109924    0.55000001    2.55999994
   14.05249977   97.11090088    0.55000001    2.55999994
   14.05583382   99.98940277    0.55000001    2.55999994
   14.05888939  101.11699677    0.52999997    2.57999992
   14.06222248  108.55100250    0.52999997    2.57999992
   14.06527805  100.36599731    0.52999997    2.57999992
   14.06861115  109.75399780    0.52999997    2.55999994
   14.07444477  109.75399780    0.52999997    2.59999990
   14.07861137  103.38200378    0.52999997    2.55999994
   14.08194447   95.71600342    0.51999998    2.57999992
   14.08500004  103.16400146    0.51999998    2.57999992
   14.08833313  104.19499969    0.51999998    2.57999992
   14.09166622  102.76300049    0.51999998    2.57999992
   14.09472179  106.82499695    0.51999998    2.55999994
   14.09805489   99.90299988    0.51999998    2.57999992
   14.10138893   91.36109924    0.51999998    2.57999992
   14.10444450   98.16329956    0.51999998    2.55999994
   14.10638905   99.79679871    0.51999998    2.57999992
   14.10805607   98.25170135    0.51999998    2.57999992
   14.11138916  111.99800110    0.51999998    2.57999992
   14.11750031  111.99800110    0.51999998    2.59999990
   14.12138939  110.44699860    0.51999998    2.57999992
   14.12472248   97.12529755    0.51999998    2.57999992
   14.12805557   95.11769867    0.51999998    2.57999992
   14.13138866   93.73680115    0.51999998    2.57999992
   14.13444424  103.81900024    0.51999998    2.57999992
   14.13777733  100.21099854    0.51999998    2.57999992
   14.13972187  108.75099945    0.51999998    2.57999992
   14.14138889  105.26499939    0.51999998    2.57999992
   14.14472198  102.00299835    0.52999997    2.55999994
   14.14777756  103.27799988    0.52999997    2.57999992
   14.15111065  113.16799927    0.52999997    2.59999990
   14.15416622  103.03199768    0.55000001    2.57999992
   14.16027737  103.03199768    0.55000001    2.59999990
   14.16444397   94.24060059    0.52999997    2.55999994
   14.16750050  104.60500336    0.52999997    2.57999992
   14.17083359  108.49199677    0.51999998    2.57999992
   14.17305565  108.80500031    0.52999997    2.57999992
   14.17444515   99.25579834    0.51999998    2.57999992
   14.17777824   94.45890045    0.50000000    2.57999992
   14.18083382  110.35299683    0.50000000    2.57999992
   14.18416691   98.56330109    0.50000000    2.57999992
   14.18722248   99.74400330    0.50000000    2.57999992
   14.19055557  105.57599640    0.50000000    2.57999992
   14.19388866  102.77200317    0.50000000    2.57999992
   14.19694424  103.87300110    0.50000000    2.57999992
   14.20305538  103.87300110    0.50000000    2.57999992
   14.20722198  102.54199982    0.50000000    2.57999992
   14.21027756  103.87500000    0.50000000    2.57999992
   14.21361065  102.07299805    0.50000000    2.57999992
   14.21694374  103.51300049    0.50000000    2.59999990
   14.21999931  100.30599976    0.50000000    2.57999992
   14.22333336   92.58689880    0.50000000    2.59999990
   14.22666645  103.66600037    0.50000000    2.59999990
   14.22972202   99.73449707    0.50000000    2.57999992
   14.23305511   94.85050201    0.50000000    2.57999992
   14.23638916  102.44999695    0.50000000    2.57999992
   14.23944473  100.11900330    0.50000000    2.59999990
   14.24000072  100.18199921    0.50000000    2.57999992
   14.24583340  100.18199921    0.50000000    2.59999990
   14.25000000  119.95099640    0.50000000    2.59999990
   14.25333309  104.25099945    0.50000000    2.59999990
   14.25638866  108.76399994    0.50000000    2.59999990
   14.25972176  109.07700348    0.50000000    2.59999990
   14.26305580  105.19799805    0.50000000    2.59999990
   14.26611137  101.97399902    0.50000000    2.59999990
   14.26944447   94.36799622    0.47999999    2.59999990
   14.27250004   97.61759949    0.47999999    2.59999990
   14.27333355   91.92630005    0.47999999    2.59999990
   14.27638817  101.07599640    0.47999999    2.59999990
   14.27972221  103.82800293    0.50000000    2.59999990
   14.28277779   99.31179810    0.47999999    2.59999990
   14.28861141   99.31179810    0.47999999    2.59999990
   14.29277802  102.72699738    0.47999999    2.59999990
   14.29611111  102.54799652    0.47999999    2.59999990
   14.29944515  103.65499878    0.47999999    2.59999990
   14.30249977  104.81400299    0.47999999    2.59999990
   14.30583382  102.97200012    0.47999999    2.61999989
   14.30666733   94.63770294    0.47999999    2.61999989
   14.30944443  104.93599701    0.47999999    2.59999990
   14.31277752  105.25399780    0.47999999    2.59999990
   14.31583309   92.64969635    0.47999999    2.59999990
   14.31916618   99.35839844    0.46000001    2.59999990
   14.32222176   94.59790039    0.47999999    2.61999989
   14.32555580   97.51719666    0.46000001    2.61999989
   14.33166695   97.51719666    0.47999999    2.61999989
   14.33583260   98.18180084    0.47999999    2.59999990
   14.33888817  109.07800293    0.47999999    2.61999989
   14.34000015   95.31159973    0.47999999    2.61999989
   14.34249973   98.91770172    0.47999999    2.59999990
   14.34583282  103.86799622    0.47999999    2.61999989
   14.34888840  104.50700378    0.50000000    2.59999990
   14.35222244  100.97699738    0.50000000    2.61999989
   14.35527802  110.24800110    0.47999999    2.59999990
   14.35861111  103.92199707    0.50000000    2.59999990
   14.36194515   94.44930267    0.50000000    2.61999989
   14.36500072   97.81849670    0.50000000    2.61999989
   14.36833382  109.11100006    0.50000000    2.61999989
   14.37444496  109.11100006    0.47999999    2.59999990
   14.37861156  104.08699799    0.50000000    2.59999990
   14.38166714  100.20300293    0.47999999    2.61999989
   14.38500023   94.40859985    0.47999999    2.59999990
   14.38833332   97.12280273    0.46000001    2.59999990
   14.39138889  105.93699646    0.47999999    2.61999989
   14.39472198   97.42510223    0.47999999    2.61999989
   14.39805508  102.18900299    0.47999999    2.59999990
   14.40111065   96.89869690    0.46000001    2.61999989
   14.40444374  108.60099792    0.47999999    2.61999989
   14.40666676  106.10099792    0.47999999    2.61999989
   14.40805531  107.34999847    0.47999999    2.61999989
   14.41138840  109.59300232    0.46000001    2.59999990
   14.41722298  109.59300232    0.46000001    2.59999990
   14.42138958  101.02200317    0.46000001    2.61999989
   14.42472267  106.80200195    0.46000001    2.61999989
   14.42777824   99.47720337    0.46000001    2.61999989
   14.43111134   98.10050201    0.46000001    2.61999989
   14.43444443  102.67600250    0.46000001    2.61999989
   14.43750000  105.77500153    0.46000001    2.64000010
   14.44000053  101.32099915    0.46000001    2.61999989
   14.44111156  102.04299927    0.46000001    2.61999989
   14.44444466  101.28199768    0.46000001    2.61999989
   14.44750023   93.35610199    0.46000001    2.61999989
   14.45083332  105.08399963    0.46000001    2.61999989
   14.45388889  104.19200134    0.46000001    2.61999989
   14.46000004  104.19200134    0.44000000    2.61999989
   14.46416664  109.87999725    0.44000000    2.61999989
   14.46749973  102.87799835    0.46000001    2.61999989
   14.47083282  102.63200378    0.44000000    2.61999989
   14.48833370  105.05899811    0.46000001    2.61999989
   14.49083328  110.03500366    0.46000001    2.61999989
   14.49388885  115.31099701    0.46000001    2.61999989
   14.49722290  101.48200226    0.46000001    2.61999989
   14.50305557  101.48200226    0.46000001    2.61999989
   14.50722218  103.60500336    0.46000001    2.61999989
   14.51055527  102.43399811    0.46000001    2.61999989
   14.51388931   99.86679840    0.46000001    2.61999989
   14.51694393  106.62899780    0.46000001    2.61999989
   14.52027798  108.78600311    0.46000001    2.64000010
   14.52166653  106.37799835    0.47999999    2.61999989
   14.52388859  108.85299683    0.47999999    2.61999989
   14.52722168  110.51499939    0.46000001    2.61999989
   14.53055573  113.77300262    0.46000001    2.64000010
   14.53361130  101.34999847    0.47999999    2.64000010
   14.53694534  107.67299652    0.46000001    2.61999989
   14.54000092  104.75599670    0.46000001    2.64000010
   14.54611111  104.75599670    0.47999999    2.61999989
   14.55000019  101.21299744    0.47999999    2.61999989
   14.55333328  111.33799744    0.47999999    2.61999989
   14.55500031  108.13999939    0.46000001    2.61999989
   14.55694485   97.85399628    0.46000001    2.61999989
   14.56027794  105.18299866    0.47999999    2.61999989
   14.56361103  104.17099762    0.47999999    2.61999989
   14.56666660  100.82399750    0.47999999    2.64000010
   14.56999969  107.89900208    0.47999999    2.61999989
   14.57333374  104.74900055    0.47999999    2.61999989
   14.57638836  103.66100311    0.47999999    2.61999989
   14.57972240   98.65470123    0.47999999    2.61999989
   14.58277798   95.83959961    0.46000001    2.61999989
   14.58888817   95.83959961    0.46000001    2.61999989
   14.59305477   95.56520081    0.44000000    2.61999989
   14.59611034  101.06700134    0.44000000    2.61999989
   14.59944439   96.99289703    0.46000001    2.64000010
   14.60277843   94.11699677    0.46000001    2.64000010
   14.60583401  100.20899963    0.44000000    2.64000010
   14.60916710  105.40299988    0.44000000    2.61999989
   14.61222267  102.64399719    0.44000000    2.64000010
   14.61555576   99.23439789    0.44000000    2.61999989
   14.61888885  108.70600128    0.44000000    2.64000010
   14.62166691   99.80339813    0.44000000    2.64000010
   14.62222195  105.46499634    0.44000000    2.64000010
   14.62555599  102.14600372    0.44000000    2.61999989
   14.63166714  102.14600372    0.44000000    2.64000010
   14.63583279  103.12699890    0.44000000    2.61999989
   14.63916683   98.02649689    0.44000000    2.64000010
   14.64222240  106.26200104    0.44000000    2.61999989
   14.64555550  104.61199951    0.44000000    2.61999989
   14.64861107   99.15750122    0.44000000    2.61999989
   14.65194416  101.82099915    0.44000000    2.64000010
   14.65499973   99.09449768    0.44000000    2.64000010
   14.65583324  103.12899780    0.44000000    2.61999989
   14.65888882   99.69519806    0.46000001    2.64000010
   14.66222191  100.47599792    0.46000001    2.64000010
   14.66527748   95.14720154    0.46000001    2.64000010
   14.66861153  100.45999908    0.47999999    2.64000010
   14.67444515  100.45999908    0.46000001    2.64000010
   14.67861176  105.85600281    0.46000001    2.64000010
   14.68194485  105.02300262    0.46000001    2.64000010
   14.68527794  103.18699646    0.47999999    2.64000010
   14.68833351  104.06300354    0.47999999    2.61999989
   14.68861103  106.73200226    0.47999999    2.61999989
   14.69194412  103.70400238    0.47999999    2.64000010
   14.69527817  106.84400177    0.47999999    2.64000010
   14.69833374  101.48300171    0.50000000    2.64000010
   14.70166683   97.20249939    0.47999999    2.64000010
   14.70472240  100.37699890    0.50000000    2.64000010
   14.70805550   98.93589783    0.50000000    2.64000010
   14.71138859  102.45999908    0.50000000    2.64000010
   14.71749973  102.45999908    0.47999999    2.61999989
   14.72166634   97.64929962    0.47999999    2.61999989
   14.72194386   96.91529846    0.47999999    2.64000010
   14.72527695   91.78610229    0.47999999    2.64000010
   14.72861099   95.22129822    0.47999999    2.64000010
   14.73166656   98.33010101    0.47999999    2.64000010
   14.73500061   92.42009735    0.46000001    2.64000010
   14.73805618   90.79769897    0.46000001    2.64000010
   14.74138927   90.86270142    0.46000001    2.64000010
   14.74472237   95.30049896    0.46000001    2.64000010
   14.74777794   98.11250305    0.44000000    2.64000010
   14.75111103   92.83499908    0.44000000    2.64000010
   14.75444412   93.21649933    0.46000001    2.64000010
   14.75500011   99.59149933    0.46000001    2.64000010
   14.76027775   99.59149933    0.46000001    2.64000010
   14.76444435   95.86090088    0.46000001    2.64000010
   14.76749992   98.83689880    0.46000001    2.66000009
   14.77083302   94.01039886    0.46000001    2.64000010
   14.77416611   94.75340271    0.46000001    2.66000009
   14.77722168   95.97609711    0.46000001    2.64000010
   14.78055573   90.51979828    0.44000000    2.64000010
   14.78361130   99.38829803    0.44000000    2.64000010
   14.78694534  100.96199799    0.44000000    2.66000009
   14.78833389   93.90180206    0.44000000    2.66000009
   14.79055595   98.51119995    0.46000001    2.64000010
   14.79388905   99.16049957    0.46000001    2.61999989
   14.79722309   94.49289703    0.46000001    2.66000009
   14.80305576   94.49289703    0.46000001    2.64000010
   14.80722237   96.22730255    0.46000001    2.66000009
   14.81055546   97.17379761    0.47999999    2.67000008
   14.81361103   99.60350037    0.46000001    2.64000010
   14.81694412   94.79850006    0.46000001    2.66000009
   14.81999969   92.14730072    0.46000001    2.64000010
   14.82166672   90.36239624    0.46000001    2.64000010
   14.82361126   93.75199890    0.47999999    2.66000009
   14.82694435   85.98159790    0.46000001    2.64000010
   14.83027744   89.67099762    0.46000001    2.66000009
   14.83333302   96.93170166    0.47999999    2.64000010
   14.83666611   97.25080109    0.47999999    2.64000010
   14.84000015  100.67500305    0.47999999    2.64000010
   14.84583282  100.67500305    0.46000001    2.64000010
   14.85000038   98.20480347    0.46000001    2.64000010
   14.85333347   98.87480164    0.46000001    2.64000010
   14.85500050   98.56210327    0.46000001    2.66000009
   14.85666752   98.40219879    0.44000000    2.66000009
   14.86000061  100.40699768    0.44000000    2.66000009
   14.86333370   98.81410217    0.44000000    2.66000009
   14.86638927  111.19699860    0.44000000    2.64000010
   14.86972237  100.47799683    0.44000000    2.64000010
   14.87305546  106.59799957    0.44000000    2.64000010
   14.87611103   91.23269653    0.44000000    2.64000010
   14.87944412   96.33319855    0.44000000    2.66000009
   14.88249969   88.06680298    0.44000000    2.66000009
   14.88888836   88.06680298    0.44000000    2.66000009
   14.89305496  105.50399780    0.44000000    2.66000009
   14.89611053   93.28330231    0.46000001    2.64000010
   14.89944458   97.49870300    0.47999999    2.64000010
   14.90249920   94.73919678    0.47999999    2.64000010
   14.90583324   97.21389771    0.46000001    2.64000010
   14.90916634   92.25289917    0.47999999    2.64000010
   14.91222191  106.33699799    0.47999999    2.64000010
   14.91555500   96.21199799    0.47999999    2.64000010
   14.91888905   99.61969757    0.47999999    2.66000009
   14.92166710   79.99859619    0.47999999    2.64000010
   14.92222214   92.84210205    0.47999999    2.64000010
   14.92555618   91.40589905    0.47999999    2.66000009
   14.93166733   91.40589905    0.47999999    2.66000009
   14.93583298   88.89340210    0.47999999    2.66000009
   14.93888855   99.96769714    0.47999999    2.66000009
   14.94222260  100.15699768    0.50000000    2.66000009
   14.94555569   90.50740051    0.47999999    2.66000009
   14.94861126   99.50720215    0.50000000    2.66000009
   14.95194435   92.92720032    0.47999999    2.66000009
   14.95499992   84.44760132    0.50000000    2.66000009
   14.95527744   95.42690277    0.50000000    2.66000009
   14.95861053  104.12500000    0.50000000    2.64000010
   14.96194458   98.32890320    0.50000000    2.66000009
   14.96500015   94.00270081    0.47999999    2.66000009
   14.96833324   96.23970032    0.47999999    2.66000009
   14.97444439   96.23970032    0.47999999    2.66000009
   14.97861099   90.02169800    0.47999999    2.66000009
   14.98194408   96.77279663    0.47999999    2.64000010
   14.98500061   94.22319794    0.47999999    2.64000010
   14.98833370   89.42430115    0.47999999    2.66000009
   14.98861122   89.60939789    0.47999999    2.66000009
   14.99194431   98.18949890    0.47999999    2.66000009
   14.99527836   89.09970093    0.47999999    2.66000009
   14.99833393   96.19300079    0.47999999    2.66000009
   15.00166702  102.10099792    0.47999999    2.66000009
   15.00500011   98.72740173    0.47999999    2.66000009
   15.00805569   96.10469818    0.47999999    2.66000009
   15.01138878   94.98819733    0.47999999    2.67000008
   15.01722240   94.98819733    0.47999999    2.64000010
   15.02138901   97.27880096    0.47999999    2.66000009
   15.02194405   98.53949738    0.47999999    2.66000009
   15.02527714  102.74700165    0.47999999    2.66000009
   15.02833271   97.10769653    0.47999999    2.66000009
   15.03166676   93.49960327    0.47999999    2.66000009
   15.03500080   94.34449768    0.47999999    2.66000009
   15.03805637   99.92559814    0.47999999    2.66000009
   15.04138947   92.15370178    0.47999999    2.66000009
   15.04472256   92.37120056    0.47999999    2.67000008
   15.04777813   98.21179962    0.47999999    2.67000008
   15.05111122   97.82330322    0.50000000    2.66000009
   15.05416679   94.50180054    0.50000000    2.66000009
   15.05527782   85.59860229    0.50000000    2.66000009
   15.06027794   85.59860229    0.47999999    2.66000009
   15.06416702   95.62660217    0.47999999    2.66000009
   15.06750011   99.48560333    0.47999999    2.66000009
   15.07083321   95.78099823    0.47999999    2.66000009
   15.07388878   86.94190216    0.47999999    2.67000008
   15.07722187   95.93199921    0.47999999    2.67000008
   15.08055592   98.76260376    0.47999999    2.67000008
   15.08388901   88.31089783    0.47999999    2.66000009
   15.08694458  100.49199677    0.47999999    2.66000009
   15.08861065   92.66359711    0.47999999    2.66000009
   15.09083271   95.78130341    0.47999999    2.66000009
   15.09388828   85.64649963    0.47999999    2.66000009
   15.09722233   92.28050232    0.47999999    2.66000009
   15.10305595   92.28050232    0.50000000    2.66000009
   15.10722256  100.03399658    0.50000000    2.66000009
   15.11027813   91.11370087    0.47999999    2.67000008
   15.11361122   97.89109802    0.47999999    2.67000008
   15.11694431  101.28600311    0.47999999    2.66000009
   15.11999989   95.66670227    0.47999999    2.67000008
   15.12194443   95.90360260    0.46000001    2.66000009
   15.12388897   98.13059998    0.47999999    2.66000009
   15.12694454   89.66889954    0.46000001    2.66000009
   15.13027763   97.52690125    0.47999999    2.66000009
   15.13361073   91.03569794    0.47999999    2.66000009
   15.13666630   94.27719879    0.47999999    2.67000008
   15.14000034   88.06310272    0.47999999    2.66000009
   15.14583302   88.06310272    0.47999999    2.66000009
   15.14999962   88.83039856    0.47999999    2.66000009
   15.25361156   -1.00000000   -1.00000000   -1.00000000
   15.43722248   -1.00000000   -1.00000000   -1.00000000
   15.68777752   -1.00000000   -1.00000000   -1.00000000
   15.87888908   71.25209808    0.47999999    2.67000008
   15.88194466   95.83380127    0.47999999    2.69000006
   15.88527775   97.25689697    0.46000001    2.67000008
   15.88861084  108.69200134    0.46000001    2.67000008
   15.89166641   96.63680267    0.46000001    2.69000006
   15.89499950  109.15699768    0.46000001    2.69000006
   15.89916611  109.15699768    0.46000001    2.69000006
   15.90333271   99.41819763    0.46000001    2.69000006
   15.90638828   95.96050262    0.46000001    2.67000008
   15.90972137  104.23300171    0.44000000    2.69000006
   15.91222191   92.27919769    0.46000001    2.69000006
   15.91333294   95.76480103    0.46000001    2.69000006
   15.91666698   90.61090088    0.44000000    2.69000006
   15.92000008   95.67009735    0.46000001    2.69000006
   15.92305565   90.32689667    0.46000001    2.69000006
   15.92638874   97.66739655    0.46000001    2.69000006
   15.92972279   94.20729828    0.46000001    2.67000008
   15.93277836   94.87400055    0.46000001    2.67000008
   15.93611145   99.54239655    0.46000001    2.69000006
   15.94194412   99.54239655    0.46000001    2.71000004
   15.94611073   92.01509857    0.46000001    2.69000006
   15.94944477   93.02960205    0.44000000    2.69000006
   15.95249939   95.28500366    0.46000001    2.69000006
   15.95583344   84.00389862    0.46000001    2.69000006
   15.95888901   90.38300323    0.44000000    2.69000006
   15.96222210   96.19229889    0.46000001    2.69000006
   15.96555519   94.74530029    0.46000001    2.69000006
   15.96861076  103.20500183    0.47999999    2.69000006
   15.97194386   99.43070221    0.46000001    2.69000006
   15.97527695   98.16829681    0.46000001    2.67000008
   15.97833252   90.09200287    0.46000001    2.69000006
   15.97888851   93.56420135    0.46000001    2.69000006
   15.98472214   93.56420135    0.47999999    2.67000008
   15.98888874   96.64299774    0.47999999    2.69000006
   15.99222279   95.10089874    0.46000001    2.67000008
   15.99527836   95.55169678    0.47999999    2.69000006
   15.99861145   96.52169800    0.47999999    2.69000006
   16.00194359   95.47720337    0.47999999    2.69000006
   16.00499916  103.34300232    0.50000000    2.67000008
   16.00833321  103.51799774    0.50000000    2.69000006
   16.01166725  105.16100311    0.47999999    2.69000006
   16.01222229  102.83300018    0.47999999    2.69000006
   16.01527786   96.18589783    0.47999999    2.69000006
   16.01833344  102.25099945    0.47999999    2.69000006
   16.02166557  100.82199860    0.47999999    2.69000006
   16.02777672  100.82199860    0.47999999    2.67000008
   16.03166580   97.01349640    0.47999999    2.69000006
   16.03499985   91.59970093    0.47999999    2.69000006
   16.03833199   95.41110229    0.47999999    2.69000006
   16.04138756  103.25700378    0.47999999    2.69000006
   16.04472160   97.12069702    0.47999999    2.67000008
   16.04555511   94.89640045    0.47999999    2.67000008
   16.04833221   97.32790375    0.47999999    2.69000006
   16.05138779  106.87500000    0.46000001    2.69000006
   16.05472183  100.16100311    0.46000001    2.69000006
   16.05805397   94.20040131    0.47999999    2.69000006
   16.06110954   95.64309692    0.47999999    2.69000006
   16.06444359   91.29759979    0.47999999    2.69000006
   16.07055664   91.29759979    0.47999999    2.69000006
   16.07472229   90.15809631    0.50000000    2.69000006
   16.07777786   90.87819672    0.50000000    2.69000006
   16.07888985  102.59300232    0.50000000    2.69000006
   16.08166695   96.76640320    0.50000000    2.69000006
   16.08472252   96.82749939    0.50000000    2.69000006
   16.08805656   99.63449860    0.47999999    2.69000006
   16.09138870   94.58429718    0.50000000    2.69000006
   16.09444427   94.83519745    0.50000000    2.69000006
   16.09777832   92.50640106    0.50000000    2.67000008
   16.10111237   95.08699799    0.50000000    2.69000006
   16.10416794  102.37999725    0.51999998    2.69000006
   16.10750008   89.49890137    0.51999998    2.69000006
   16.11333466   89.49890137    0.50000000    2.69000006
   16.11750031   95.35130310    0.51999998    2.67000008
   16.12083435   90.33740234    0.51999998    2.69000006
   16.12388992  103.51699829    0.51999998    2.69000006
   16.12722206   90.97219849    0.51999998    2.69000006
   16.13027763   94.10569763    0.51999998    2.69000006
   16.13361168   94.25279999    0.51999998    2.69000006
   16.13694382   88.72560120    0.51999998    2.69000006
   16.13999939   88.88410187    0.51999998    2.67000008
   16.14333344   95.05799866    0.51999998    2.67000008
   16.14555550   87.17990112    0.51999998    2.69000006
   16.14694405   93.86930084    0.51999998    2.69000006
   16.14999962   98.96040344    0.51999998    2.69000006
   16.15611076   98.96040344    0.52999997    2.69000006
   16.16027832   88.83560181    0.52999997    2.67000008
   16.16361046   92.98259735    0.52999997    2.69000006
   16.16666603  103.87000275    0.52999997    2.69000006
   16.17000008   99.43589783    0.52999997    2.69000006
   16.17333221  105.44300079    0.51999998    2.69000006
   16.17638779   97.24299622    0.52999997    2.69000006
   16.17888832  101.87799835    0.51999998    2.69000006
   16.18027687   91.79789734    0.52999997    2.69000006
   16.18333244  101.37400055    0.52999997    2.67000008
   16.18666649   97.74859619    0.51999998    2.69000006
   16.18999863   94.42700195    0.51999998    2.69000006
   16.19305420   88.72859955    0.51999998    2.67000008
   16.19916534   88.72859955    0.51999998    2.67000008
   16.20305634   92.57450104    0.47999999    2.69000006
   16.20639038   92.23709869    0.47999999    2.69000006
   16.20972252   94.30159760    0.47999999    2.69000006
   16.21222305   95.89830017    0.47999999    2.69000006
   16.21333504   92.97589874    0.46000001    2.69000006
   16.21638870   91.08589935    0.47999999    2.69000006
   16.21972275   98.75930023    0.47999999    2.69000006
   16.22305679   93.47799683    0.50000000    2.69000006
   16.22638893   83.06259918    0.50000000    2.69000006
   16.22944450   93.35870361    0.50000000    2.71000004
   16.23277855   85.59380341    0.51999998    2.69000006
   16.23611069   91.37480164    0.51999998    2.69000006
   16.24194527   91.37480164    0.51999998    2.69000006
   16.24611092   90.37750244    0.51999998    2.69000006
   16.24916649   93.66220093    0.50000000    2.69000006
   16.25250053   90.84819794    0.50000000    2.69000006
   16.25583267   93.62640381    0.47999999    2.69000006
   16.25888824   95.79139709    0.46000001    2.69000006
   16.26222229   98.91230011    0.46000001    2.69000006
   16.26527786   95.77649689    0.46000001    2.69000006
   16.26861000   92.84639740    0.47999999    2.67000008
   16.27194405   99.29949951    0.47999999    2.69000006
   16.27499962   88.01820374    0.47999999    2.69000006
   16.27833366   95.77619934    0.47999999    2.69000006
   16.27888870   97.25009918    0.47999999    2.69000006
   16.28472137   97.25009918    0.46000001    2.67000008
   16.28888893   92.88480377    0.46000001    2.69000006
   16.29222107   97.46929932    0.46000001    2.69000006
   16.29527664   94.13469696    0.47999999    2.69000006
   16.29861069   97.30580139    0.47999999    2.69000006
   16.30166626   96.60399628    0.47999999    2.69000006
   16.30499840   97.06629944    0.46000001    2.69000006
   16.30833244   98.14550018    0.47999999    2.69000006
   16.31138802  110.08200073    0.47999999    2.69000006
   16.31222153   93.34190369    0.47999999    2.71000004
   16.31499863  105.98000336    0.47999999    2.67000008
   16.31833458   98.34329987    0.47999999    2.69000006
   16.32139015   87.16999817    0.47999999    2.69000006
   16.32777786   87.16999817    0.50000000    2.69000006
   16.33166695   85.95059967    0.47999999    2.69000006
   16.33500099  102.41699982    0.47999999    2.69000006
   16.33833313   92.98320007    0.47999999    2.69000006
   16.34138870   90.15080261    0.47999999    2.67000008
   16.34472275   92.79959869    0.47999999    2.69000006
   16.34555626   92.99790192    0.47999999    2.67000008
   16.34833336   91.47619629    0.47999999    2.69000006
   16.35166740   87.95539856    0.47999999    2.71000004
   16.35472298   90.54969788    0.46000001    2.69000006
   16.35805511   88.01599884    0.46000001    2.69000006
   16.36111069   97.45339966    0.46000001    2.69000006
   16.36444473   99.97239685    0.47999999    2.69000006
   16.37055588   99.97239685    0.46000001    2.71000004
   16.37444496   94.16609955    0.46000001    2.71000004
   16.37777710   94.02809906    0.46000001    2.69000006
   16.37888908   88.84700012    0.46000001    2.71000004
   16.38138962   83.54100037    0.46000001    2.69000006
   16.38472176   93.49710083    0.46000001    2.69000006
   16.38777733   94.48680115    0.44000000    2.71000004
   16.39111137   99.13300323    0.46000001    2.69000006
   16.39416695   94.61589813    0.46000001    2.69000006
   16.39749908   96.80130005    0.47999999    2.69000006
   16.40083313   96.81040192    0.47999999    2.69000006
   16.40388870  103.01599884    0.47999999    2.69000006
   16.40722275  102.72200012    0.47999999    2.69000006
   16.41333389  102.72200012    0.47999999    2.69000006
   16.41749954   92.53919983    0.47999999    2.69000006
   16.42055511  102.00000000    0.47999999    2.69000006
   16.42388916   91.60900116    0.50000000    2.69000006
   16.42722130  104.58200073    0.50000000    2.69000006
   16.43027687   96.26249695    0.47999999    2.69000006
   16.43361092   94.43289948    0.47999999    2.69000006
   16.43694305   97.20059967    0.47999999    2.69000006
   16.43999863   97.11579895    0.47999999    2.69000006
   16.44333267   99.00479889    0.47999999    2.69000006
   16.44555473   98.93009949    0.47999999    2.69000006
   16.44694328  101.38999939    0.47999999    2.69000006
   16.45027924  103.15699768    0.47999999    2.71000004
   16.45611191  103.15699768    0.50000000    2.69000006
   16.46027946  116.60500336    0.47999999    2.69000006
   16.46361160  106.42299652    0.47999999    2.69000006
   16.46666718  102.99700165    0.47999999    2.69000006
   16.47000122  101.10900116    0.47999999    2.69000006
   16.47305679  108.10199738    0.50000000    2.69000006
   16.47638893  100.52500153    0.50000000    2.71000004
   16.47888947  105.22799683    0.50000000    2.69000006
   16.48000145  102.53900146    0.50000000    2.69000006
   16.48333359  109.87599945    0.50000000    2.69000006
   16.48638916  102.31199646    0.47999999    2.69000006
   16.48972321  108.14800262    0.47999999    2.69000006
   16.49277878  102.20500183    0.50000000    2.69000006
   16.49888992  102.20500183    0.50000000    2.69000006
   16.50305557  105.56300354    0.50000000    2.69000006
   16.50638962  106.13800049    0.50000000    2.69000006
   16.50944519  100.61699677    0.50000000    2.69000006
   16.51222229  104.32499695    0.50000000    2.69000006
   16.51333427  110.09500122    0.50000000    2.71000004
   16.51666641  101.10299683    0.50000000    2.71000004
   16.51972198   92.18119812    0.50000000    2.69000006
   16.52305603   97.95520020    0.51999998    2.69000006
   16.52611160  105.80999756    0.50000000    2.71000004
   16.52944374  103.25900269    0.50000000    2.69000006
   16.53277779   92.09320068    0.50000000    2.69000006
   16.53583336  104.00900269    0.47999999    2.69000006
   16.54194450  104.00900269    0.50000000    2.71000004
   16.54583359  103.24800110    0.50000000    2.69000006
   16.54916573  115.94899750    0.50000000    2.69000006
   16.55249977  113.58899689    0.51999998    2.69000006
   16.55555534   97.77429962    0.51999998    2.69000006
   16.55888748  109.54599762    0.51999998    2.69000006
   16.56222153  106.27400208    0.51999998    2.69000006
   16.56527710  103.11799622    0.50000000    2.69000006
   16.56861115  108.24299622    0.50000000    2.69000006
   16.57166672   98.52349854    0.50000000    2.69000006
   16.57500076  105.89399719    0.50000000    2.69000006
   16.57833481  106.63200378    0.50000000    2.69000006
   16.57916832   94.90059662    0.50000000    2.67000008
   16.58472252   94.90059662    0.50000000    2.69000006
   16.58889008   95.84909821    0.50000000    2.71000004
   16.59194565   98.32469940    0.47999999    2.71000004
   16.59527779  101.03199768    0.50000000    2.69000006
   16.59861183  103.12000275    0.50000000    2.69000006
   16.60166740  106.23999786    0.50000000    2.69000006
   16.60499954   97.13870239    0.50000000    2.69000006
   16.60833359  102.13600159    0.50000000    2.69000006
   16.61138916   99.82160187    0.50000000    2.69000006
   16.61222267   94.28739929    0.50000000    2.69000006
   16.61499977  102.36000061    0.50000000    2.69000006
   16.61833382  108.29399872    0.50000000    2.69000006
   16.62138939   85.87200165    0.50000000    2.69000006
   16.62750053   85.87200165    0.47999999    2.69000006
   16.63166618   90.03649902    0.47999999    2.69000006
   16.63500023   98.98429871    0.47999999    2.69000006
   16.63805580   90.29380035    0.50000000    2.67000008
   16.64138794   94.20050049    0.50000000    2.69000006
   16.64444351   96.29419708    0.51999998    2.69000006
   16.64583397   90.00839996    0.51999998    2.69000006
   16.64805603   99.02839661    0.51999998    2.71000004
   16.65138817   96.49479675    0.51999998    2.69000006
   16.65444374  100.23400116    0.51999998    2.69000006
   16.65777779  100.98799896    0.51999998    2.69000006
   16.66110992   94.66130066    0.50000000    2.69000006
   16.66416550  101.07900238    0.50000000    2.69000006
   16.67027664  101.07900238    0.47999999    2.69000006
   16.67444420   88.24459839    0.47999999    2.69000006
   16.67777634   94.36399841    0.47999999    2.69000006
   16.67888832   87.28790283    0.47999999    2.69000006
   16.68138885   84.91960144    0.47999999    2.69000006
   16.68472099   93.64810181    0.47999999    2.69000006
   16.68777657   91.10269928    0.47999999    2.71000004
   16.69111061   83.68450165    0.46000001    2.71000004
   16.69444275   91.02519989    0.46000001    2.71000004
   16.69749832   91.89270020    0.47999999    2.69000006
   16.70083427   95.31719971    0.47999999    2.71000004
   16.70388985   78.89550018    0.50000000    2.69000006
   16.70722389   93.86969757    0.47999999    2.69000006
   16.71333504   93.86969757    0.50000000    2.69000006
   16.71722221   93.94290161    0.50000000    2.69000006
   16.72055626   98.07319641    0.50000000    2.71000004
   16.72389030   91.25199890    0.50000000    2.71000004
   16.72694588  101.45899963    0.50000000    2.69000006
   16.73027802   80.23840332    0.50000000    2.69000006
   16.73361206   83.12419891    0.50000000    2.69000006
   16.73694420   94.91539764    0.50000000    2.67000008
   16.73999977  102.99600220    0.50000000    2.69000006
   16.74333382   89.65689850    0.50000000    2.69000006
   16.74555588   96.77310181    0.51999998    2.69000006
   16.74694443   95.69730377    0.51999998    2.69000006
   16.75027847  100.15299988    0.50000000    2.69000006
   16.75611115  100.15299988    0.51999998    2.71000004
   16.76027870   97.66809845    0.51999998    2.69000006
   16.76333427   95.38179779    0.50000000    2.69000006
   16.76666641   98.58350372    0.51999998    2.69000006
   16.77000046   90.81479645    0.50000000    2.69000006
   16.77305603   85.38559723    0.51999998    2.69000006
   16.77638817   86.36150360    0.51999998    2.69000006
   16.77916718   92.65560150    0.50000000    2.69000006
   16.78000069   83.59470367    0.50000000    2.69000006
   16.78333282   85.80729675    0.50000000    2.69000006
   16.78638840   87.00789642    0.51999998    2.71000004
   16.78972244   91.23139954    0.51999998    2.69000006
   16.79305458   86.24079895    0.51999998    2.69000006
   16.79888916   86.24079895    0.51999998    2.69000006
   16.80305481   92.53589630    0.51999998    2.69000006
   16.80638885   93.75700378    0.52999997    2.69000006
   16.80944443   92.25279999    0.51999998    2.69000006
   16.81250000   85.84980011    0.51999998    2.69000006
   16.81305504   91.71389771    0.51999998    2.69000006
   16.81638718   90.78019714    0.52999997    2.69000006
   16.81944466   96.86920166    0.55000001    2.69000006
   16.82277870   96.86209869    0.55000001    2.69000006
   16.82611275   90.73580170    0.55000001    2.69000006
   16.82916832   92.01799774    0.56999999    2.69000006
   16.83250046   86.60749817    0.56999999    2.69000006
   16.83583450   86.31479645    0.55000001    2.67000008
   16.84166718   86.31479645    0.55000001    2.69000006
   16.84583473   88.40869904    0.55000001    2.69000006
   16.84916687   84.87640381    0.55000001    2.69000006
   16.85222244   87.65589905    0.55000001    2.69000006
   16.85555649   95.45369720    0.55000001    2.69000006
   16.85888863   94.22129822    0.55000001    2.69000006
   16.86194420   99.55809784    0.55000001    2.71000004
   16.86527824   92.46839905    0.52999997    2.69000006
   16.86861038   89.43579865    0.52999997    2.69000006
   16.87166595   87.26110077    0.55000001    2.69000006
   16.87500000   86.23259735    0.55000001    2.69000006
   16.87805557   85.11160278    0.55000001    2.69000006
   16.87916756   85.36239624    0.55000001    2.69000006
   16.89972115   85.36239624    0.58999997    2.69000006
   16.90388870   96.76000214    0.58999997    2.69000006
   16.90694427   87.11009979    0.56999999    2.69000006
   16.91027832   96.52649689    0.56999999    2.69000006
   16.91250038   92.55629730    0.55000001    2.69000006
   16.91388893   84.34889984    0.55000001    2.69000006
   16.91722107   88.99759674    0.55000001    2.69000006
   16.92055511   89.38249969    0.55000001    2.69000006
   16.92361069   90.00769806    0.55000001    2.69000006
   16.92694473   90.42350006    0.55000001    2.71000004
   16.93027687   87.04869843    0.55000001    2.71000004
   16.93333244   85.34140015    0.55000001    2.69000006
   16.93666649   86.68360138    0.55000001    2.71000004
   16.94249916   86.68360138    0.58999997    2.69000006
   16.94666672   91.03810120    0.58999997    2.69000006
   16.94972038   89.37139893    0.58999997    2.69000006
   16.95305634   88.05680084    0.58999997    2.69000006
   16.95611191   87.06880188    0.56999999    2.69000006
   16.95944595   90.34780121    0.55000001    2.69000006
   16.96277809   88.82440186    0.56999999    2.69000006
   16.96583366   89.26979828    0.56999999    2.69000006
   16.96916771   95.78639984    0.56999999    2.69000006
   16.97249985   86.22100067    0.58999997    2.69000006
   16.97555542   86.58910370    0.58999997    2.67000008
   16.97888947   87.74569702    0.58999997    2.69000006
   16.97944450   95.92539978    0.58999997    2.69000006
   16.98527718   95.92539978    0.56999999    2.69000006
   16.98944473   82.37770081    0.56999999    2.67000008
   16.99250031   82.34999847    0.58999997    2.67000008
   16.99583435   83.32540131    0.58999997    2.69000006
   16.99916649   86.07219696    0.56999999    2.69000006
   17.00222206   91.74700165    0.56999999    2.69000006
   17.00555611   82.88339996    0.56999999    2.69000006
   17.00888824   81.56240082    0.56999999    2.67000008
   17.01194382   79.81569672    0.55000001    2.67000008
   17.01277733   82.70909882    0.55000001    2.69000006
   17.01555634   84.30789948    0.52999997    2.67000008
   17.01888847   78.91799927    0.52999997    2.69000006
   17.02222252   78.55220032    0.52999997    2.69000006
   17.02805519   78.55220032    0.52999997    2.69000006
   17.03222275   87.77339935    0.52999997    2.71000004
   17.03555489   86.33020020    0.52999997    2.69000006
   17.03861046   85.69619751    0.51999998    2.69000006
   17.04194450   80.86620331    0.52999997    2.69000006
   17.04527664   85.64350128    0.52999997    2.69000006
   17.04611015   89.67400360    0.52999997    2.69000006
   17.04861069   93.18489838    0.52999997    2.71000004
   17.05194283   87.36479950    0.52999997    2.69000006
   17.05527687   95.33660126    0.52999997    2.69000006
   17.05833244   97.68630219    0.51999998    2.71000004
   17.06166649   93.08239746    0.51999998    2.69000006
   17.06499863   94.94809723    0.51999998    2.69000006
   17.07083511   94.94809723    0.51999998    2.69000006
   17.07500076   93.48439789    0.51999998    2.69000006
   17.07833481   90.82859802    0.50000000    2.69000006
   17.07944489   87.60780334    0.50000000    2.69000006
   17.08194542   93.84030151    0.50000000    2.69000006
   17.08527756   96.93160248    0.51999998    2.69000006
   17.08861160  100.11100006    0.50000000    2.69000006
   17.09166718   86.24440002    0.52999997    2.69000006
   17.09500122   93.08239746    0.52999997    2.69000006
   17.09833336   83.61489868    0.52999997    2.71000004
   17.10138893   92.09390259    0.52999997    2.69000006
   17.10472298   87.60299683    0.52999997    2.69000006
   17.10805511   90.39630127    0.51999998    2.69000006
   17.11388969   90.39630127    0.52999997    2.69000006
   17.11805534   86.61660004    0.52999997    2.69000006
   17.12111092   90.80599976    0.52999997    2.69000006
   17.12444496   85.22470093    0.52999997    2.69000006
   17.12750053   86.66419983    0.51999998    2.69000006
   17.13083267   89.15499878    0.51999998    2.69000006
   17.13416672   92.32630157    0.51999998    2.69000006
   17.13722229   96.72689819    0.51999998    2.71000004
   17.14055634   85.57170105    0.51999998    2.71000004
   17.14388847   85.11460114    0.51999998    2.71000004
   17.14611053   91.66739655    0.51999998    2.69000006
   17.14722252   92.09839630    0.51999998    2.67000008
   17.15055466   85.57450104    0.51999998    2.69000006
   17.15666580   85.57450104    0.50000000    2.69000006
   17.16083336   91.46779633    0.50000000    2.69000006
   17.16388893   88.73729706    0.50000000    2.69000006
   17.16722107   89.31179810    0.50000000    2.69000006
   17.17055511   85.12300110    0.50000000    2.69000006
   17.17361069   87.40329742    0.50000000    2.69000006
   17.17694473   91.33740234    0.50000000    2.71000004
   17.17944336   90.93589783    0.51999998    2.69000006
   17.18055534   89.44560242    0.51999998    2.69000006
   17.18388748   85.64900208    0.51999998    2.69000006
   17.18722153   88.48159790    0.51999998    2.69000006
   17.19027710   86.83260345    0.51999998    2.69000006
   17.19361115   90.94129944    0.51999998    2.69000006
   17.19944382   90.94129944    0.52999997    2.69000006
   17.20361137   76.24299622    0.52999997    2.69000006
   17.20694542   85.66649628    0.55000001    2.69000006
   17.21000099   85.83529663    0.55000001    2.69000006
   17.21277809   83.76660156    0.52999997    2.69000006
   17.21389008   81.01509857    0.52999997    2.69000006
   17.21694565   84.84850311    0.52999997    2.69000006
   17.22027779   84.36360168    0.55000001    2.69000006
   17.22333336   87.19719696    0.55000001    2.69000006
   17.22666740   83.33149719    0.55000001    2.69000006
   17.23000145   88.43049622    0.55000001    2.69000006
   17.23305511   96.26529694    0.56999999    2.69000006
   17.23638916   87.86489868    0.56999999    2.69000006
   17.24222183   87.86489868    0.56999999    2.69000006
   17.24638939   85.53659821    0.55000001    2.69000006
   17.24972153   89.06719971    0.56999999    2.69000006
   17.25305557   89.95500183    0.56999999    2.67000008
   17.25611115   91.27899933    0.56999999    2.69000006
   17.25944519   95.61199951    0.56999999    2.69000006
   17.26277733   89.84970093    0.56999999    2.69000006
   17.26583290   -1.00000000    0.55000001    2.69000006
   17.26916695   -1.00000000    0.55000001    2.69000006
   17.27222252   98.14800262    0.55000001    2.69000006
   17.27555466  101.99700165    0.55000001    2.71000004
   17.27888870   87.19830322    0.55000001    2.69000006
   17.27944374   93.33989716    0.55000001    2.69000006
   17.28527641   93.33989716    0.55000001    2.67000008
   17.28944397   87.58910370    0.55000001    2.69000006
   17.29249954   88.78540039    0.55000001    2.67000008
   17.29583359   88.72530365    0.56999999    2.69000006
   17.29888916   91.64920044    0.56999999    2.67000008
   17.30222130   94.81060028    0.56999999    2.69000006
   17.30555534   88.44779968    0.56999999    2.69000006
   17.30861092   83.85379791    0.56999999    2.69000006
   17.31194305   88.67440033    0.55000001    2.69000006
   17.31277657   94.83139801    0.55000001    2.69000006
   17.31555557   -1.00000000    0.55000001    2.69000006
   17.31861115   -1.00000000    0.55000001    2.69000006
   17.32194519   -1.00000000    0.55000001    2.69000006
   17.32805634   -1.00000000    0.56999999    2.67000008
   17.33222389   90.05570221    0.56999999    2.69000006
   17.33527756   92.52059937    0.56999999    2.69000006
   17.33861160   95.73919678    0.56999999    2.69000006
   17.34194565   94.91230011    0.55000001    2.69000006
   17.34500122   91.78500366    0.55000001    2.69000006
   17.34611130   93.59590149    0.55000001    2.69000006
   17.34889030   86.20659637    0.55000001    2.69000006
   17.35194397   92.99700165    0.55000001    2.69000006
   17.35527802  100.17800140    0.55000001    2.69000006
   17.35861206   92.55149841    0.55000001    2.69000006
   17.36166763   99.87660217    0.55000001    2.69000006
   17.36499977   94.61160278    0.55000001    2.69000006
   17.37083435   94.61160278    0.52999997    2.69000006
   17.37500000  100.20200348    0.52999997    2.69000006
   17.37833405   93.36299896    0.52999997    2.69000006
   17.37944412   93.37750244    0.52999997    2.69000006
   17.38194466   94.59369659    0.52999997    2.69000006
   17.38500023   97.98229980    0.52999997    2.69000006
   17.38833237   97.85749817    0.52999997    2.69000006
   17.39166641   97.81030273    0.52999997    2.69000006
   17.39472198   99.55120087    0.55000001    2.71000004
   17.39805603   88.87740326    0.55000001    2.69000006
   17.40111160  101.63400269    0.55000001    2.69000006
   17.40444374   91.38670349    0.52999997    2.69000006
   17.40777779   95.20269775    0.52999997    2.69000006
   17.41777802   -1.00000000    0.55000001    2.69000006
   17.42111015   94.79489899    0.52999997    2.69000006
   17.42416573   91.12429810    0.52999997    2.69000006
   17.42749977   88.19339752    0.52999997    2.69000006
   17.43083191   89.56890106    0.52999997    2.69000006
   17.43388748   88.40769958    0.52999997    2.69000006
   17.43722153   87.97309875    0.52999997    2.69000006
   17.44055557   89.50289917    0.55000001    2.67000008
   17.44361115   94.14450073    0.55000001    2.69000006
   17.44610977  104.41300201    0.55000001    2.69000006
   17.44749832  100.23400116    0.55000001    2.69000006
   17.45055580   95.48709869    0.55000001    2.69000006
   17.45666695   95.48709869    0.55000001    2.69000006
   17.46083450   96.59259796    0.56999999    2.69000006
   17.46389008  104.26100159    0.55000001    2.69000006
   17.46722221   -1.00000000    0.55000001    2.67000008
   17.47055626   -1.00000000    0.55000001    2.69000006
   17.47361183  120.08300018    0.55000001    2.67000008
   17.47694588  134.24899292    0.55000001    2.69000006
   17.47944450   97.25700378    0.55000001    2.69000006
   17.48055649  102.07900238    0.55000001    2.69000006
   17.48361206  100.42800140    0.56999999    2.67000008
   17.48694420   91.33760071    0.55000001    2.67000008
   17.48999977  101.71700287    0.55000001    2.67000008
   17.49333382  100.43599701    0.56999999    2.69000006
   17.49944496  100.43599701    0.63000000    2.69000006
   17.50361061   79.95580292    0.61000001    2.69000006
   17.50666618   98.01809692    0.61000001    2.69000006
   17.51000023   86.63099670    0.58999997    2.69000006
   17.51277733  100.36100006    0.61000001    2.69000006
   17.51388931   84.04070282    0.58999997    2.69000006
   17.51694489   -1.00000000    0.58999997    2.69000006
   17.52027702   -1.00000000    0.56999999    2.69000006
   17.52333260   -1.00000000    0.56999999    2.69000006
   17.52666664   94.87789917    0.56999999    2.69000006
   17.53000069  103.79599762    0.56999999    2.69000006
   17.53305435   97.80629730    0.58999997    2.69000006
   17.53638840   89.94380188    0.56999999    2.67000008
   17.54222107   89.94380188    0.56999999    2.69000006
   17.54638863   85.14579773    0.56999999    2.69000006
   17.54972076   95.27439880    0.56999999    2.67000008
   17.55277634   93.21579742    0.56999999    2.69000006
   17.55611038   96.47709656    0.58999997    2.69000006
   17.55944443   97.62550354    0.58999997    2.69000006
   17.56250000   90.40879822    0.58999997    2.69000006
   17.56583214   94.95290375    0.58999997    2.67000008
   17.56916809   95.76360321    0.56999999    2.69000006
   17.57222366   95.41390228    0.56999999    2.67000008
   17.57555580   99.84279633    0.56999999    2.69000006
   17.57861137   91.51550293    0.56999999    2.67000008
   17.57944489   99.39759827    0.56999999    2.67000008
   17.58500099   99.39759827    0.55000001    2.69000006
   17.58916664   88.82180023    0.55000001    2.67000008
   17.59250069   92.32859802    0.55000001    2.67000008
   17.59583473   90.77600098    0.55000001    2.67000008
   17.59889030   93.80269623    0.55000001    2.67000008
   17.60222244   93.04759979    0.55000001    2.67000008
   17.60555649   87.43099976    0.55000001    2.67000008
   17.60861206   87.65679932    0.56999999    2.67000008
   17.61194420   84.11620331    0.56999999    2.67000008
   17.61277771   86.33119965    0.56999999    2.67000008
   17.61555672   93.07710266    0.56999999    2.69000006
   17.61861038   88.93260193    0.58999997    2.67000008
   17.62194443   97.28420258    0.58999997    2.67000008
   17.62805557   97.28420258    0.56999999    2.67000008
   17.63222313   90.15339661    0.56999999    2.69000006
   17.63527679   91.86049652    0.56999999    2.67000008
   17.63861084   97.47170258    0.56999999    2.67000008
   17.64166641   93.48989868    0.58999997    2.69000006
   17.64500046   86.02529907    0.58999997    2.67000008
   17.64611053   84.20490265    0.58999997    2.67000008
   17.64861107   89.24720001    0.58999997    2.67000008
   17.65166664   83.84629822    0.58999997    2.69000006
   17.65499878   88.95130157    0.58999997    2.69000006
   17.65833282   85.83190155    0.58999997    2.67000008
   17.66138840   89.73799896    0.58999997    2.67000008
   17.66472244   88.79129791    0.58999997    2.69000006
   17.67083359   88.79129791    0.58999997    2.67000008
   17.67499924   94.95269775    0.56999999    2.67000008
   17.67833328   86.02529907    0.56999999    2.69000006
   17.67944336   87.29479980    0.56999999    2.69000006
   17.68194389   81.28430176    0.55000001    2.69000006
   17.68499947   87.16889954    0.55000001    2.69000006
   17.68833160   85.00769806    0.55000001    2.69000006
   17.69166565   89.42109680    0.55000001    2.67000008
   17.69472122   91.57340240    0.55000001    2.69000006
   17.69805527   85.76490021    0.55000001    2.67000008
   17.70111275   83.22820282    0.55000001    2.67000008
   17.70444489   84.55400085    0.55000001    2.69000006
   17.70777893   89.15029907    0.52999997    2.69000006
   17.71361160   89.15029907    0.55000001    2.67000008
   17.71777916   97.07980347    0.52999997    2.67000008
   17.72111130   92.94409943    0.52999997    2.69000006
   17.72416687   84.82430267    0.52999997    2.69000006
   17.72750092   84.37380219    0.52999997    2.67000008
   17.73083305   88.13480377    0.55000001    2.69000006
   17.73388863   85.35099792    0.55000001    2.69000006
   17.73722267   83.58679962    0.55000001    2.67000008
   17.74027824   83.17990112    0.56999999    2.69000006
   17.74361229   89.81009674    0.56999999    2.67000008
   17.74611092   87.14279938    0.56999999    2.69000006
   17.74722290   84.15260315    0.56999999    2.67000008
   17.75027847   88.47429657    0.56999999    2.67000008
   17.75666618   88.47429657    0.56999999    2.69000006
   17.76083374   83.00859833    0.56999999    2.69000006
   17.76388931   86.48619843    0.56999999    2.69000006
   17.76722145   86.25479889    0.56999999    2.67000008
   17.77027702   90.98290253    0.56999999    2.67000008
   17.77361107   86.53890228    0.58999997    2.67000008
   17.77694511   86.30639648    0.58999997    2.67000008
   17.77944374   84.33650208    0.63000000    2.67000008
   17.78055573   92.30889893    0.63000000    2.67000008
   17.78361130   89.13490295    0.61000001    2.67000008
   17.78694344   85.92459869    0.58999997    2.67000008
   17.79027748   87.10549927    0.61000001    2.67000008
   17.79333305   91.50409698    0.61000001    2.67000008
   17.79944420   91.50409698    0.63000000    2.67000008
   17.80360985   87.56549835    0.61000001    2.67000008
   17.80666542   82.86470032    0.61000001    2.67000008
   17.80999947   82.24109650    0.61000001    2.67000008
   17.81277657   83.36070251    0.61000001    2.67000008
   17.81361008   84.47840118    0.61000001    2.67000008
   17.81666756   81.39659882    0.58999997    2.67000008
   17.82000160   89.88480377    0.58999997    2.67000008
   17.82333374   82.18350220    0.58999997    2.67000008
   17.82638931   84.51460266    0.58999997    2.67000008
   17.82972336   86.35649872    0.61000001    2.69000006
   17.83305550   86.22250366    0.58999997    2.67000008
   17.83611107   87.27590179    0.58999997    2.67000008
   17.84222221   87.27590179    0.58999997    2.67000008
   17.84638977   82.84889984    0.58999997    2.67000008
   17.84972191   87.61190033    0.58999997    2.67000008
   17.85277748   79.50450134    0.58999997    2.67000008
   17.85611153   84.61139679    0.56999999    2.69000006
   17.85916710   83.91760254    0.56999999    2.67000008
   17.86250114   82.43319702    0.56999999    2.67000008
   17.86583328   80.80729675    0.56999999    2.67000008
   17.86888885   79.51740265    0.56999999    2.67000008
   17.87222290   78.84940338    0.56999999    2.67000008
   17.87555504   82.05970001    0.56999999    2.67000008
   17.87861061   85.68650055    0.56999999    2.67000008
   17.87944412   83.88849640    0.56999999    2.67000008
   17.88500023   83.88849640    0.56999999    2.67000008
   17.88916588   81.78119659    0.56999999    2.67000008
   17.89249992   84.43630219    0.56999999    2.67000008
   17.89555550   84.70570374    0.56999999    2.67000008
   17.91333389   77.43309784    0.56999999    2.66000009
   17.91555595   85.68859863    0.56999999    2.67000008
   17.91888809   87.03440094    0.58999997    2.67000008
   17.92194366   83.70269775    0.56999999    2.67000008
   17.92805481   83.70269775    0.56999999    2.67000008
   17.93222237   82.32230377    0.56999999    2.67000008
   17.93555450   89.08840179    0.56999999    2.67000008
   17.93861008   83.93730164    0.56999999    2.67000008
   17.94194412   82.52870178    0.56999999    2.67000008
   17.94527626   86.52529907    0.56999999    2.67000008
   17.94638824   85.84290314    0.56999999    2.67000008
   17.94888878   83.55429840    0.56999999    2.67000008
   17.95222282   88.71800232    0.56999999    2.67000008
   17.95527840   79.29329681    0.58999997    2.67000008
   17.95861244   88.36599731    0.58999997    2.67000008
   17.96194458   78.43830109    0.58999997    2.67000008
   17.96500015   87.84310150    0.58999997    2.67000008
   17.97083473   87.84310150    0.61000001    2.67000008
   17.97500038   84.98729706    0.61000001    2.67000008
   17.97833443   80.32369995    0.61000001    2.67000008
   17.97972298   84.37349701    0.61000001    2.67000008
   17.98194504   86.26380157    0.61000001    2.66000009
   17.98500061   85.37169647    0.61000001    2.67000008
   17.98833275   83.09369659    0.58999997    2.67000008
   17.99166679   81.25859833    0.61000001    2.67000008
   17.99472237   85.25559998    0.58999997    2.67000008
   17.99805641   84.75689697    0.58999997    2.67000008
   18.00138855   81.20259857    0.61000001    2.67000008
   18.00444412   87.48960114    0.61000001    2.67000008
   18.00777817   79.24420166    0.61000001    2.67000008
   18.01388931   79.24420166    0.63000000    2.67000008
   18.01805496   77.02680206    0.63000000    2.67000008
   18.02111053   80.31929779    0.64999998    2.66000009
   18.02444458   86.62909698    0.64999998    2.66000009
   18.02750015   88.08329773    0.64999998    2.67000008
   18.03083229   84.06009674    0.67000002    2.67000008
   18.03416634   82.23349762    0.64999998    2.67000008
   18.03722191   84.15799713    0.64999998    2.66000009
   18.04055595   86.86009979    0.63000000    2.67000008
   18.04388809   80.38849640    0.63000000    2.66000009
   18.04638863   85.79519653    0.63000000    2.67000008
   18.04749870   81.85579681    0.63000000    2.66000009
   18.05083275   87.01809692    0.63000000    2.66000009
   18.05666542   87.01809692    0.61000001    2.67000008
   18.06083298   94.80809784    0.63000000    2.66000009
   18.06388855   89.41220093    0.61000001    2.67000008
   18.06722260   87.95420074    0.63000000    2.67000008
   18.07055664   90.51020050    0.63000000    2.67000008
   18.07361221   77.95120239    0.63000000    2.66000009
   18.07694626   82.30229950    0.63000000    2.66000009
   18.07972336   80.71499634    0.63000000    2.66000009
   18.08055687   83.19239807    0.63000000    2.67000008
   18.08388901   79.40010071    0.63000000    2.66000009
   18.08694458   80.80879974    0.63000000    2.66000009
   18.09027863   86.25879669    0.63000000    2.66000009
   18.09333420   84.88459778    0.63000000    2.67000008
   18.09944534   84.88459778    0.63000000    2.67000008
   18.10361099   79.56659698    0.64999998    2.67000008
   18.10694504   74.90010071    0.64999998    2.66000009
   18.11000061   83.21019745    0.64999998    2.66000009
   18.11305618   75.47789764    0.64999998    2.67000008
   18.11361122   79.60949707    0.64999998    2.67000008
   18.11694527   87.52140045    0.64999998    2.66000009
   18.12000084   85.55349731    0.64999998    2.66000009
   18.12333298   84.05310059    0.64999998    2.66000009
   18.12666702   80.81269836    0.63000000    2.66000009
   18.12972260   87.12429810    0.63000000    2.67000008
   18.13305473   88.86799622    0.63000000    2.67000008
   18.13638878   86.01129913    0.63000000    2.67000008
   18.14222145   86.01129913    0.63000000    2.66000009
   18.14638901   76.78109741    0.63000000    2.66000009
   18.14972115   76.50779724    0.63000000    2.67000008
   18.15305519   87.75060272    0.64999998    2.66000009
   18.15611076   75.95110321    0.64999998    2.66000009
   18.15944481   87.20850372    0.64999998    2.66000009
   18.16250038   96.94819641    0.64999998    2.66000009
   18.16583252   92.17240143    0.64999998    2.66000009
   18.16916656   87.14630127    0.64999998    2.66000009
   18.17222214   79.70629883    0.64999998    2.66000009
   18.17555428   78.73780060    0.64999998    2.66000009
   18.17888832   83.31880188    0.64999998    2.67000008
   18.17972183   79.69370270    0.64999998    2.66000009
   18.18527603   79.69370270    0.64999998    2.66000009
   18.18916512   84.89109802    0.64999998    2.66000009
   18.19249916   77.47339630    0.64999998    2.66000009
   18.19583321   83.30690002    0.67000002    2.66000009
   18.19888878   82.08979797    0.67000002    2.66000009
   18.20222282   83.34439850    0.67000002    2.66000009
   18.20555687   82.58609772    0.67000002    2.66000009
   18.20861244   82.48470306    0.67000002    2.66000009
   18.21194458   88.37699890    0.67000002    2.66000009
   18.21305656   81.52429962    0.67000002    2.66000009
   18.21555710   81.93959808    0.67000002    2.66000009
   18.21888924   79.55770111    0.64999998    2.66000009
   18.22194481   79.47619629    0.64999998    2.64000010
   18.22805595   79.47619629    0.67000002    2.66000009
   18.23222351   85.94920349    0.69000000    2.66000009
   18.23555565   83.45220184    0.69000000    2.67000008
   18.23861122   82.83209991    0.67000002    2.66000009
   18.24194527   77.77790070    0.67000002    2.66000009
   18.24500084   81.99459839    0.67000002    2.64000010
   18.24638939   81.74919891    0.69000000    2.66000009
   18.24888992   81.01940155    0.67000002    2.66000009
   18.25222206   79.59799957    0.69000000    2.66000009
   18.25527763   81.76270294    0.69000000    2.66000009
   18.25861168   83.13770294    0.69000000    2.64000010
   18.26194382   79.51570129    0.69000000    2.64000010
   18.26499939   78.50759888    0.69000000    2.66000009
   18.27083397   78.50759888    0.69000000    2.66000009
   18.27499962   85.35659790    0.69000000    2.67000008
   18.27833366   75.84719849    0.69000000    2.66000009
   18.27972221   74.26260376    0.69000000    2.66000009
   18.28194427   88.48290253    0.69000000    2.66000009
   18.28527641   79.67970276    0.69000000    2.67000008
   18.28833199   86.01339722    0.69000000    2.66000009
   18.29166603   89.61560059    0.69000000    2.66000009
   18.29500008   88.20480347    0.69000000    2.64000010
   18.29805565   86.55079651    0.69000000    2.66000009
   18.30138779   81.92769623    0.69000000    2.66000009
   18.30444336   82.17389679    0.69000000    2.66000009
   18.30777740   84.23000336    0.67000002    2.64000010
   18.31361008   84.23000336    0.69000000    2.66000009
   18.31777954   80.87960052    0.69000000    2.64000010
   18.32111168   83.29720306    0.70999998    2.66000009
   18.32416725   83.96440125    0.70999998    2.66000009
   18.32750130   80.01049805    0.70999998    2.66000009
   18.33083344   78.24659729    0.70999998    2.66000009
   18.33388901   80.39289856    0.70999998    2.67000008
   18.33722305   82.93959808    0.70999998    2.67000008
   18.34055710   80.24720001    0.70999998    2.64000010
   18.34361267   83.57039642    0.70999998    2.66000009
   18.34638977   85.40070343    0.70999998    2.66000009
   18.34722328   79.81510162    0.70999998    2.66000009
   18.35055542   79.17479706    0.70999998    2.66000009
   18.35666656   79.17479706    0.70999998    2.66000009
   18.36055565   80.09970093    0.70999998    2.66000009
   18.36388969   77.36799622    0.69000000    2.64000010
   18.36722183   79.45549774    0.69000000    2.66000009
   18.37027740   80.53189850    0.69000000    2.66000009
   18.37361145   75.98739624    0.69000000    2.66000009
   18.37694550   77.49259949    0.70999998    2.66000009
   18.38000107   79.17479706    0.69000000    2.64000010
   18.38055611   82.33000183    0.69000000    2.64000010
   18.38388824   72.62370300    0.67000002    2.64000010
   18.38694382   75.97440338    0.69000000    2.66000009
   18.39027786   85.67340088    0.69000000    2.66000009
   18.39361191   79.22599792    0.69000000    2.64000010
   18.39944458   79.22599792    0.69000000    2.64000010
   18.40361023   80.51219940    0.69000000    2.66000009
   18.40666580   84.21540070    0.70999998    2.66000009
   18.40999985   79.86460114    0.70999998    2.64000010
   18.41305542   77.43740082    0.70999998    2.64000010
   18.41361046   78.43830109    0.70999998    2.64000010
   18.41694450   79.53279877    0.70999998    2.66000009
   18.42000008   81.89379883    0.70999998    2.64000010
   18.42333221   78.71469879    0.70999998    2.64000010
   18.42666626   78.77020264    0.73000002    2.66000009
   18.42972183   74.49299622    0.73000002    2.66000009
   18.43305397   82.61869812    0.73000002    2.64000010
   18.43610954   81.07969666    0.75000000    2.64000010
   18.44222069   81.07969666    0.76999998    2.64000010
   18.44638824   77.52279663    0.76999998    2.64000010
   18.44694328   78.12590027    0.76999998    2.64000010
   18.45027924   84.64880371    0.79000002    2.64000010
   18.45333481   85.32029724    0.76999998    2.64000010
   18.45666695   85.76360321    0.76999998    2.66000009
   18.46000099   86.19029999    0.76999998    2.64000010
   18.46305656   85.98449707    0.76999998    2.64000010
   18.46638870   81.28569794    0.75000000    2.64000010
   18.46944427   82.10780334    0.76999998    2.64000010
   18.47277832   86.91049957    0.76999998    2.66000009
   18.47611237   93.59639740    0.76999998    2.64000010
   18.47916794  101.37300110    0.79000002    2.64000010
   18.48027802   95.92299652    0.79000002    2.64000010
   18.48500061   95.92299652    0.80000001    2.64000010
   18.48916626   99.40209961    0.76999998    2.64000010
   18.49250031   95.41349792    0.79000002    2.64000010
   18.49555588  100.84700012    0.79000002    2.64000010
   18.49888992  113.54299927    0.79000002    2.64000010
   18.50222206  137.95500183    0.79000002    2.64000010
   18.50527763  148.17799377    0.80000001    2.64000010
   18.50861168  153.03399658    0.80000001    2.64000010
   18.51194382  186.62899780    0.81999999    2.64000010
   18.51361084  236.97999573    0.81999999    2.64000010
   18.51555634  222.30200195    0.81999999    2.64000010
   18.51861000  230.94599915    0.81999999    2.64000010
   18.52194405   67.51820374    0.81999999    2.64000010
   18.52805519   67.51820374    0.81999999    2.64000010
   18.53194427   -1.00000000    0.80000001    2.64000010
   18.53527641   -1.00000000    0.80000001    2.64000010
   18.53861046   -1.00000000    0.81999999    2.64000010
   18.54166603   -1.00000000    0.80000001    2.64000010
   18.54500008   -1.00000000    0.80000001    2.64000010
   18.54833221   -1.00000000    0.80000001    2.64000010
   18.55166626   -1.00000000    0.80000001    2.64000010
   18.55472183   -1.00000000    0.80000001    2.64000010
   18.55805397   -1.00000000    0.80000001    2.61999989
   18.56138802   -1.00000000    0.80000001    2.64000010
   18.56444359   -1.00000000    0.79000002    2.64000010
   18.57472229   -1.00000000    0.79000002    2.64000010
   18.57805634   -1.00000000    0.79000002    2.64000010
   18.58139038   -1.00000000    0.79000002    2.64000010
   18.58472252   -1.00000000    0.79000002    2.61999989
   18.58777809   -1.00000000    0.80000001    2.61999989
   18.59111214   -1.00000000    0.79000002    2.61999989
   18.59444427   -1.00000000    0.79000002    2.64000010
   18.59749985   -1.00000000    0.79000002    2.64000010
   18.60083389   -1.00000000    0.79000002    2.61999989
   18.60416794   -1.00000000    0.79000002    2.64000010
   18.60722351   -1.00000000    0.79000002    2.64000010
   18.61777878   -1.00000000    0.79000002    2.61999989
   18.62083435   -1.00000000    0.79000002    2.61999989
   18.62416649   -1.00000000    0.80000001    2.61999989
   18.62722206   -1.00000000    0.80000001    2.61999989
   18.63055611   -1.00000000    0.80000001    2.61999989
   18.63388824   -1.00000000    0.80000001    2.61999989
   18.63694382   -1.00000000    0.81999999    2.64000010
   18.64027786   -1.00000000    0.81999999    2.64000010
   18.64361191   -1.00000000    0.81999999    2.64000010
   18.64666748   -1.00000000    0.83999997    2.64000010
   18.65027809   -1.00000000    0.81999999    2.64000010
   18.66055489   -1.00000000    0.81999999    2.61999989
   18.66361046   -1.00000000    0.81999999    2.61999989
   18.66694450   -1.00000000    0.81999999    2.61999989
   18.67027664   -1.00000000    0.83999997    2.61999989
   18.67333221   -1.00000000    0.83999997    2.61999989
   18.67666626   -1.00000000    0.83999997    2.61999989
   18.68000031   -1.00000000    0.83999997    2.61999989
   18.68333244   -1.00000000    0.81999999    2.61999989
   18.68666649   -1.00000000    0.81999999    2.61999989
   18.68999863   -1.00000000    0.83999997    2.61999989
   18.69305420   -1.00000000    0.81999999    2.61999989
   18.70333481   -1.00000000    0.80000001    2.61999989
   18.70666695   -1.00000000    0.80000001    2.61999989
   18.70972252   -1.00000000    0.80000001    2.61999989
   18.71305656   -1.00000000    0.80000001    2.61999989
   18.71638870   -1.00000000    0.80000001    2.61999989
   18.71972275   -1.00000000    0.80000001    2.61999989
   18.72305679   -1.00000000    0.81999999    2.61999989
   18.72611237   -1.00000000    0.81999999    2.61999989
   18.72944450   -1.00000000    0.81999999    2.61999989
   18.73277855   -1.00000000    0.81999999    2.61999989
   18.73583412   -1.00000000    0.81999999    2.61999989
   18.74611092   -1.00000000    0.81999999    2.61999989
   18.74972153   -1.00000000    0.83999997    2.61999989
   18.75305557   -1.00000000    0.81999999    2.61999989
   18.75638962   -1.00000000    0.81999999    2.61999989
   18.75944519   -1.00000000    0.81999999    2.61999989
   18.76277733   -1.00000000    0.83999997    2.61999989
   18.76611137   -1.00000000    0.83999997    2.61999989
   18.76916695   -1.00000000    0.83999997    2.61999989
   18.77249908   -1.00000000    0.81999999    2.61999989
   18.77555466   -1.00000000    0.81999999    2.61999989
   18.77888870   -1.00000000    0.81999999    2.61999989
   18.78916550   -1.00000000    0.83999997    2.61999989
   18.79222107   -1.00000000    0.81999999    2.61999989
   18.79555511   -1.00000000    0.81999999    2.61999989
   18.79861069   -1.00000000    0.81999999    2.59999990
   18.80194283   -1.00000000    0.81999999    2.59999990
   18.80527687   -1.00000000    0.81999999    2.59999990
   18.80833244   -1.00000000    0.83999997    2.61999989
   18.81166649   -1.00000000    0.83999997    2.61999989
   18.81499863   -1.00000000    0.83999997    2.61999989
   18.81833458   -1.00000000    0.83999997    2.59999990
   18.82166672   -1.00000000    0.81999999    2.61999989
   18.83194542   -1.00000000    0.83999997    2.59999990
   18.83500099   -1.00000000    0.83999997    2.59999990
   18.83833313   -1.00000000    0.83999997    2.61999989
   18.84166718   -1.00000000    0.83999997    2.59999990
   18.84472275   -1.00000000    0.86000001    2.59999990
   18.84833336   -1.00000000    0.86000001    2.59999990
   18.85166740   -1.00000000    0.83999997    2.59999990
   18.85499954   -1.00000000    0.83999997    2.61999989
   18.85805511   -1.00000000    0.83999997    2.59999990
   18.86138916   -1.00000000    0.86000001    2.59999990
   18.86472321   -1.00000000    0.86000001    2.59999990
   18.87472153   -1.00000000    0.88000000    2.57999992
   18.87805557   -1.00000000    0.86000001    2.59999990
   18.88138962   -1.00000000    0.88000000    2.61999989
   18.88472176   -1.00000000    0.88000000    2.59999990
   18.88805580   -1.00000000    0.88000000    2.59999990
   18.89111137   -1.00000000    0.88000000    2.59999990
   18.89444351   -1.00000000    0.88000000    2.59999990
   18.89777756   -1.00000000    0.88000000    2.59999990
   18.90083313   -1.00000000    0.88000000    2.59999990
   18.90416718   -1.00000000    0.88000000    2.59999990
   18.90722275   -1.00000000    0.88000000    2.59999990
   18.93194389   -1.00000000    0.89999998    2.59999990
   18.93499947   -1.00000000    0.89999998    2.57999992
   18.93833160   -1.00000000    0.92000002    2.57999992
   18.94138718   -1.00000000    0.89999998    2.57999992
   18.94472122   -1.00000000    0.89999998    2.57999992
   18.94805527   -1.00000000    0.92000002    2.57999992
   18.95111275   -1.00000000    0.92000002    2.59999990
   18.96055603   -1.00000000    0.92000002    2.59999990
   18.96389008   -1.00000000    0.92000002    2.57999992
   18.96750069   -1.00000000    0.92000002    2.59999990
   18.97083473   -1.00000000    0.92000002    2.57999992
   18.97389030   -1.00000000    0.92000002    2.57999992
   18.97722244   -1.00000000    0.92000002    2.57999992
   18.98027802   -1.00000000    0.92000002    2.57999992
   18.98361206   -1.00000000    0.92000002    2.57999992
   18.98694420   -1.00000000    0.89999998    2.59999990
   18.98999977   -1.00000000    0.89999998    2.57999992
   18.99333382   -1.00000000    0.89999998    2.57999992
   19.00333405   -1.00000000    0.92000002    2.57999992
   19.00666618   -1.00000000    0.92000002    2.57999992
   19.01000023   -1.00000000    0.89999998    2.59999990
   19.01305580   -1.00000000    0.92000002    2.57999992
   19.01638794   -1.00000000    0.92000002    2.59999990
   19.01944351   -1.00000000    0.92000002    2.59999990
   19.02277756   -1.00000000    0.92000002    2.59999990
   19.02611160   -1.00000000    0.92000002    2.59999990
   19.02916718   -1.00000000    0.89999998    2.57999992
   19.03277779   -1.00000000    0.92000002    2.57999992
   19.03583336   -1.00000000    0.89999998    2.57999992
   19.04638863   -1.00000000    0.89999998    2.57999992
   19.04944420   -1.00000000    0.89999998    2.57999992
   19.05277634   -1.00000000    0.92000002    2.57999992
   19.05611038   -1.00000000    0.92000002    2.59999990
   19.05916595   -1.00000000    0.94000000    2.57999992
   19.06250000   -1.00000000    0.94000000    2.57999992
   19.06611061   -1.00000000    0.94000000    2.57999992
   19.06944466   -1.00000000    0.95999998    2.57999992
   19.07250023   -1.00000000    0.95999998    2.55999994
   19.07583427   -1.00000000    0.95999998    2.57999992
   19.07888985   -1.00000000    0.95999998    2.57999992
   19.08916664   -1.00000000    0.95999998    2.57999992
   19.09222221   -1.00000000    0.98000002    2.57999992
   19.09555626   -1.00000000    0.95999998    2.55999994
   19.09916687   -1.00000000    0.98000002    2.55999994
   19.10250092   -1.00000000    1.00000000    2.57999992
   19.10555649   -1.00000000    1.00000000    2.57999992
   19.10888863   -1.00000000    0.98000002    2.57999992
   19.11194420   -1.00000000    0.98000002    2.57999992
   19.11527824   -1.00000000    0.98000002    2.57999992
   19.11861038   -1.00000000    0.98000002    2.57999992
   19.12166595   -1.00000000    0.98000002    2.57999992
   19.13194466   -1.00000000    0.98000002    2.57999992
   19.13527679   -1.00000000    0.98000002    2.55999994
   19.13833237   -1.00000000    0.98000002    2.55999994
   19.14166641   -1.00000000    0.98000002    2.55999994
   19.14500046   -1.00000000    0.98000002    2.57999992
   19.14833260   -1.00000000    0.98000002    2.55999994
   19.15138817   -1.00000000    1.00000000    2.55999994
   19.15472221   -1.00000000    0.98000002    2.55999994
   19.15777779   -1.00000000    0.98000002    2.55999994
   19.16110992   -1.00000000    0.98000002    2.55999994
   19.16444397   -1.00000000    0.98000002    2.55999994
   19.17472076   -1.00000000    1.01999998    2.55999994
   19.17805481   -1.00000000    1.01999998    2.55999994
   19.18138885   -1.00000000    1.00000000    2.55999994
   19.18444443   -1.00000000    1.01999998    2.55999994
   19.18777657   -1.00000000    1.01999998    2.55999994
   19.19111061   -1.00000000    1.01999998    2.55999994
   19.19416618   -1.00000000    1.01999998    2.55999994
   19.19749832   -1.00000000    1.01999998    2.55999994
   19.20083427   -1.00000000    1.03999996    2.55999994
   19.20416832   -1.00000000    1.03999996    2.55999994
   19.20722389   -1.00000000    1.03999996    2.55999994
   19.21777916   -1.00000000    1.05999994    2.55999994
   19.22083473   -1.00000000    1.05999994    2.55999994
   19.22416687   -1.00000000    1.05999994    2.55999994
   19.22722244   -1.00000000    1.07000005    2.53999996
   19.23055649   -1.00000000    1.05999994    2.55999994
   19.23416710   -1.00000000    1.07000005    2.55999994
   19.23750114   -1.00000000    1.07000005    2.53999996
   19.24055672   -1.00000000    1.07000005    2.53999996
   19.24388885   -1.00000000    1.07000005    2.53999996
   19.24694443   -1.00000000    1.07000005    2.53999996
   19.25027847   -1.00000000    1.07000005    2.53999996
   19.26055527   -1.00000000    1.07000005    2.55999994
   19.26361084   -1.00000000    1.07000005    2.53999996
   19.26722145   -1.00000000    1.07000005    2.55999994
   19.27055550   -1.00000000    1.07000005    2.53999996
   19.27361107   -1.00000000    1.07000005    2.53999996
   19.27694511   -1.00000000    1.07000005    2.53999996
   19.28027725   -1.00000000    1.07000005    2.53999996
   19.28333282   -1.00000000    1.07000005    2.53999996
   19.28666687   -1.00000000    1.05999994    2.53999996
   19.28972244   -1.00000000    1.07000005    2.53999996
   19.29305458   -1.00000000    1.07000005    2.53999996
   19.30333328   -1.00000000    1.07000005    2.55999994
   19.30666542   -1.00000000    1.07000005    2.55999994
   19.30972099   -1.00000000    1.05999994    2.53999996
   19.31305504   -1.00000000    1.05999994    2.53999996
   19.31638718   -1.00000000    1.05999994    2.53999996
   19.31944466   -1.00000000    1.05999994    2.53999996
   19.32277870   -1.00000000    1.05999994    2.53999996
   19.32583427   -1.00000000    1.05999994    2.53999996
   19.32916832   -1.00000000    1.05999994    2.53999996
   19.33277893   -1.00000000    1.05999994    2.53999996
   19.33611107   -1.00000000    1.05999994    2.53999996
   19.34611130   -1.00000000    1.05999994    2.53999996
   19.34944534   -1.00000000    1.05999994    2.53999996
   19.35277748   -1.00000000    1.07000005    2.53999996
   19.35583305   -1.00000000    1.07000005    2.53999996
   19.35916710   -1.00000000    1.05999994    2.53999996
   19.36222267   -1.00000000    1.07000005    2.53999996
   19.36583328   -1.00000000    1.07000005    2.53999996
   19.36916733   -1.00000000    1.07000005    2.53999996
   19.37222290   -1.00000000    1.07000005    2.53999996
   19.37555504   -1.00000000    1.07000005    2.53999996
   19.37888908   -1.00000000    1.09000003    2.53999996
   19.38916588   -1.00000000    1.09000003    2.51999998
   19.39222145   -1.00000000    1.09000003    2.53999996
   19.39555550   -1.00000000    1.09000003    2.51999998
   19.39916611   -1.00000000    1.09000003    2.51999998
   19.40250015   -1.00000000    1.09000003    2.53999996
   19.40555573   -1.00000000    1.09000003    2.51999998
   19.40888786   -1.00000000    1.09000003    2.51999998
   19.41222191   -1.00000000    1.11000001    2.53999996
   19.41527748   -1.00000000    1.09000003    2.51999998
   19.41860962   -1.00000000    1.09000003    2.50000000
   19.42166519   -1.00000000    1.11000001    2.51999998
   19.43194389   -1.00000000    1.11000001    2.51999998
   19.43527603   -1.00000000    1.11000001    2.51999998
   19.43833160   -1.00000000    1.11000001    2.51999998
   19.44166565   -1.00000000    1.11000001    2.51999998
   19.44472122   -1.00000000    1.11000001    2.51999998
   19.44805527   -1.00000000    1.11000001    2.51999998
   19.45138931   -1.00000000    1.13000000    2.51999998
   19.45444489   -1.00000000    1.11000001    2.51999998
   19.45777893   -1.00000000    1.11000001    2.51999998
   19.46111107   -1.00000000    1.13000000    2.51999998
   19.46416664   -1.00000000    1.13000000    2.51999998
   19.47472191   -1.00000000    1.13000000    2.51999998
   19.47805595   -1.00000000    1.13000000    2.51999998
   19.48111153   -1.00000000    1.14999998    2.51999998
   19.48444557   -1.00000000    1.13000000    2.51999998
   19.48777771   -1.00000000    1.13000000    2.51999998
   19.49083328   -1.00000000    1.13000000    2.50000000
   19.49416733   -1.00000000    1.13000000    2.50000000
   19.49722290   -1.00000000    1.14999998    2.50000000
   19.50083351   -1.00000000    1.13000000    2.50000000
   19.50416756   -1.00000000    1.14999998    2.51999998
   19.50722313   -1.00000000    1.13000000    2.51999998
   19.51749992   -1.00000000    1.14999998    2.51999998
   19.52083397   -1.00000000    1.14999998    2.51999998
   19.52416611   -1.00000000    1.14999998    2.50000000
   19.52722168   -1.00000000    1.14999998    2.50000000
   19.53055573   -1.00000000    1.16999996    2.50000000
   19.53388786   -1.00000000    1.16999996    2.50000000
   19.53722191   -1.00000000    1.16999996    2.50000000
   19.54027748   -1.00000000    1.16999996    2.50000000
   19.54361153   -1.00000000    1.16999996    2.50000000
   19.54694366   -1.00000000    1.16999996    2.50000000
   19.54999924   -1.00000000    1.16999996    2.50000000
   19.56027794   -1.00000000    1.19000006    2.50000000
   19.56361008   -1.00000000    1.21000004    2.50000000
   19.56722260   -1.00000000    1.21000004    2.50000000
   19.57055664   -1.00000000    1.21000004    2.50000000
   19.57361221   -1.00000000    1.21000004    2.50000000
   19.57694626   -1.00000000    1.23000002    2.50000000
   19.58027840   -1.00000000    1.25000000    2.50000000
   19.58333397   -1.00000000    1.25000000    2.50000000
   19.58666801   -1.00000000    1.26999998    2.50000000
   19.58972359   -1.00000000    1.26999998    2.50000000
   19.59305573   -1.00000000    1.25000000    2.50000000
   19.60333443   -1.00000000    1.26999998    2.50000000
   19.60666656   -1.00000000    1.26999998    2.50000000
   19.60972214   -1.00000000    1.26999998    2.48000002
   19.61305618   -1.00000000    1.30999994    2.48000002
   19.61638832   -1.00000000    1.28999996    2.48000002
   19.61944389   -1.00000000    1.28999996    2.48000002
   19.62277794   -1.00000000    1.28999996    2.48000002
   19.62583351   -1.00000000    1.34000003    2.48000002
   19.62916756   -1.00000000    1.33000004    2.48000002
   19.63277817   -1.00000000    1.33000004    2.50000000
   19.63611031   -1.00000000    1.30999994    2.48000002
   19.64611053   -1.00000000    1.33000004    2.48000002
   19.64944458   -1.00000000    1.33000004    2.46000004
   19.65250015   -1.00000000    1.33000004    2.48000002
   19.65583229   -1.00000000    1.34000003    2.48000002
   19.65916634   -1.00000000    1.36000001    2.48000002
   19.66222191   -1.00000000    1.36000001    2.46000004
   19.66583252   -1.00000000    1.34000003    2.48000002
   19.66916656   -1.00000000    1.34000003    2.48000002
   19.67222214   -1.00000000    1.34000003    2.48000002
   19.67555428   -1.00000000    1.34000003    2.48000002
   19.67888832   -1.00000000    1.34000003    2.46000004
   19.68944359   -1.00000000    1.30999994    2.48000002
   19.69249916   -1.00000000    1.30999994    2.46000004
   19.69583321   -1.00000000    1.30999994    2.48000002
   19.69916534   -1.00000000    1.30999994    2.48000002
   19.70250130   -1.00000000    1.33000004    2.46000004
   19.70555687   -1.00000000    1.33000004    2.46000004
   19.70888901   -1.00000000    1.30999994    2.46000004
   19.71222305   -1.00000000    1.30999994    2.48000002
   19.71527863   -1.00000000    1.30999994    2.48000002
   19.71861076   -1.00000000    1.30999994    2.48000002
   19.72166634   -1.00000000    1.30999994    2.48000002
   19.73194504   -1.00000000    1.28999996    2.46000004
   19.73500061   -1.00000000    1.28999996    2.46000004
   19.73833275   -1.00000000    1.28999996    2.46000004
   19.74138832   -1.00000000    1.28999996    2.46000004
   19.74472237   -1.00000000    1.28999996    2.46000004
   19.74805641   -1.00000000    1.28999996    2.46000004
   19.75111198   -1.00000000    1.30999994    2.46000004
   19.75444412   -1.00000000    1.30999994    2.46000004
   19.75777817   -1.00000000    1.28999996    2.46000004
   19.76083374   -1.00000000    1.28999996    2.46000004
   19.76416588   -1.00000000    1.30999994    2.46000004
   19.77472115   -1.00000000    1.33000004    2.46000004
   19.77777672   -1.00000000    1.33000004    2.46000004
   19.78111076   -1.00000000    1.33000004    2.46000004
   19.78444481   -1.00000000    1.34000003    2.46000004
   19.78750038   -1.00000000    1.34000003    2.44000006
   19.79083252   -1.00000000    1.34000003    2.46000004
   19.79416656   -1.00000000    1.34000003    2.46000004
   19.79722214   -1.00000000    1.36000001    2.46000004
   19.80083275   -1.00000000    1.36000001    2.46000004
   19.80416679   -1.00000000    1.36000001    2.44000006
   19.80722237   -1.00000000    1.36000001    2.44000006
   19.81750107   -1.00000000    1.36000001    2.46000004
   19.82083511   -1.00000000    1.36000001    2.44000006
   19.82389069   -1.00000000    1.36000001    2.44000006
   19.82722282   -1.00000000    1.36000001    2.46000004
   19.83055687   -1.00000000    1.34000003    2.44000006
   19.83388901   -1.00000000    1.36000001    2.44000006
   19.83722305   -1.00000000    1.34000003    2.44000006
   19.84027863   -1.00000000    1.34000003    2.44000006
   19.84361267   -1.00000000    1.34000003    2.44000006
   19.84694481   -1.00000000    1.34000003    2.44000006
   19.85000038   -1.00000000    1.36000001    2.44000006
   19.86027908   -1.00000000    1.36000001    2.42000008
   19.86361122   -1.00000000    1.36000001    2.44000006
   19.86722183   -1.00000000    1.36000001    2.44000006
   19.87055588   -1.00000000    1.36000001    2.44000006
   19.87361145   -1.00000000    1.36000001    2.42000008
   19.87694550   -1.00000000    1.36000001    2.44000006
   19.88027763   -1.00000000    1.36000001    2.44000006
   19.88333321   -1.00000000    1.36000001    2.42000008
   19.88666725   -1.00000000    1.36000001    2.42000008
   19.88999939   -1.00000000    1.36000001    2.42000008
   19.89305496   -1.00000000    1.38000000    2.44000006
   19.90333366   -1.00000000    1.38000000    2.42000008
   19.90638924   -1.00000000    1.38000000    2.42000008
   19.90972137   -1.00000000    1.36000001    2.42000008
   19.91305542   -1.00000000    1.36000001    2.42000008
   19.91611099   -1.00000000    1.36000001    2.42000008
   19.91944313   -1.00000000    1.36000001    2.42000008
   19.92249870   -1.00000000    1.36000001    2.42000008
   19.92583275   -1.00000000    1.38000000    2.42000008
   19.92916679   -1.00000000    1.38000000    2.40000010
   19.95611191   -1.00000000    1.39999998    2.40000010
   19.95944595   -1.00000000    1.39999998    2.40000010
   19.96277809   -1.00000000    1.39999998    2.40000010
   19.96611214   -1.00000000    1.39999998    2.40000010
   19.96944427   -1.00000000    1.39999998    2.40000010
   19.97277832   -1.00000000    1.39999998    2.40000010
   19.97583389   -1.00000000    1.39999998    2.40000010
   19.97916794   -1.00000000    1.39999998    2.40000010
   19.98222351   -1.00000000    1.39999998    2.40000010
   19.98555565   -1.00000000    1.39999998    2.40000010
   19.98888969   -1.00000000    1.41999996    2.40000010
   19.99888992   -1.00000000    1.41999996    2.40000010
   20.00222206   -1.00000000    1.44000006    2.40000010
   20.00555611   -1.00000000    1.44000006    2.40000010
   20.00861168   -1.00000000    1.44000006    2.40000010
   20.01194382   -1.00000000    1.41999996    2.39000010
   20.01527786   -1.00000000    1.41999996    2.40000010
   20.01833344   -1.00000000    1.41999996    2.40000010
   20.02166557   -1.00000000    1.41999996    2.40000010
   20.02472115   -1.00000000    1.41999996    2.40000010
   20.02805519   -1.00000000    1.41999996    2.40000010
   20.03138924   -1.00000000    1.41999996    2.40000010
   20.04194450   -1.00000000    1.39999998    2.39000010
   20.04500008   -1.00000000    1.39999998    2.40000010
   20.04833221   -1.00000000    1.39999998    2.39000010
   20.05166626   -1.00000000    1.41999996    2.39000010
   20.05472183   -1.00000000    1.39999998    2.39000010
   20.05805397   -1.00000000    1.39999998    2.39000010
   20.06110954   -1.00000000    1.41999996    2.39000010
   20.06444359   -1.00000000    1.41999996    2.40000010
   20.06805611   -1.00000000    1.46000004    2.39000010
   20.07139015   -1.00000000    1.44000006    2.39000010
   20.07444572   -1.00000000    1.46000004    2.39000010
   20.08472252   -1.00000000    1.46000004    2.39000010
   20.08805656   -1.00000000    1.46000004    2.39000010
   20.09111214   -1.00000000    1.46000004    2.39000010
   20.09444427   -1.00000000    1.46000004    2.36999989
   20.09777832   -1.00000000    1.48000002    2.39000010
   20.10111237   -1.00000000    1.48000002    2.39000010
   20.10444450   -1.00000000    1.48000002    2.39000010
   20.10750008   -1.00000000    1.48000002    2.39000010
   20.11083412   -1.00000000    1.50000000    2.36999989
   20.11388969   -1.00000000    1.50000000    2.36999989
   20.11722183   -1.00000000    1.50000000    2.36999989
   20.12750053   -1.00000000    1.50000000    2.36999989
   20.13083267   -1.00000000    1.51999998    2.36999989
   20.13444519   -1.00000000    1.51999998    2.36999989
   20.13777733   -1.00000000    1.53999996    2.36999989
   20.14083290   -1.00000000    1.53999996    2.34999990
   20.14416695   -1.00000000    1.53999996    2.36999989
   20.14722252   -1.00000000    1.55999994    2.34999990
   20.15055466   -1.00000000    1.55999994    2.34999990
   20.15388870   -1.00000000    1.58000004    2.34999990
   20.15694427   -1.00000000    1.58000004    2.34999990
   20.16027832   -1.00000000    1.61000001    2.34999990
   20.17027664   -1.00000000    1.61000001    2.34999990
   20.17361069   -1.00000000    1.61000001    2.34999990
   20.17694473   -1.00000000    1.61000001    2.34999990
   20.18000031   -1.00000000    1.63000000    2.32999992
   20.18333244   -1.00000000    1.63000000    2.34999990
   20.18666649   -1.00000000    1.64999998    2.32999992
   20.18972206   -1.00000000    1.66999996    2.32999992
   20.19305420   -1.00000000    1.66999996    2.32999992
   20.19610977   -1.00000000    1.66999996    2.32999992
   20.19972038   -1.00000000    1.66999996    2.32999992
   20.20305634   -1.00000000    1.69000006    2.32999992
   20.21333504   -1.00000000    1.69000006    2.32999992
   20.21638870   -1.00000000    1.66999996    2.30999994
   20.21972275   -1.00000000    1.66999996    2.30999994
   20.22305679   -1.00000000    1.66999996    2.32999992
   20.22611237   -1.00000000    1.66999996    2.32999992
   20.22944450   -1.00000000    1.66999996    2.32999992
   20.23305511   -1.00000000    1.66999996    2.32999992
   20.23638916   -1.00000000    1.64999998    2.32999992
   20.23944473   -1.00000000    1.64999998    2.32999992
   20.24277878   -1.00000000    1.64999998    2.32999992
   20.24583435   -1.00000000    1.66999996    2.32999992
   20.25611115   -1.00000000    1.66999996    2.32999992
   20.25944519   -1.00000000    1.66999996    2.32999992
   20.26250076   -1.00000000    1.66999996    2.32999992
   20.26611137   -1.00000000    1.66999996    2.30999994
   20.26944351   -1.00000000    1.66999996    2.30999994
   20.27249908   -1.00000000    1.66999996    2.30999994
   20.27583313   -1.00000000    1.69000006    2.30999994
   20.27888870   -1.00000000    1.69000006    2.30999994
   20.28222275   -1.00000000    1.66999996    2.30999994
   20.28555489   -1.00000000    1.69000006    2.30999994
   20.28861046   -1.00000000    1.69000006    2.30999994
   20.29888916   -1.00000000    1.71000004    2.30999994
   20.30222130   -1.00000000    1.71000004    2.30999994
   20.30555534   -1.00000000    1.71000004    2.30999994
   20.30861092   -1.00000000    1.71000004    2.28999996
   20.31194305   -1.00000000    1.71000004    2.30999994
   20.31499863   -1.00000000    1.71000004    2.28999996
   20.31833458   -1.00000000    1.71000004    2.28999996
   20.32166672   -1.00000000    1.71000004    2.28999996
   20.32472229   -1.00000000    1.71000004    2.28999996
   20.32805634   -1.00000000    1.71000004    2.28999996
   20.33139038   -1.00000000    1.73000002    2.28999996
   20.34194565   -1.00000000    1.73000002    2.28999996
   20.34500122   -1.00000000    1.73000002    2.28999996
   20.34833336   -1.00000000    1.73000002    2.28999996
   20.35138893   -1.00000000    1.75000000    2.26999998
   20.35472298   -1.00000000    1.75000000    2.26999998
   20.35805511   -1.00000000    1.75000000    2.26999998
   20.36111069   -1.00000000    1.75000000    2.26999998
   20.36444473   -1.00000000    1.75000000    2.26999998
   20.36777878   -1.00000000    1.75000000    2.26999998
   20.37111092   -1.00000000    1.75000000    2.26999998
   20.37416649   -1.00000000    1.76999998    2.26999998
   20.38500023   -1.00000000    1.78999996    2.26999998
   20.38805580   -1.00000000    1.78999996    2.26999998
   20.39138794   -1.00000000    1.78999996    2.26999998
   20.39444351   -1.00000000    1.80999994    2.26999998
   20.39777756   -1.00000000    1.83000004    2.25000000
   20.40138817   -1.00000000    1.85000002    2.25000000
   20.40472221   -1.00000000    1.85000002    2.25000000
   20.40777779   -1.00000000    1.83000004    2.25000000
   20.41110992   -1.00000000    1.85000002    2.25000000
   20.41444397   -1.00000000    1.85000002    2.25000000
   20.41749954   -1.00000000    1.86000001    2.25000000
   20.42749977   -1.00000000    1.88000000    2.25000000
   20.43055534   -1.00000000    1.88000000    2.25000000
   20.43416595   -1.00000000    1.88000000    2.25000000
   20.43750000   -1.00000000    1.88000000    2.25000000
   20.44055557   -1.00000000    1.88000000    2.25000000
   20.44388771   -1.00000000    1.88000000    2.25000000
   20.44722176   -1.00000000    1.88000000    2.23000002
   20.45027924   -1.00000000    1.88000000    2.23000002
   20.45361137   -1.00000000    1.89999998    2.23000002
   20.45666695   -1.00000000    1.88000000    2.23000002
   20.46000099   -1.00000000    1.89999998    2.23000002
   20.47027779   -1.00000000    1.89999998    2.23000002
   20.47361183   -1.00000000    1.91999996    2.23000002
   20.47666740   -1.00000000    1.89999998    2.23000002
   20.48000145   -1.00000000    1.89999998    2.23000002
   20.48333359   -1.00000000    1.91999996    2.23000002
   20.48638916   -1.00000000    1.91999996    2.21000004
   20.48972321   -1.00000000    1.89999998    2.23000002
   20.49277878   -1.00000000    1.89999998    2.21000004
   20.49611092   -1.00000000    1.89999998    2.21000004
   20.49972153   -1.00000000    1.89999998    2.21000004
   20.50305557   -1.00000000    1.91999996    2.23000002
   20.51305580   -1.00000000    1.89999998    2.21000004
   20.51638794   -1.00000000    1.89999998    2.21000004
   20.51972198   -1.00000000    1.89999998    2.21000004
   20.52277756   -1.00000000    1.91999996    2.21000004
   20.52611160   -1.00000000    1.91999996    2.21000004
   20.52944374   -1.00000000    1.94000006    2.21000004
   20.53277779   -1.00000000    1.94000006    2.21000004
   20.53610992   -1.00000000    1.96000004    2.19000006
   20.53916550   -1.00000000    1.96000004    2.19000006
   20.54249954   -1.00000000    1.96000004    2.19000006
   20.54583359   -1.00000000    1.96000004    2.19000006
