    HOUR (UT)   FLARE FACTOR    SKY TESTER    SUN TESTER
   11.16138840   -1.00000000   -1.00000000   -1.00000000
   11.18166733  144.95100403    4.90999985    2.42000008
   11.18666649  151.92300415    4.90999985    2.42000008
   11.19055557  141.36199951    4.90999985    2.42000008
   11.19388866  147.71299744    4.90999985    2.42000008
   11.19694424  119.46099854    4.90999985    2.42000008
   11.20027733  139.50300598    4.90999985    2.42000008
   11.20361137  143.93699646    4.90999985    2.44000006
   11.20666695  147.80999756    4.90999985    2.42000008
   11.21000004  139.79600525    4.90999985    2.42000008
   11.21305561  135.01199341    4.90999985    2.44000006
   11.21500015  134.78799438    4.90999985    2.42000008
   11.21694374  140.69200134    4.90999985    2.42000008
   11.21999931  136.51400757    4.90999985    2.42000008
   11.22333336  145.03700256    4.90999985    2.42000008
   11.22638798  141.08599854    4.90999985    2.44000006
   11.22972202  138.11300659    4.90999985    2.44000006
   11.23305511  147.47900391    4.90999985    2.44000006
   11.23611164  146.08000183    4.90999985    2.44000006
   11.23944473  130.15400696    4.90999985    2.44000006
   11.24277782  130.27400208    4.90999985    2.46000004
   11.24583340  136.22999573    4.90999985    2.46000004
   11.24833393  144.11199951    4.90999985    2.44000006
   11.24972248  150.00599670    4.90999985    2.46000004
   11.25277805  140.12100220    4.90999985    2.46000004
   11.25611115  138.49400330    4.90999985    2.44000006
   11.25916672  145.57400513    4.90999985    2.46000004
   11.26249981  142.27799988    4.90999985    2.46000004
   11.26583290  133.33399963    4.90999985    2.44000006
   11.26888847  142.32699585    4.90999985    2.46000004
   11.27222157  136.16499329    4.90999985    2.44000006
   11.27555561  139.63800049    4.90999985    2.44000006
   11.27861118  133.55999756    4.90999985    2.46000004
   11.28166676  141.21699524    4.90999985    2.44000006
   11.28249931  131.22700500    4.90999985    2.44000006
   11.28555584  129.27200317    4.90999985    2.46000004
   11.28888893  130.77999878    4.90999985    2.46000004
   11.29194450  129.17900085    4.90999985    2.46000004
   11.29527855  125.60199738    4.90999985    2.46000004
   11.29861164  137.66600037    4.90999985    2.46000004
   11.30166721  131.30999756    4.90999985    2.46000004
   11.30500031  130.05799866    4.90999985    2.46000004
   11.30833340  137.49800110    4.90999985    2.46000004
   11.31138897  124.60099792    4.90999985    2.46000004
   11.31472206  130.67999268    4.90999985    2.46000004
   11.31527805  133.52900696    4.90999985    2.46000004
   11.31833363  130.50199890    4.90999985    2.46000004
   11.32166672  128.94400024    4.90999985    2.46000004
   11.32499981  132.64599609    4.90999985    2.46000004
   11.32805538  135.63000488    4.90999985    2.46000004
   11.33138847  127.43499756    4.90999985    2.46000004
   11.33472157  131.74899292    4.90999985    2.46000004
   11.33777714  125.43499756    4.90999985    2.46000004
   11.34111118  126.06099701    4.90999985    2.48000002
   11.34416676  128.89199829    4.90999985    2.48000002
   11.34749985  137.82499695    4.90999985    2.48000002
   11.34861088  139.39500427    4.90999985    2.48000002
   11.35111141  132.33299255    4.90999985    2.48000002
   11.35444450  138.54299927    4.90999985    2.48000002
   11.35777855  135.68699646    4.90999985    2.48000002
   11.36083412  128.51800537    4.90999985    2.48000002
   11.36416721  135.75300598    4.90999985    2.50000000
   11.36750031  135.01600647    4.90999985    2.48000002
   11.37055588  125.81199646    4.90999985    2.48000002
   11.37388897  134.76199341    4.90999985    2.48000002
   11.37694454  128.32400513    4.90999985    2.48000002
   11.38027763  122.13500214    4.90999985    2.48000002
   11.38194466  121.62899780    4.90999985    2.48000002
   11.38388920  125.14499664    4.90999985    2.48000002
   11.38722229  120.25900269    4.90999985    2.48000002
   11.39055538  122.08599854    4.90999985    2.50000000
   11.39361095  131.05599976    4.90999985    2.50000000
   11.39694405  119.49600220    4.90999985    2.48000002
   11.40027714  125.92900085    4.90999985    2.48000002
   11.40333271  126.32499695    4.90999985    2.48000002
   11.40666676  115.05799866    4.90999985    2.50000000
   11.40972137  123.27100372    4.90999985    2.50000000
   11.41305542  133.57099915    4.90999985    2.50000000
   11.41527748  135.54699707    4.90999985    2.50000000
   11.41666698  127.50000000    4.90999985    2.50000000
   11.42000008  131.60899353    4.90999985    2.50000000
   11.42333412  133.74299622    4.90999985    2.50000000
   11.42638874  134.82099915    4.90999985    2.50000000
   11.42972279  130.83900452    4.90999985    2.50000000
   11.43305588  134.25900269    4.90999985    2.50000000
   11.43611145  127.52799988    4.90999985    2.51999998
   11.43944454  133.92900085    4.90999985    2.51999998
   11.44277763  132.17900085    4.90999985    2.51999998
   11.44583321  127.01300049    4.90999985    2.51999998
   11.44861126  124.40799713    4.90999985    2.51999998
   11.44944477  127.23799896    4.90999985    2.51999998
   11.45277786  125.94899750    4.90999985    2.51999998
   11.45611095  121.02700043    4.90999985    2.51999998
   11.45916653  125.04100037    4.90999985    2.51999998
   11.46249962  125.29699707    4.90999985    2.51999998
   11.46583271  129.21600342    4.90999985    2.51999998
   11.46888828  124.88899994    4.90999985    2.51999998
   11.47222137  127.94999695    4.90999985    2.51999998
   11.47527695  122.68699646    4.90999985    2.51999998
   11.47861099  128.65100098    4.90999985    2.51999998
   11.48194408  129.52600098    4.90999985    2.50000000
   11.48222160  115.60199738    4.90999985    2.51999998
   11.48555565  123.25599670    4.90999985    2.51999998
   11.48888874  127.86799622    4.90999985    2.53999996
   11.49194431  129.08200073    4.90999985    2.51999998
   11.49527836  128.20500183    4.90999985    2.53999996
   11.49861145  135.08500671    4.90999985    2.50000000
   11.50166702  122.11900330    4.90999985    2.51999998
   11.50500011  133.13000488    4.90999985    2.51999998
   11.50805569  131.60899353    4.90999985    2.51999998
   11.51138878  124.99299622    4.90999985    2.51999998
   11.51472187  120.74199677    4.90999985    2.51999998
   11.51527786  124.95600128    4.90999985    2.51999998
   11.51805496  118.92299652    4.90999985    2.51999998
   11.52138901  117.44599915    4.90999985    2.51999998
   11.52472210  117.51899719    4.90999985    2.51999998
   11.52777767  118.78500366    4.90999985    2.51999998
   11.53111076  117.07399750    4.90999985    2.53999996
   11.53444481  135.61500549    4.90999985    2.51999998
   11.53750038  128.42900085    4.90999985    2.51999998
   11.54083347  128.13600159    4.90999985    2.51999998
   11.54388905  124.75099945    4.90999985    2.53999996
   11.54722309  123.76000214    4.90999985    2.53999996
   11.54861164  122.74099731    4.90999985    2.51999998
   11.55111122  129.64700317    4.90999985    2.53999996
   11.55416679  129.51699829    4.90999985    2.53999996
   11.55749989  119.13500214    4.90999985    2.53999996
   11.56055546  122.18199921    4.90999985    2.51999998
   11.56388950  136.22000122    4.90999985    2.53999996
   11.56722260  127.36399841    4.90999985    2.51999998
   11.57027817  119.43599701    4.90999985    2.53999996
   11.57361126  131.25199890    4.90999985    2.53999996
   11.57694435  120.42099762    4.90999985    2.53999996
   11.57999992  115.57499695    4.90999985    2.53999996
   11.58194447  116.36900330    4.90999985    2.51999998
   11.58388901  121.83699799    4.90999985    2.51999998
   11.58694458  112.48300171    4.90999985    2.53999996
   11.59027767  119.63099670    4.90999985    2.55999994
   11.59333324  118.36299896    4.90999985    2.55999994
   11.59666634  117.63800049    4.90999985    2.53999996
   11.60000038  115.35099792    4.90999985    2.55999994
   11.60305595  122.87300110    4.90999985    2.53999996
   11.60638905  118.16600037    4.90999985    2.53999996
   11.60972214  120.51100159    4.90999985    2.53999996
   11.61277771  123.02400208    4.90999985    2.55999994
   11.61527824  121.64499664    4.90999985    2.55999994
   11.61666679  116.02500153    4.90999985    2.53999996
   11.61972237  118.88099670    4.90999985    2.55999994
   11.62305546  109.44499969    4.90999985    2.55999994
   11.62611103  121.91100311    4.90999985    2.53999996
   11.62944412  119.88899994    4.90999985    2.53999996
   11.63277817  110.69799805    4.90999985    2.55999994
   11.63583279  120.69100189    4.90999985    2.55999994
   11.63916683  115.89299774    4.90999985    2.55999994
   11.64249992  107.18499756    4.90999985    2.53999996
   11.64555550  119.16799927    4.90999985    2.53999996
   11.64861107  119.83300018    4.90999985    2.55999994
   11.64916611  116.79299927    4.90999985    2.53999996
   11.65249920  115.71700287    4.90999985    2.55999994
   11.65583324  114.96900177    4.90999985    2.57999992
   11.65888882  120.11499786    4.90999985    2.55999994
   11.66222191  122.29299927    4.90999985    2.55999994
   11.66555500  118.54399872    4.90999985    2.55999994
   11.66861153  119.08399963    4.90999985    2.57999992
   11.67194462  116.73200226    4.90999985    2.55999994
   11.67527771  115.06300354    4.90999985    2.55999994
   11.67833328  117.68699646    4.90999985    2.55999994
   11.68166733  121.11799622    4.90999985    2.55999994
   11.68222237  117.86900330    4.90999985    2.55999994
   11.68555546  115.20700073    4.90999985    2.55999994
   11.68861103  118.87999725    4.90999985    2.55999994
   11.69194412  116.92199707    4.90999985    2.55999994
   11.69527817  113.54199982    4.90999985    2.57999992
   11.69833374  118.09400177    4.90999985    2.57999992
   11.70166683  112.28900146    4.90999985    2.53999996
   11.70472240  119.74900055    4.90999985    2.55999994
   11.70805550  110.72599792    4.90999985    2.55999994
   11.71138859  114.20500183    4.90999985    2.57999992
   11.71444416  116.39700317    4.90999985    2.57999992
   11.71555519  112.18399811    4.90999985    2.57999992
   11.71833324  106.70800018    4.90999985    2.55999994
   11.72138882  107.41799927    4.90999985    2.57999992
   11.72472191  113.12999725    4.90999985    2.57999992
   11.72805500  109.22200012    4.90999985    2.57999992
   11.73111057  111.49400330    4.90999985    2.59999990
   11.73444462  104.57900238    4.90999985    2.57999992
   11.73750019  112.84899902    4.90999985    2.57999992
   11.74083328  109.78700256    4.90999985    2.59999990
   11.74416733  113.26799774    4.90999985    2.57999992
   11.74722290  116.41600037    4.90999985    2.57999992
   11.74888897  116.98799896    4.90999985    2.57999992
   11.75111103  121.17900085    4.90999985    2.57999992
   11.75416660  112.97899628    4.90999985    2.57999992
   11.75749969  118.89700317    4.90999985    2.57999992
   11.76083374  112.86799622    4.90999985    2.57999992
   11.76388931  111.93499756    4.90999985    2.61999989
   11.76722240  121.23699951    4.90999985    2.59999990
   11.77055550  112.81199646    4.90999985    2.59999990
   11.77361107  107.87500000    4.90999985    2.59999990
   11.77694416  108.26399994    4.90999985    2.59999990
   11.77999973  109.70400238    4.90999985    2.59999990
   11.78222179  111.58300018    4.90999985    2.57999992
   11.78388977  114.71199799    4.90999985    2.59999990
   11.78694534  110.38800049    4.90999985    2.59999990
   11.79027843  115.26999664    4.90999985    2.59999990
   11.79361153  109.08699799    4.90999985    2.57999992
   11.79666710  107.53299713    4.90999985    2.59999990
   11.80000019  107.16600037    4.90999985    2.59999990
   11.80305576  116.44000244    4.90999985    2.59999990
   11.80638885  110.31700134    4.90999985    2.61999989
   11.80972195  102.80500031    4.90999985    2.61999989
   11.81277752  114.77100372    4.90999985    2.61999989
   11.81555557  111.83000183    4.90999985    2.61999989
   11.81666660  111.29900360    4.90999985    2.61999989
   11.81972218  103.77200317    4.90999985    2.59999990
   11.82305527  103.62599945    4.90999985    2.59999990
   11.82638836  107.15000153    4.90999985    2.61999989
   11.82944393  105.40100098    4.90999985    2.61999989
   11.83277798  104.81500244    4.90999985    2.59999990
   11.83583260  105.06700134    4.90999985    2.61999989
   11.83916664  101.46700287    4.90999985    2.59999990
   11.84249973  101.37200165    4.90999985    2.61999989
   11.84555531  107.72899628    4.90999985    2.61999989
   11.84888840  109.42299652    4.90999985    2.61999989
   11.84944439   99.61679840    4.90999985    2.61999989
   11.85249996  104.91699982    4.90999985    2.61999989
   11.85583401   98.37409973    4.90999985    2.61999989
   11.85916710  106.27100372    4.90999985    2.61999989
   11.86222267  109.18000031    4.90999985    2.61999989
   11.86555576  105.62999725    4.90999985    2.61999989
   11.86861134  108.80999756    4.90999985    2.61999989
   11.87194443  103.26000214    4.90999985    2.61999989
   11.87527752  112.06999969    4.90999985    2.61999989
   11.87833309  107.13700104    4.90999985    2.61999989
   11.88166714  106.06199646    4.90999985    2.61999989
   11.88222218  106.58899689    4.90999985    2.61999989
   11.88527775  105.37899780    4.90999985    2.61999989
   11.88833332  103.38999939    4.90999985    2.61999989
   11.89166641  103.15799713    4.90999985    2.61999989
   11.89499950  103.27799988    4.90999985    2.64000010
   11.89805508  111.73799896    4.90999985    2.61999989
   11.90138817   99.89250183    4.90999985    2.64000010
   11.90444374  106.40499878    4.90999985    2.61999989
   11.90777779  116.21399689    4.90999985    2.64000010
   11.91111088  110.08300018    4.90999985    2.64000010
   11.91416645  109.47200012    4.90999985    2.64000010
   11.91555500  106.18199921    4.90999985    2.61999989
   11.91805553  110.40200043    4.90999985    2.64000010
   11.92111111  109.48100281    4.90999985    2.64000010
   11.92444515  102.40299988    4.90999985    2.64000010
   11.92777824  115.76999664    4.90999985    2.61999989
   11.93083382  108.88500214    4.90999985    2.64000010
   11.93416691  112.31500244    4.90999985    2.61999989
   11.93750000  101.94699860    4.90999985    2.64000010
   11.94055557   99.96720123    4.90999985    2.64000010
   11.94388866   98.98459625    4.90999985    2.64000010
   11.94694424  102.37000275    4.90999985    2.61999989
   11.94888878   98.37830353    4.90999985    2.64000010
   11.95083332  109.34799957    4.90999985    2.61999989
   11.95388889  100.78399658    4.90999985    2.64000010
   11.95722198  118.88500214    4.90999985    2.61999989
   11.96055508  108.59799957    4.90999985    2.64000010
   11.96361065  120.31099701    4.90999985    2.61999989
   11.96694374  117.41999817    4.90999985    2.61999989
   11.97027779  108.32099915    4.90999985    2.64000010
   11.97333336  117.13800049    4.90999985    2.61999989
   11.97666645  115.29799652    4.90999985    2.64000010
   11.97972202  114.57299805    4.90999985    2.64000010
   11.98222160  109.69799805    4.90999985    2.64000010
   11.98361111  103.50199890    4.90999985    2.64000010
   11.98666668  115.97399902    4.90999985    2.64000010
   11.99000072  115.08000183    4.90999985    2.61999989
   11.99333382  117.50399780    4.90999985    2.64000010
   11.99638939  104.68499756    4.90999985    2.64000010
   11.99972248  117.13600159    4.90999985    2.64000010
   12.00305557  110.61299896    4.90999985    2.64000010
   12.00611115  124.34300232    4.90999985    2.64000010
   12.00944424  103.57399750    4.90999985    2.66000009
   12.01249981  113.29299927    4.90999985    2.66000009
   12.01555538  116.94899750    4.90999985    2.66000009
   12.01638889  101.97799683    4.90999985    2.64000010
   12.01944447  109.99600220    4.90999985    2.66000009
   12.02277756   99.13980103    4.90999985    2.66000009
   12.02611065   94.63950348    4.90999985    2.66000009
   12.02916622   96.44349670    4.90999985    2.66000009
   12.03249931  104.41600037    4.90999985    2.66000009
   12.03583336  119.61900330    4.90999985    2.66000009
   12.03888893   99.47779846    4.90999985    2.66000009
   12.04222298   94.97059631    4.90999985    2.66000009
   12.04527855  111.16100311    4.90999985    2.67000008
   12.04861164  106.54900360    4.90999985    2.67000008
   12.04916668   99.75530243    4.90999985    2.66000009
   12.05249977  112.38999939    4.90999985    2.66000009
   12.05555534  108.22499847    4.90999985    2.66000009
   12.05888939   95.48600006    4.90999985    2.66000009
   12.06222248  111.74500275    4.90999985    2.66000009
   12.06527805   98.59130096    4.90999985    2.67000008
   12.06861115  110.53099823    4.90999985    2.67000008
   12.07166672  101.14499664    4.90999985    2.66000009
   12.07499981  103.53399658    4.90999985    2.67000008
   12.07833290   98.54499817    4.90999985    2.67000008
   12.08138847   95.88289642    4.90999985    2.66000009
   12.08249950  107.00700378    4.90999985    2.67000008
   12.08527756   97.58139801    4.90999985    2.67000008
   12.08833313  109.27400208    4.90999985    2.67000008
   12.09166622  116.54000092    4.90999985    2.67000008
   12.09499931  112.79900360    4.90999985    2.66000009
   12.09805489  106.23999786    4.90999985    2.66000009
   12.10138893  112.70800018    4.90999985    2.66000009
   12.10444450   96.96810150    4.90999985    2.67000008
   12.10777855  105.65699768    4.90999985    2.67000008
   12.11111164  106.32399750    4.90999985    2.67000008
   12.11416721  118.73000336    4.90999985    2.67000008
   12.11583328  114.54499817    4.90999985    2.67000008
   12.11805534  120.58699799    4.90999985    2.67000008
   12.12111092  115.60199738    4.90999985    2.67000008
   12.12444496   97.98020172    4.90999985    2.66000009
   12.12777805  107.66999817    4.90999985    2.67000008
   12.13083363  108.88400269    4.90999985    2.67000008
   12.13416672  112.73600006    4.90999985    2.66000009
   12.13722229  108.42299652    4.90999985    2.66000009
   12.14055538  107.48400116    4.90999985    2.67000008
   12.14388847  108.15799713    4.90999985    2.66000009
   12.14694405   98.36940002    4.90999985    2.66000009
   12.14916611  124.34200287    4.90999985    2.67000008
   12.15083313  109.02899933    4.90999985    2.67000008
   12.15388870   96.30210114    4.90999985    2.67000008
   12.15722179   98.34609985    4.90999985    2.66000009
   12.16055489  101.35199738    4.90999985    2.67000008
   12.16361046  111.62899780    4.90999985    2.67000008
   12.16694450  100.61299896    4.90999985    2.66000009
   12.17000008   97.26219940    4.90999985    2.66000009
   12.17333412   97.87979889    4.90999985    2.67000008
   12.17666721  107.21499634    4.90999985    2.67000008
   12.17972279  103.13400269    4.90999985    2.67000008
   12.19833374  110.66400146    4.90999985    2.67000008
   12.19972229  106.08899689    4.90999985    2.67000008
   12.20277786  102.27700043    4.90999985    2.66000009
   12.20611095   98.11540222    4.90999985    2.67000008
   12.20944405  103.77899933    4.90999985    2.67000008
   12.21249962  105.45200348    4.90999985    2.67000008
   12.21583271  123.20600128    4.90999985    2.67000008
   12.21916580  111.42099762    4.90999985    2.67000008
   12.22222137  112.34200287    4.90999985    2.67000008
   12.22555542   99.42459869    4.90999985    2.67000008
   12.22861099  112.04499817    4.90999985    2.67000008
   12.23166656  115.91500092    4.90999985    2.67000008
   12.23222160  108.76899719    4.90999985    2.69000006
   12.23555565  119.41100311    4.90999985    2.67000008
   12.23888874  132.00599670    4.90999985    2.69000006
   12.24194431  138.49600220    4.90999985    2.67000008
   12.24527836  117.96900177    4.90999985    2.69000006
   12.24861145  143.28300476    4.90999985    2.67000008
   12.25166702  128.96299744    4.90999985    2.69000006
   12.25500011  105.62999725    4.90999985    2.67000008
   12.25805569  126.41200256    4.90999985    2.67000008
   12.26138878  112.67500305    4.90999985    2.67000008
   12.26472187  102.50900269    4.90999985    2.67000008
   12.26527786  125.16300201    4.90999985    2.69000006
   12.26861095  112.42800140    4.90999985    2.69000006
   12.27166653  123.58499908    4.90999985    2.67000008
   12.27499962  105.94599915    4.90999985    2.69000006
   12.27805519   99.71130371    4.90999985    2.67000008
   12.28138828  104.20099640    4.90999985    2.67000008
   12.28472233  103.64800262    4.90999985    2.69000006
   12.28777790  107.06600189    4.90999985    2.69000006
   12.29111195  115.20700073    4.90999985    2.69000006
   12.29444504  109.99700165    4.90999985    2.67000008
   12.29750061  108.26200104    4.90999985    2.69000006
   12.29861164  117.79299927    4.90999985    2.71000004
   12.30138874  103.21099854    4.90999985    2.69000006
   12.30444431  115.22599792    4.90999985    2.69000006
   12.30777836  101.70400238    4.90999985    2.69000006
   12.31083393  109.81600189    4.90999985    2.69000006
   12.31416702  102.53099823    4.90999985    2.69000006
   12.31750011   98.11139679    4.90999985    2.69000006
   12.32055569  104.44699860    4.90999985    2.71000004
   12.32388878   99.82319641    4.90999985    2.69000006
   12.32722187  105.84200287    4.90999985    2.69000006
   12.33027744   97.75789642    4.90999985    2.69000006
   12.33194447  103.77400208    4.90999985    2.69000006
   12.33416653  106.18599701    4.90999985    2.69000006
   12.33722210  106.31099701    4.90999985    2.69000006
   12.34055519   99.87010193    4.90999985    2.69000006
   12.34361076  101.74900055    4.90999985    2.69000006
   12.34694386  105.03800201    4.90999985    2.69000006
   12.35027790   96.77529907    4.90999985    2.69000006
   12.35333347  103.22299957    4.90999985    2.69000006
   12.35666752   95.25319672    4.90999985    2.69000006
   12.36000061   99.68119812    4.90999985    2.69000006
   12.36305618  104.54299927    4.90999985    2.69000006
   12.36527824   96.59369659    4.90999985    2.71000004
   12.36694431  100.25900269    4.90999985    2.71000004
   12.36999989  102.01200104    4.90999985    2.71000004
   12.37333393   95.14890289    4.90999985    2.71000004
   12.37638855  101.42099762    4.90999985    2.71000004
   12.37972260   97.23130035    4.90999985    2.71000004
   12.38305569   96.48909760    4.90999985    2.71000004
   12.38611126  103.49299622    4.90999985    2.71000004
   12.38944435  102.73400116    4.90999985    2.71000004
   12.39277744  121.04000092    4.90999985    2.71000004
   12.39583302   95.06839752    4.90999985    2.69000006
   12.39861107  110.10900116    4.90999985    2.69000006
   12.39972210  102.93000031    4.90999985    2.71000004
   12.40277767  105.19300079    4.90999985    2.71000004
   12.40611076  108.23400116    4.90999985    2.71000004
   12.40916634  106.13300323    4.90999985    2.71000004
   12.41249943  108.49900055    4.90999985    2.71000004
   12.41583252  102.26999664    4.90999985    2.71000004
   12.41888905  101.96499634    4.90999985    2.71000004
   12.42222214  101.09999847    4.90999985    2.71000004
   12.42555618  101.85900116    4.90999985    2.71000004
   12.42861176  100.11399841    4.90999985    2.73000002
   12.43194485   90.61699677    4.90999985    2.71000004
   12.43249989  101.93199921    4.90999985    2.71000004
   12.43555546   99.71679688    4.90999985    2.73000002
   12.43888855  103.05100250    4.90999985    2.71000004
   12.44194412   99.48320007    4.90999985    2.71000004
   12.44527817  103.12500000    4.90999985    2.71000004
   12.44861126   93.55180359    4.90999985    2.71000004
   12.45166683   99.86940002    4.90999985    2.73000002
   12.45499992   99.68199921    4.90999985    2.71000004
   12.45833302  106.33399963    4.90999985    2.69000006
   12.46138859  113.51200104    4.90999985    2.71000004
   12.46472168  105.00900269    4.90999985    2.71000004
   12.46527767   93.63050079    4.90999985    2.71000004
   12.46833324  107.28199768    4.90999985    2.69000006
   12.47138882   95.83229828    4.90999985    2.71000004
   12.47472191   93.47480011    4.90999985    2.71000004
   12.47805500  111.19000244    4.90999985    2.71000004
   12.48111057  102.38200378    4.90999985    2.71000004
   12.48444462  104.86199951    4.90999985    2.71000004
   12.48750019   96.05310059    4.90999985    2.71000004
   12.49083328  117.12799835    4.90999985    2.71000004
   12.49416733  105.21099854    4.90999985    2.71000004
   12.49722290  103.72399902    4.90999985    2.73000002
   12.49861145  109.18800354    4.90999985    2.71000004
   12.50111103  102.39299774    4.90999985    2.71000004
   12.50416660  113.99099731    4.90999985    2.71000004
   12.50749969   98.70120239    4.90999985    2.71000004
   12.51083374  117.20999908    4.90999985    2.73000002
   12.51388931  121.01000214    4.90999985    2.73000002
   12.51722240  108.00000000    4.90999985    2.71000004
   12.52027798  116.89900208    4.90999985    2.73000002
   12.52361107  131.28599548    4.90999985    2.71000004
   12.52694416  110.80200195    4.90999985    2.75000000
   12.52999973  113.23899841    4.90999985    2.73000002
   12.53194427  110.71099854    4.90999985    2.73000002
   12.53388977   99.64649963    4.90999985    2.71000004
   12.53694534  109.39399719    4.90999985    2.71000004
   12.54027843  119.05999756    4.90999985    2.73000002
   12.54361153   99.45189667    4.90999985    2.71000004
   12.54666710  107.71900177    4.90999985    2.71000004
   12.55000019  127.92600250    4.90999985    2.73000002
   12.55305576  129.53199768    4.90999985    2.73000002
   12.55638885  118.53199768    4.90999985    2.73000002
   12.55972195  111.27899933    4.90999985    2.73000002
   12.56277752  106.37500000    4.90999985    2.71000004
   12.56527805  119.59200287    4.90999985    2.73000002
   12.56666660  109.89700317    4.90999985    2.73000002
   12.56972218  111.94899750    4.90999985    2.75000000
   12.57305527  101.60099792    4.90999985    2.73000002
   12.57638836  136.59800720    4.90999985    2.71000004
   12.57944393  123.34200287    4.90999985    2.73000002
   12.58277798  126.19100189    4.90999985    2.73000002
   12.58583260  119.12999725    4.90999985    2.73000002
   12.58916664  119.88999939    4.90999985    2.73000002
   12.59249973  113.13099670    4.90999985    2.73000002
   12.59555531  105.41300201    4.90999985    2.73000002
   12.59861088  118.11699677    4.90999985    2.71000004
   12.59944439  115.70099640    4.90999985    2.73000002
   12.60249996  115.66600037    4.90999985    2.73000002
   12.60583401  108.86299896    4.90999985    2.73000002
   12.60916710  105.10600281    4.90999985    2.73000002
   12.61222267  109.27799988    4.90999985    2.73000002
   12.61555576  102.28700256    4.90999985    2.73000002
   12.61861134  108.67099762    4.90999985    2.73000002
   12.62194443  101.98500061    4.90999985    2.73000002
   12.62527752  103.85199738    4.90999985    2.73000002
   12.62833309  107.07299805    4.90999985    2.73000002
   12.63166714  104.86000061    4.90999985    2.73000002
   12.63222218  110.29599762    4.90999985    2.73000002
   12.63555527   97.54039764    4.90999985    2.73000002
   12.63861084   95.94580078    4.90999985    2.73000002
   12.64194393  106.48100281    4.90999985    2.73000002
   12.64499950  100.32900238    4.90999985    2.73000002
   12.64833355  109.79299927    4.90999985    2.75000000
   12.65166664  106.56099701    4.90999985    2.71000004
   12.65472221  108.22200012    4.90999985    2.73000002
   12.65805531  103.09200287    4.90999985    2.73000002
   12.66138840  104.28199768    4.90999985    2.73000002
   12.66444397  103.30899811    4.90999985    2.75000000
   12.66555500  102.43299866    4.90999985    2.73000002
   12.66833401  115.54699707    4.90999985    2.73000002
   12.67138958  110.13899994    4.90999985    2.73000002
   12.67472267  118.94799805    4.90999985    2.73000002
   12.67777824  102.90200043    4.90999985    2.75000000
   12.68111134  106.13600159    4.90999985    2.73000002
   12.68444443   98.03639984    4.90999985    2.75000000
   12.68777752  110.90599823    4.90999985    2.75000000
   12.69083309  107.91400146    4.90999985    2.75000000
   12.69416714  102.05200195    4.90999985    2.75000000
   12.69722271  101.59500122    4.90999985    2.75000000
   12.69888878  107.61599731    4.90999985    2.75000000
   12.70111084  103.99900055    4.90999985    2.75000000
   12.70416641  104.16999817    4.90999985    2.75000000
   12.70749950  109.81400299    4.90999985    2.73000002
   12.71055508  116.16300201    4.90999985    2.75000000
   12.71388912  105.58499908    4.90999985    2.73000002
   12.71722221  110.36299896    4.90999985    2.73000002
   12.72027779  108.72699738    4.90999985    2.75000000
   12.72361088  105.86000061    4.90999985    2.75000000
   12.72694397  107.98699951    4.90999985    2.75000000
   12.73055553  103.43900299    4.90999985    2.75000000
   12.73222160  104.75299835    4.90999985    2.75000000
   12.73416710  106.93900299    4.90999985    2.75000000
   12.73722267  105.08100128    4.90999985    2.75000000
   12.74055576  102.04900360    4.90999985    2.73000002
   12.74361134  104.79900360    4.90999985    2.75000000
   12.74694443  106.17600250    4.90999985    2.76999998
   12.75027752  114.30100250    4.90999985    2.76999998
   12.75333309  119.47499847    4.90999985    2.75000000
   12.75666714  107.94200134    4.90999985    2.75000000
   12.76000023  103.81300354    4.90999985    2.75000000
   12.76305580  107.50199890    4.90999985    2.76999998
   12.76555538  111.05799866    4.90999985    2.76999998
   12.76694393  101.27999878    4.90999985    2.73000002
   12.76999950  102.79799652    4.90999985    2.76999998
   12.77333355  103.19499969    4.90999985    2.75000000
   12.77638817  103.65299988    4.90999985    2.75000000
   12.77972221  104.95700073    4.90999985    2.76999998
   12.78305531  103.13899994    4.90999985    2.75000000
   12.78611183  107.84400177    4.90999985    2.75000000
   12.78944492  105.91699982    4.90999985    2.76999998
   12.79277802  110.68800354    4.90999985    2.76999998
   12.79583359  108.86499786    4.90999985    2.76999998
   12.79888916  110.16300201    4.90999985    2.76999998
   12.79944515  116.04000092    4.90999985    2.76999998
   12.80277824  111.49700165    4.90999985    2.75000000
   12.80611134  107.32700348    4.90999985    2.76999998
   12.80916691  108.99900055    4.90999985    2.76999998
   12.81250000  101.73100281    4.90999985    2.75000000
   12.81583309  107.29399872    4.90999985    2.76999998
   12.81888866  102.18699646    4.90999985    2.75000000
   12.82222176  108.16999817    4.90999985    2.75000000
   12.82555580  107.03399658    4.90999985    2.76999998
   12.82861137  114.26699829    4.90999985    2.76999998
   12.83194447  105.27999878    4.90999985    2.75000000
   12.83249950  108.19799805    4.90999985    2.75000000
   12.83555508  100.26899719    4.90999985    2.76999998
   12.83888817  108.52799988    4.90999985    2.75000000
   12.84222221  111.74900055    4.90999985    2.75000000
   12.84527779  110.98899841    4.90999985    2.75000000
   12.84861088  113.20600128    4.90999985    2.75000000
   12.85166740  113.72699738    4.90999985    2.76999998
   12.85500050  109.26100159    4.90999985    2.76999998
   12.85833359  119.09999847    4.90999985    2.76999998
   12.86138916  115.98500061    4.90999985    2.75000000
   12.86472225  106.40299988    4.90999985    2.75000000
   12.86583328  120.74299622    4.90999985    2.75000000
   12.86833382  114.27799988    4.90999985    2.75000000
   12.87166691  116.34400177    4.90999985    2.75000000
   12.87500000  111.72399902    4.90999985    2.75000000
   12.87805557  116.13200378    4.90999985    2.76999998
   12.88138866  111.86499786    4.90999985    2.76999998
   12.88444424  108.46499634    4.90999985    2.76999998
   12.88777733  106.55300140    4.90999985    2.76999998
   12.89111137  120.36299896    4.90999985    2.75000000
   12.89472198  105.67900085    4.90999985    2.76999998
   12.89777756  109.25700378    4.90999985    2.76999998
   12.89916611  112.76599884    4.90999985    2.76999998
   12.90138817  116.48999786    4.90999985    2.76999998
   12.90472221  113.99400330    4.90999985    2.78999996
   12.90805531  109.68699646    4.90999985    2.76999998
   12.91111088  109.23600006    4.90999985    2.76999998
   12.91444397  110.44300079    4.90999985    2.76999998
   12.91777802  107.38300323    4.90999985    2.76999998
   12.92083359  109.78199768    4.90999985    2.76999998
   12.92416668  113.74900055    4.90999985    2.75000000
   12.92722225  102.06700134    4.90999985    2.75000000
   12.93055630  108.37699890    4.90999985    2.76999998
   12.93249989  113.09400177    4.90999985    2.76999998
   12.93416691  106.88700104    4.90999985    2.78999996
   12.93750000  109.79799652    4.90999985    2.78999996
   12.94083309  114.58200073    4.90999985    2.78999996
   12.94388866  105.12100220    4.90999985    2.76999998
   12.94722271  100.98100281    4.90999985    2.76999998
   12.95027733  107.53099823    4.90999985    2.78999996
   12.95361137  110.93299866    4.90999985    2.76999998
   12.95694447  107.01000214    4.90999985    2.78999996
   12.96000004   99.96829987    4.90999985    2.78999996
   12.96333313  104.91699982    4.90999985    2.78999996
   12.96583271  110.26100159    4.90999985    2.78999996
   12.96694374  115.25199890    4.90999985    2.78999996
   12.97027779  103.35199738    4.90999985    2.78999996
   12.97361088  112.29100037    4.90999985    2.78999996
   12.97666645  109.76599884    4.90999985    2.78999996
   12.97999954  102.46099854    4.90999985    2.78999996
   12.98305511  110.27999878    4.90999985    2.78999996
   12.98638916  104.18199921    4.90999985    2.76999998
   12.98972225  106.50099945    4.90999985    2.76999998
   12.99277782  108.27600098    4.90999985    2.78999996
   12.99611092  117.52200317    4.90999985    2.76999998
   12.99916649  109.83300018    4.90999985    2.78999996
   12.99972248  110.95500183    4.90999985    2.78999996
   13.00305557  103.80200195    4.90999985    2.78999996
   13.00638866  110.09100342    4.90999985    2.78999996
   13.00944424  114.95600128    4.90999985    2.78999996
   13.01277733  116.47100067    4.90999985    2.80999994
   13.01583290  119.81600189    4.90999985    2.78999996
   13.01916599  111.84200287    4.90999985    2.78999996
   13.02250004  125.31099701    4.90999985    2.78999996
   13.02583313  113.51799774    4.90999985    2.76999998
   13.02888870  116.30300140    4.90999985    2.76999998
   13.03222179  114.61799622    4.90999985    2.78999996
   13.03277779  107.04399872    4.90999985    2.78999996
   13.03583336  122.86900330    4.90999985    2.78999996
   13.03916740  109.91999817    4.90999985    2.78999996
   13.04250050  105.42700195    4.90999985    2.78999996
   13.04555607  108.15699768    4.90999985    2.80999994
   13.04888916  106.05100250    4.90999985    2.78999996
   13.05222225  111.53500366    4.90999985    2.76999998
   13.05527782  107.00800323    4.90999985    2.78999996
   13.05861092  111.19599915    4.90999985    2.78999996
   13.06166649  105.14199829    4.90999985    2.76999998
   13.06500053  107.53299713    4.90999985    2.76999998
   13.06611156  104.50599670    4.90999985    2.78999996
   13.06861115  111.10399628    4.90999985    2.78999996
   13.07194424  104.86199951    4.90999985    2.78999996
   13.07527733  109.51399994    4.90999985    2.78999996
   13.07833290  107.25800323    4.90999985    2.78999996
   13.08166695  109.65599823    4.90999985    2.78999996
   13.08500004  112.78600311    4.90999985    2.78999996
   13.08805561  107.77500153    4.90999985    2.76999998
   13.09138870  108.54699707    4.90999985    2.78999996
   13.09444427  103.65699768    4.90999985    2.76999998
   13.09777737  112.71700287    4.90999985    2.78999996
   13.09944439  104.14099884    4.90999985    2.78999996
   13.10166740  111.33999634    4.90999985    2.78999996
   13.10472298  107.89600372    4.90999985    2.80999994
   13.10805607  106.67700195    4.90999985    2.78999996
   13.11111164  104.15599823    4.90999985    2.78999996
   13.11444473  110.50199890    4.90999985    2.78999996
   13.11777782  108.13999939    4.90999985    2.78999996
   13.12083340  100.75199890    4.90999985    2.78999996
   13.12416649  110.41100311    4.90999985    2.78999996
   13.12750053  102.83300018    4.90999985    2.78999996
   13.13055611  108.96299744    4.90999985    2.78999996
   13.13277817  121.45700073    4.90999985    2.80999994
   13.13416672  104.72499847    4.90999985    2.80999994
   13.13749981  121.10199738    4.90999985    2.78999996
   13.14083290  112.76899719    4.90999985    2.80999994
   13.14388847  105.92800140    4.90999985    2.78999996
   13.14722252  113.60099792    4.90999985    2.78999996
   13.15055561  117.07099915    4.90999985    2.78999996
   13.15361118  104.92199707    4.90999985    2.78999996
   13.26000023   -1.00000000   -1.00000000   -1.00000000
   13.35194492   -1.00000000   -1.00000000   -1.00000000
   13.44861126   -1.00000000   -1.00000000   -1.00000000
   13.54111195   -1.00000000   -1.00000000   -1.00000000
   13.63527775   -1.00000000   -1.00000000   -1.00000000
   13.73388958   -1.00000000   -1.00000000   -1.00000000
   13.82805538   -1.00000000   -1.00000000   -1.00000000
   13.92277813   -1.00000000   -1.00000000   -1.00000000
   14.02055550   -1.00000000   -1.00000000   -1.00000000
   14.08166695   71.95570374    4.90999985    2.86999989
   14.08500004  110.45999908    4.90999985    2.86999989
   14.08805561  122.19000244    4.90999985    2.84999990
   14.09138870  115.51699829    4.90999985    2.86999989
   14.09472179  117.92500305    4.90999985    2.86999989
   14.09777737  112.51100159    4.90999985    2.86999989
   14.10194492  112.51100159    4.90999985    2.86999989
   14.10611153   91.49919891    4.90999985    2.84999990
   14.10944462  112.51200104    4.90999985    2.84999990
   14.11250019  122.57900238    4.90999985    2.84999990
   14.11500072  113.30500031    4.90999985    2.84999990
   14.11611176  114.75700378    4.90999985    2.84999990
   14.11944485  116.49700165    4.90999985    2.84999990
   14.12250042  113.17299652    4.90999985    2.84999990
   14.12583351  109.93399811    4.90999985    2.86999989
   14.12916660  112.49500275    4.90999985    2.86999989
   14.13222218  113.80100250    4.90999985    2.84999990
   14.13555527  112.73699951    4.90999985    2.86999989
   14.13888836  119.68800354    4.90999985    2.84999990
   14.14499950  119.68800354    4.90999985    2.86999989
   14.14888859  106.23500061    4.90999985    2.86999989
   14.15222168  113.50700378    4.90999985    2.84999990
   14.15555477  107.72000122    4.90999985    2.86999989
   14.15861034  116.96900177    4.90999985    2.86999989
   14.16194439  107.40299988    4.90999985    2.86999989
   14.16499996  111.13099670    4.90999985    2.86999989
   14.16833401  106.95400238    4.90999985    2.86999989
   14.17166710  110.69999695    4.90999985    2.86999989
   14.17472267  115.42700195    4.90999985    2.86999989
   14.17805576  114.55999756    4.90999985    2.86999989
   14.18138885  115.18800354    4.90999985    2.86999989
   14.18194485  114.22399902    4.90999985    2.86999989
   14.18777752  114.22399902    4.90999985    2.84999990
   14.19194412  109.38700104    4.90999985    2.86999989
   14.19499969  114.33000183    4.90999985    2.86999989
   14.19833374  114.90100098    4.90999985    2.86999989
   14.20138836  110.81900024    4.90999985    2.86999989
   14.20472240  111.55899811    4.90999985    2.86999989
   14.20805550  109.49299622    4.90999985    2.86999989
   14.21111107  114.94599915    4.90999985    2.86999989
   14.21444416  111.60299683    4.90999985    2.86999989
   14.21527767  121.16200256    4.90999985    2.86999989
   14.21805477  105.86499786    4.90999985    2.86999989
   14.22138882  107.11100006    4.90999985    2.86999989
   14.22472191  109.95500183    4.90999985    2.86999989
   14.23055553  109.95500183    4.90999985    2.86999989
   14.23472214  109.73400116    4.90999985    2.86999989
   14.23777771  115.71499634    4.90999985    2.86999989
   14.24111176  103.99900055    4.90999985    2.86999989
   14.24444485  112.08300018    4.90999985    2.86999989
   14.24750042  104.35199738    4.90999985    2.86999989
   14.24861145  105.93000031    4.90999985    2.86999989
   14.25111103  110.08000183    4.90999985    2.89000010
   14.25444412  106.79799652    4.90999985    2.89000010
   14.25777817  109.88200378    4.90999985    2.86999989
   14.26083374  105.79000092    4.90999985    2.86999989
   14.26416683  106.64800262    4.90999985    2.86999989
   14.26749992  109.19899750    4.90999985    2.86999989
   14.27333355  109.19899750    4.90999985    2.86999989
   14.27750015  106.97599792    4.90999985    2.89000010
   14.28083324  106.47000122    4.90999985    2.86999989
   14.28194427  108.85900116    4.90999985    2.86999989
   14.28416729  103.19400024    4.90999985    2.86999989
   14.28750038  108.76000214    4.90999985    2.89000010
   14.29083347  116.24800110    4.90999985    2.89000010
   14.29388905  102.11499786    4.90999985    2.86999989
   14.29722309  107.67199707    4.90999985    2.86999989
   14.30027771  107.38800049    4.90999985    2.86999989
   14.30361176   97.22260284    4.90999985    2.86999989
   14.30694485  102.98799896    4.90999985    2.86999989
   14.31000042  109.59100342    4.90999985    2.86999989
   14.31638908  109.59100342    4.90999985    2.86999989
   14.32027817  106.31800079    4.90999985    2.86999989
   14.32361126  116.45800018    4.90999985    2.86999989
   14.32694435  105.35199738    4.90999985    2.86999989
   14.32999992  111.67700195    4.90999985    2.86999989
   14.33333302  105.52100372    4.90999985    2.89000010
   14.33666611  111.46800232    4.90999985    2.86999989
   14.33972168  104.25900269    4.90999985    2.89000010
   14.34305477  100.87999725    4.90999985    2.86999989
   14.34611034  103.59300232    4.90999985    2.86999989
   14.34861088  103.26399994    4.90999985    2.86999989
   14.34972191  108.51200104    4.90999985    2.86999989
   14.35305595  104.13099670    4.90999985    2.86999989
   14.35916710  104.13099670    4.90999985    2.89000010
   14.36333370  111.56099701    4.90999985    2.86999989
   14.36638927  106.03800201    4.90999985    2.86999989
   14.36972237  109.45899963    4.90999985    2.89000010
   14.37305546  103.30699921    4.90999985    2.86999989
   14.37611103  111.95200348    4.90999985    2.89000010
   14.37944412  103.42099762    4.90999985    2.89000010
   14.38194466  103.98000336    4.90999985    2.89000010
   14.38305569  108.97499847    4.90999985    2.89000010
   14.38638878  101.61199951    4.90999985    2.86999989
   14.38972187  110.24600220    4.90999985    2.86999989
   14.39277744  102.98500061    4.90999985    2.86999989
   14.39611053  102.18099976    4.90999985    2.89000010
   14.40194416  102.18099976    4.90999985    2.86999989
   14.40611076  112.04499817    4.90999985    2.86999989
   14.40944386  106.43499756    4.90999985    2.84999990
   14.41249943   98.19889832    4.90999985    2.89000010
   14.41527748  101.03700256    4.90999985    2.86999989
   14.41611099   99.75710297    4.90999985    2.86999989
   14.41944504  103.94699860    4.90999985    2.89000010
   14.42277813  108.39800262    4.90999985    2.89000010
   14.42583370   97.46410370    4.90999985    2.89000010
   14.42916679  102.89499664    4.90999985    2.86999989
   14.43249989  107.96900177    4.90999985    2.89000010
   14.43555546  101.04199982    4.90999985    2.86999989
   14.43888855   98.20159912    4.90999985    2.89000010
   14.44472218   98.20159912    4.90999985    2.89000010
   14.44888878  100.09200287    4.90999985    2.86999989
   14.45222187  103.89900208    4.90999985    2.86999989
   14.45527744  104.26999664    4.90999985    2.91000009
   14.45861053   99.44640350    4.90999985    2.89000010
   14.46194458  101.02899933    4.90999985    2.86999989
   14.46500015  108.77799988    4.90999985    2.86999989
   14.46833324  102.36799622    4.90999985    2.86999989
   14.47138882  102.96399689    4.90999985    2.89000010
   14.47472191   97.63079834    4.90999985    2.86999989
   14.47805500  103.24199677    4.90999985    2.86999989
   14.48111057  103.29799652    4.90999985    2.86999989
   14.48194408  104.93199921    4.90999985    2.86999989
   14.48750019  104.93199921    4.90999985    2.86999989
   14.49166679  104.44599915    4.90999985    2.89000010
   14.49499989  102.26899719    4.90999985    2.89000010
   14.49833393   97.70919800    4.90999985    2.86999989
   14.50138855  107.10600281    4.90999985    2.89000010
   14.50472260   94.45279694    4.90999985    2.86999989
   14.50777817  107.49500275    4.90999985    2.86999989
   14.51111126  106.43800354    4.90999985    2.86999989
   14.51444435  107.59500122    4.90999985    2.89000010
   14.51527786  105.93099976    4.90999985    2.86999989
   14.51777744  106.78600311    4.90999985    2.89000010
   14.52111053  105.91999817    4.90999985    2.89000010
   14.52444458  104.59400177    4.90999985    2.86999989
   14.53055573  104.59400177    4.90999985    2.86999989
   14.53472233  104.16400146    4.90999985    2.89000010
   14.53777790  102.55100250    4.90999985    2.86999989
   14.54111195   99.69049835    4.90999985    2.89000010
   14.54416752   98.92440033    4.90999985    2.86999989
   14.54750061  100.27400208    4.90999985    2.86999989
   14.54861164  100.38999939    4.90999985    2.86999989
   14.55111122  105.62000275    4.90999985    2.86999989
   14.55444431  109.73899841    4.90999985    2.89000010
   14.55777836   98.39649963    4.90999985    2.89000010
   14.56083393  102.15699768    4.90999985    2.89000010
   14.56416702  101.19200134    4.90999985    2.89000010
   14.56750011  101.83399963    4.90999985    2.86999989
   14.57333374  101.83399963    4.90999985    2.86999989
   14.57750034   94.62390137    4.90999985    2.89000010
   14.58055592  105.45999908    4.90999985    2.89000010
   14.58194447  102.79799652    4.90999985    2.86999989
   14.58416653   99.04989624    4.90999985    2.86999989
   14.58749962   94.25479889    4.90999985    2.86999989
   14.59083271  101.54699707    4.90999985    2.86999989
   14.59388828  100.16200256    4.90999985    2.86999989
   14.59722233  100.81999969    4.90999985    2.86999989
   14.60055637   95.77829742    4.90999985    2.86999989
   14.60361195  104.13600159    4.90999985    2.89000010
   14.60694504  104.91999817    4.90999985    2.86999989
   14.61000061   95.76349640    4.90999985    2.89000010
   14.61611176   95.76349640    4.90999985    2.86999989
   14.62027836   90.81109619    4.90999985    2.89000010
   14.62361145   90.31150055    4.90999985    2.86999989
   14.62666702   93.62419891    4.90999985    2.86999989
   14.63000011   96.88279724    4.90999985    2.89000010
   14.63333321   98.73459625    4.90999985    2.86999989
   14.63638878  100.65499878    4.90999985    2.89000010
   14.63972187  104.04699707    4.90999985    2.86999989
   14.64277744  104.17600250    4.90999985    2.86999989
   14.64611053  102.23200226    4.90999985    2.89000010
   14.64861107   99.11550140    4.90999985    2.89000010
   14.64999962  100.09600067    4.90999985    2.89000010
   14.65305519   99.69249725    4.90999985    2.89000010
   14.65888882   99.69249725    4.90999985    2.89000010
   14.66305542   99.85970306    4.90999985    2.89000010
   14.66638851   98.72899628    4.90999985    2.89000010
   14.66972256   99.56490326    4.90999985    2.86999989
   14.67277813  105.26799774    4.90999985    2.89000010
   14.67611122  101.56400299    4.90999985    2.86999989
   14.67944431  102.88099670    4.90999985    2.89000010
   14.68194485   92.76380157    4.90999985    2.89000010
   14.68277836  101.87200165    4.90999985    2.89000010
   14.68611145   95.79479980    4.90999985    2.86999989
   14.68944454  103.06700134    4.90999985    2.89000010
   14.69250011  109.81400299    4.90999985    2.89000010
   14.69583321   99.86280060    4.90999985    2.89000010
   14.70194435   99.86280060    4.90999985    2.89000010
   14.70611095  103.08000183    4.90999985    2.89000010
   14.70916653   98.31430054    4.90999985    2.89000010
   14.71249962  100.81500244    4.90999985    2.89000010
   14.71527767  103.29799652    4.90999985    2.89000010
   14.71583271  106.96399689    4.90999985    2.89000010
   14.71916580   99.37909698    4.90999985    2.89000010
   14.72249985   96.31960297    4.90999985    2.89000010
   14.72555542   97.64040375    4.90999985    2.89000010
   14.72888851  100.74500275    4.90999985    2.91000009
   14.73222160   99.84079742    4.90999985    2.91000009
   14.73527813  100.09500122    4.90999985    2.89000010
   14.73861122  101.71499634    4.90999985    2.89000010
   14.74472237  101.71499634    4.90999985    2.89000010
   14.74888897   97.58209991    4.90999985    2.91000009
   14.75222206  104.18000031    4.90999985    2.91000009
   14.75527763  108.37300110    4.90999985    2.91000009
   14.75861073  110.47299957    4.90999985    2.89000010
   14.76166630  105.31300354    4.90999985    2.86999989
   14.76500034   99.37609863    4.90999985    2.89000010
   14.76833344  105.35099792    4.90999985    2.91000009
   14.77138901  103.62899780    4.90999985    2.89000010
   14.77472210  104.64299774    4.90999985    2.91000009
   14.77805519   93.33370209    4.90999985    2.91000009
   14.78111076   92.51319885    4.90999985    2.89000010
   14.78194427  101.23000336    4.90999985    2.91000009
   14.78750038  101.23000336    4.90999985    2.91000009
   14.79166698  106.75599670    4.90999985    2.89000010
   14.79500008  110.68099976    4.90999985    2.91000009
   14.79805565  101.96299744    4.90999985    2.89000010
   14.80138874   97.34110260    4.90999985    2.91000009
   14.80472279  104.16999817    4.90999985    2.89000010
   14.80777836   95.45200348    4.90999985    2.89000010
   14.81111145  103.15100098    4.90999985    2.89000010
   14.81444454   96.00460052    4.90999985    2.89000010
   14.81527805   90.34439850    4.90999985    2.89000010
   14.81805515   96.63500214    4.90999985    2.91000009
   14.82111073  101.26200104    4.90999985    2.91000009
   14.82444477  100.14199829    4.90999985    2.89000010
   14.83055592  100.14199829    4.90999985    2.89000010
   14.83444405  108.24400330    4.90999985    2.89000010
   14.83777714   97.07630157    4.90999985    2.86999989
   14.84111118  106.29900360    4.90999985    2.89000010
   14.84416676  101.69200134    4.90999985    2.91000009
   14.84749985  107.00299835    4.90999985    2.91000009
   14.84861088  105.55999756    4.90999985    2.91000009
   14.85111141  106.63099670    4.90999985    2.91000009
   14.85416698  104.70300293    4.90999985    2.91000009
   14.85750008  107.27799988    4.90999985    2.91000009
   14.86055565  109.96399689    4.90999985    2.89000010
   14.86388969  104.44799805    4.90999985    2.91000009
   14.86722279  105.16200256    4.90999985    2.91000009
   14.87333393  105.16200256    4.90999985    2.91000009
   14.87750053   95.41549683    4.90999985    2.89000010
   14.88055611  103.55699921    4.90999985    2.89000010
   14.88194466  105.22000122    4.90999985    2.91000009
   14.88444424   97.40899658    4.90999985    2.89000010
   14.88749981   99.64730072    4.90999985    2.91000009
   14.89083290  106.64499664    4.90999985    2.91000009
   14.89388847  103.89099884    4.90999985    2.89000010
   14.89722252  100.30599976    4.90999985    2.91000009
   14.90055561   98.92600250    4.90999985    2.91000009
   14.90361118   97.98049927    4.90999985    2.89000010
   14.90694427  103.65699768    4.90999985    2.89000010
   14.91027737  100.08300018    4.90999985    2.89000010
   14.91611099  100.08300018    4.90999985    2.89000010
   14.92027855  101.74299622    4.90999985    2.89000010
   14.92333412  107.12000275    4.90999985    2.91000009
   14.92666721  103.46099854    4.90999985    2.91000009
   14.93000031  105.16300201    4.90999985    2.91000009
   14.93333340  100.94000244    4.90999985    2.91000009
   14.93638897   95.80169678    4.90999985    2.93000007
   14.93972206   98.11969757    4.90999985    2.91000009
   14.94277763  101.74299622    4.90999985    2.91000009
   14.94611073   91.14340210    4.90999985    2.89000010
   14.94861126   93.41750336    4.90999985    2.89000010
   14.94999981   93.89949799    4.90999985    2.89000010
   14.95305538   97.53170013    4.90999985    2.89000010
   14.95888901   97.53170013    4.90999985    2.91000009
   14.96305561   96.29720306    4.90999985    2.91000009
   14.96638870  102.26599884    4.90999985    2.91000009
   14.96944427   96.88680267    4.90999985    2.91000009
   14.97277737  101.17400360    4.90999985    2.89000010
   14.97611046   93.27539825    4.90999985    2.91000009
   14.97916603   90.24960327    4.90999985    2.89000010
   14.98194408  107.10099792    4.90999985    2.91000009
   14.98305511  105.46399689    4.90999985    2.91000009
   14.98611164   97.57579803    4.90999985    2.91000009
   14.98944473  101.38300323    4.90999985    2.89000010
   14.99250031  100.01599884    4.90999985    2.89000010
   14.99583340  100.11000061    4.90999985    2.89000010
   15.00166702  100.11000061    4.90999985    2.91000009
   15.00583363   93.15460205    4.90999985    2.91000009
   15.00916672  102.52600098    4.90999985    2.91000009
   15.01249981  104.02600098    4.90999985    2.91000009
   15.01527786   99.76249695    4.90999985    2.91000009
   15.01611137  104.69100189    4.90999985    2.89000010
   15.01916599   94.31739807    4.90999985    2.91000009
   15.02250004   95.89830017    4.90999985    2.91000009
   15.02583313  104.27300262    4.90999985    2.91000009
   15.02888870   94.34559631    4.90999985    2.91000009
   15.03222179   96.04270172    4.90999985    2.91000009
   15.03527832   92.49479675    4.90999985    2.91000009
   15.03861141   97.14530182    4.90999985    2.91000009
   15.04472256   97.14530182    4.90999985    2.91000009
   15.04888916   92.69760132    4.90999985    2.93000007
   15.05194473  110.06700134    4.90999985    2.91000009
   15.05527782  100.47799683    4.90999985    2.93000007
   15.05833340  102.00900269    4.90999985    2.91000009
   15.06166649  108.53800201    4.90999985    2.91000009
   15.06500053   98.18699646    4.90999985    2.93000007
   15.06805515   89.80690002    4.90999985    2.93000007
   15.07138920   92.22540283    4.90999985    2.91000009
   15.07472229   97.98709869    4.90999985    2.91000009
   15.07777786   95.21289825    4.90999985    2.93000007
   15.08111095   97.44670105    4.90999985    2.91000009
   15.08194447   89.82939911    4.90999985    2.91000009
   15.10277843   89.82939911    4.90999985    2.91000009
   15.10666752  101.51300049    4.90999985    2.91000009
   15.11000061   98.22640228    4.90999985    2.93000007
   15.11333370  101.94300079    4.90999985    2.93000007
   15.11527824  103.39399719    4.90999985    2.91000009
   15.11694431   99.36100006    4.90999985    2.91000009
   15.11999989   89.83570099    4.90999985    2.91000009
   15.12333393   94.78549957    4.90999985    2.89000010
   15.12666702  101.31500244    4.90999985    2.89000010
   15.12972260   95.55639648    4.90999985    2.91000009
   15.13305569   93.42890167    4.90999985    2.91000009
   15.13611126   97.47309875    4.90999985    2.93000007
   15.13944435  100.92900085    4.90999985    2.91000009
   15.14527798  100.92900085    4.90999985    2.93000007
   15.14944458   95.32700348    4.90999985    2.89000010
   15.15277767   98.30059814    4.90999985    2.86999989
   15.15611076   94.95610046    4.90999985    2.89000010
   15.15916634   83.72489929    4.90999985    2.78999996
   15.16249943   99.25250244    4.90999985    2.76999998
   15.16555500   94.04260254    4.90999985    2.91000009
   15.16888905  108.35199738    4.90999985    2.84999990
   15.17222214  105.24400330    4.90999985    2.78999996
   15.17527771  108.40399933    4.90999985    2.71000004
   15.17861176  109.72100067    4.90999985    2.78999996
   15.18194485  102.17700195    4.90999985    2.78999996
   15.18222237  111.30400085    4.90999985    2.78999996
   15.18833351  111.30400085    4.90999985    2.78999996
   15.19250011  106.81700134    4.90999985    2.89000010
   15.19555569  102.68000031    4.90999985    2.89000010
   15.19888878  101.09400177    4.90999985    2.91000009
   15.20194435   97.36710358    4.90999985    2.91000009
   15.20527744   99.14949799    4.90999985    2.91000009
   15.20861053  103.36299896    4.90999985    2.93000007
   15.21166611  111.91899872    4.90999985    2.91000009
   15.21500015  101.65200043    4.90999985    2.91000009
   15.21555519   96.30660248    4.90999985    2.91000009
   15.21861076  104.60500336    4.90999985    2.91000009
   15.22194386  106.05000305    4.90999985    2.93000007
   15.22499943  104.10299683    4.90999985    2.98000002
   15.23111057  104.10299683    0.05000000    0.19000000
   15.23527813  103.35399628    0.05000000    0.19000000
   15.23833370  105.77600098    0.05000000    0.19000000
   15.24166679  101.82700348    0.05000000    0.19000000
   15.24499989   98.58920288    0.05000000    0.19000000
   15.24805546  106.84500122    0.05000000    0.19000000
   15.24888897  107.14700317    0.05000000    0.19000000
   15.25166702  111.70899963    0.05000000    0.19000000
   15.25500011  109.62799835    0.05000000    0.19000000
   15.25805569   97.09439850    0.05000000    0.19000000
   15.26138878   99.39270020    0.05000000    0.19000000
   15.26472187  103.61100006    0.05000000    0.19000000
   15.26777744  108.02600098    0.05000000    0.19000000
   15.27388859  108.02600098    0.05000000    0.19000000
   15.27805519  104.16699982    0.05000000    0.19000000
   15.28138828  111.23600006    0.05000000    0.19000000
   15.28249931  110.02400208    0.05000000    0.19000000
   15.28500080  124.88300323    0.05000000    0.19000000
   15.28833389  102.32399750    0.05000000    0.19000000
   15.29138947  133.33099365    0.05000000    0.19000000
   15.29472256  107.31500244    0.05000000    0.19000000
   15.29805565  109.51399994    0.05000000    0.19000000
   15.30111122  111.34200287    0.05000000    0.19000000
   15.30444431  115.16300201    0.05000000    0.19000000
   15.30777836  145.09599304    0.05000000    0.19000000
   15.31083393  109.92199707    0.05000000    0.19000000
   15.31666660  109.92199707    0.05000000    0.19000000
   15.32083321  109.94400024    0.05000000    0.19000000
   15.32416630   96.42189789    0.05000000    0.19000000
   15.32750034  109.74099731    0.05000000    0.19000000
   15.33055592   97.67980194    0.05000000    0.19000000
   15.33388901  105.21700287    0.05000000    0.19000000
   15.33694458  101.88500214    0.05000000    0.19000000
   15.34027767  112.25000000    0.05000000    0.19000000
   15.34361076  106.68299866    0.05000000    0.19000000
   15.34666634  103.96900177    0.05000000    0.19000000
   15.34916592  107.54399872    0.05000000    0.19000000
   15.35027790  103.72299957    0.05000000    0.19000000
   15.35361195  105.73400116    0.05000000    0.19000000
   15.35972214  105.73400116    0.05000000    0.19000000
   15.36388969  101.98000336    0.05000000    0.19000000
   15.36694431  101.34899902    0.05000000    0.19000000
   15.37027836  107.72000122    0.05000000    0.19000000
   15.37333393  106.57499695    0.05000000    0.19000000
   15.37666702   95.53739929    0.05000000    0.19000000
   15.38000011  102.02600098    0.05000000    0.19000000
   15.38249969  103.09600067    0.05000000    0.19000000
   15.38361073  103.21800232    0.05000000    0.19000000
   15.38694477  100.82299805    0.05000000    0.19000000
   15.39000034  101.95999908    0.05000000    0.19000000
   15.39333344   99.41320038    0.05000000    0.19000000
   15.39666653  100.94300079    0.05000000    0.19000000
   15.40249920  100.94300079    0.05000000    0.19000000
   15.40666676   97.59680176    0.05000000    0.19000000
   15.40972137  116.00800323    0.05000000    0.19000000
   15.41305542  105.72000122    0.05000000    0.19000000
   15.41583252  116.06600189    0.05000000    0.19000000
   15.41666698  101.39900208    0.05000000    0.19000000
   15.42000008  109.03800201    0.05000000    0.19000000
   15.42333412  104.20899963    0.05000000    0.19000000
   15.42638874  106.85700226    0.05000000    0.19000000
   15.42972279  117.30599976    0.05000000    0.19000000
   15.43277836  103.83699799    0.05000000    0.19000000
   15.43611145  106.29499817    0.05000000    0.19000000
   15.43944454  103.02600098    0.05000000    0.19000000
   15.44527817  103.02600098    0.05000000    0.19000000
   15.44944477  104.46199799    0.05000000    0.19000000
   15.45277786  110.98500061    0.05000000    0.19000000
   15.45583344  104.41799927    0.05000000    0.19000000
   15.45916653  161.61900330    0.05000000    0.19000000
   15.46249962   89.10320282    0.05000000    0.19000000
   15.46555519  172.21600342    0.05000000    0.19000000
   15.46888828  105.65399933    0.05000000    0.19000000
   15.47194386  121.66999817    0.05000000    0.19000000
   15.47527695  106.55200195    0.05000000    0.19000000
   15.47861099  102.73000336    0.05000000    0.19000000
   15.48166656  104.17600250    0.05000000    0.19000000
   15.48249912   96.21920013    0.05000000    0.19000000
   15.48805618   96.21920013    0.05000000    0.19000000
   15.49222279   98.81430054    0.05000000    0.19000000
   15.49555588  102.07299805    0.05000000    0.19000000
   15.49888897  104.71299744    0.05000000    0.19000000
   15.50194454   94.76650238    0.05000000    0.19000000
   15.50527763   97.27429962    0.05000000    0.19000000
   15.50833321   94.91439819    0.05000000    0.19000000
   15.51166630  103.13600159    0.05000000    0.19000000
   15.51500034   97.60369873    0.05000000    0.19000000
   15.51583290   99.02269745    0.05000000    0.19000000
   15.51833344   96.36560059    0.05000000    0.19000000
   15.52166653   97.55999756    0.05000000    0.19000000
   15.52499962   94.90019989    0.05000000    0.19000000
   15.53111076   94.90019989    0.05000000    0.19000000
   15.53527832   95.76100159    0.05000000    0.19000000
   15.53833389   97.66950226    0.05000000    0.19000000
   15.54166698  105.16500092    0.05000000    0.19000000
   15.54500008  101.28700256    0.05000000    0.19000000
   15.54805565  100.03900146    0.05000000    0.19000000
   15.54916668   97.90519714    0.05000000    0.19000000
   15.55166721   96.55220032    0.05000000    0.19000000
   15.55500031   99.76869965    0.05000000    0.19000000
   15.55833340   94.52330017    0.05000000    0.19000000
   15.56138897   93.69490051    0.05000000    0.19000000
   15.56472206   96.35279846    0.05000000    0.19000000
   15.56777763   97.84320068    0.05000000    0.19000000
   15.57388878   97.84320068    0.05000000    0.19000000
   15.57805538  101.53399658    0.05000000    0.19000000
   15.58138847   92.81649780    0.05000000    0.19000000
   15.58249950   92.68299866    0.05000000    0.19000000
   15.58472157   94.78060150    0.05000000    0.19000000
   15.58805561  104.94300079    0.05000000    0.19000000
   15.59138870  111.21800232    0.05000000    0.19000000
   15.59444427  140.40400696    0.05000000    0.19000000
   15.59777737  101.62000275    0.05000000    0.19000000
   15.60083389  114.92500305    0.05000000    0.19000000
   15.60416698  144.20100403    0.05000000    0.19000000
   15.60750008  115.95500183    0.05000000    0.19000000
   15.61055565  119.99500275    0.05000000    0.19000000
   15.61666679  119.99500275    0.05000000    0.19000000
   15.62083340  107.92199707    0.05000000    0.19000000
   15.62416649  102.44799805    0.05000000    0.19000000
   15.62722206  107.15000153    0.05000000    0.19000000
   15.63055611  100.61100006    0.05000000    0.19000000
   15.63388920  106.56600189    0.05000000    0.19000000
   15.63694477   96.31890106    0.05000000    0.19000000
   15.64027786  108.29799652    0.05000000    0.19000000
   15.64333344   99.88110352    0.05000000    0.19000000
   15.64666653  103.01899719    0.05000000    0.19000000
   15.64916611  105.43099976    0.05000000    0.19000000
   15.65027714   97.62789917    0.05000000    0.19000000
   15.65361118  104.66899872    0.05000000    0.19000000
   15.65944386  104.66899872    0.05000000    0.19000000
   15.66361046  148.19999695    0.05000000    0.19000000
   15.66694450  108.88899994    0.05000000    0.19000000
   15.67027855  107.80300140    0.05000000    0.19000000
   15.67333412   92.01650238    0.05000000    0.19000000
   15.67666721  118.05100250    0.05000000    0.19000000
   15.67972279  101.20700073    0.05000000    0.19000000
   15.68249989   96.60340118    0.05000000    0.19000000
   15.68333340  123.71499634    0.05000000    0.19000000
   15.68666649  112.58300018    0.05000000    0.19000000
   15.69000053  100.90599823    0.05000000    0.19000000
   15.69305515   91.70939636    0.05000000    0.19000000
   15.69638920  115.40899658    0.05000000    0.19000000
   15.70249939  115.40899658    0.05000000    0.19000000
   15.70666695  134.90100098    0.05000000    0.19000000
   15.70972157  135.20700073    0.05000000    0.19000000
   15.71305561  132.74099731    0.05000000    0.19000000
   15.71583271  121.47200012    0.05000000    0.19000000
   15.71666622  123.37300110    0.05000000    0.19000000
   15.71999931  151.42599487    0.05000000    0.19000000
   15.72333336  111.57700348    0.05000000    0.19000000
   15.72638798  175.55200195    0.05000000    0.19000000
   15.72972202  137.41299438    0.05000000    0.19000000
   15.73277760  183.39399719    0.05000000    0.19000000
   15.73611164  132.88400269    0.05000000    0.19000000
   15.73944473  196.52999878    0.05000000    0.19000000
   15.74527836  196.52999878    0.05000000    0.19000000
   15.74944496  158.32699585    0.05000000    0.19000000
   15.75249958  140.25999451    0.05000000    0.19000000
   15.75583363  137.76699829    0.05000000    0.19000000
   15.75916672  136.92700195    0.05000000    0.19000000
   15.76222229  128.67599487    0.05000000    0.19000000
   15.76555538  116.57599640    0.05000000    0.19000000
   15.76888847  111.98600006    0.05000000    0.19000000
   15.77194405  105.50199890    0.05000000    0.19000000
   15.77527714  113.26300049    0.05000000    0.19000000
   15.77833271  117.19799805    0.05000000    0.19000000
   15.78166676  120.59999847    0.05000000    0.19000000
   15.78249931  127.18800354    0.05000000    0.19000000
   15.78805637  127.18800354    0.05000000    0.19000000
   15.79222298  125.84200287    0.05000000    0.19000000
   15.79555607  140.24499512    0.05000000    0.19000000
   15.79861164  129.62500000    0.05000000    0.19000000
   15.80194473  140.63600159    0.05000000    0.19000000
   15.80527782  137.47799683    0.05000000    0.19000000
   15.80833340  125.63999939    0.05000000    0.19000000
   15.81166649  145.72099304    0.05000000    0.19000000
   15.81472206  143.77299500    0.05000000    0.19000000
   15.81583309  137.30400085    0.05000000    0.19000000
   15.81833363  158.31700134    0.05000000    0.19000000
   15.82166672  149.79899597    0.05000000    0.19000000
   15.82499981  179.01100159    0.05000000    0.19000000
   15.83083344  179.01100159    0.05000000    0.19000000
   15.83500004  142.88699341    0.05000000    0.19000000
   15.83833313  133.96699524    0.05000000    0.19000000
   15.84166622  124.96800232    0.05000000    0.19000000
   15.84472179  122.19400024    0.05000000    0.19000000
   15.84805489  129.53500366    0.05000000    0.19000000
   15.84916592  121.93399811    0.05000000    0.19000000
   15.85138893  127.63700104    0.05000000    0.19000000
   15.85472298  127.63899994    0.05000000    0.19000000
   15.85805607  137.95199585    0.05000000    0.19000000
   15.86111164  142.93800354    0.05000000    0.19000000
   15.86444473  115.92700195    0.05000000    0.19000000
   15.86777782  119.51100159    0.05000000    0.19000000
   15.87388897  119.51100159    0.05000000    0.19000000
   15.87805557  112.58000183    0.05000000    0.19000000
   15.88111115  112.63899994    0.05000000    0.19000000
   15.88249969  104.37599945    0.05000000    0.19000000
   15.88472176  105.78099823    0.05000000    0.19000000
   15.88805580  107.57800293    0.05000000    0.19000000
   15.89138889  102.21900177    0.05000000    0.19000000
   15.89444447   96.90350342    0.05000000    0.19000000
   15.89777756  111.55699921    0.05000000    0.19000000
   15.90111065   93.01850128    0.05000000    0.19000000
   15.90416622   99.82949829    0.05000000    0.19000000
   15.90749931   98.57199860    0.05000000    0.19000000
   15.91055489   92.64869690    0.05000000    0.19000000
   15.91666698   92.64869690    0.05000000    0.19000000
   15.92083359   92.87879944    0.05000000    0.19000000
   15.92416668   95.62899780    0.05000000    0.19000000
   15.92722225   99.47350311    0.05000000    0.19000000
   15.93055630   99.02110291    0.05000000    0.19000000
   15.93361092  107.79599762    0.05000000    0.19000000
   15.93694496  117.00700378    0.05000000    0.19000000
   15.94027805  120.75499725    0.05000000    0.19000000
   15.94333363  128.82400513    0.05000000    0.19000000
   15.94666672  124.21700287    0.05000000    0.19000000
   15.94916630   93.62129974    0.05000000    0.19000000
   15.95027733  103.57800293    0.05000000    0.19000000
   15.95361137   88.07700348    0.05000000    0.19000000
   15.95944405   88.07700348    0.05000000    0.19000000
   15.96361065   90.62010193    0.05000000    0.19000000
   15.96694374   94.44180298    0.05000000    0.19000000
   15.96999931   82.90399933    0.05000000    0.19000000
   15.97333336   89.89479828    0.05000000    0.19000000
   15.97666645   88.64140320    0.05000000    0.19000000
   15.97972202   87.02799988    0.05000000    0.19000000
   15.98249912   89.62999725    0.05000000    0.19000000
   15.98333359   84.06600189    0.05000000    0.19000000
   15.98666668   92.19750214    0.05000000    0.19000000
   15.99000072   92.35130310    0.05000000    0.19000000
   15.99305534   94.15830231    0.05000000    0.19000000
   15.99638939   95.93569946    0.05000000    0.19000000
   16.00222206   95.93569946    0.05000000    0.19000000
   16.00638962   89.06079865    0.05000000    0.19000000
   16.00972176   88.19490051    0.05000000    0.19000000
   16.01305580   83.90859985    0.05000000    0.19000000
   16.01583290   87.03420258    0.05000000    0.19000000
   16.01638794   89.85479736    0.05000000    0.19000000
   16.01972198   84.39230347    0.05000000    0.19000000
   16.02305603   86.22540283    0.05000000    0.19000000
   16.02611160   82.10089874    0.05000000    0.19000000
   16.02944374   85.17130280    0.05000000    0.19000000
   16.03277779   92.54530334    0.05000000    0.19000000
   16.03583336   91.16549683    0.05000000    0.19000000
   16.03916550   88.41320038    0.05000000    0.19000000
   16.04527664   88.41320038    0.05000000    0.19000000
   16.04944420   85.24639893    0.05000000    0.19000000
   16.05249977   92.84760284    0.05000000    0.19000000
   16.05583191   87.70659637    0.05000000    0.19000000
   16.05888748   98.28050232    0.05000000    0.19000000
   16.06222153   87.07859802    0.05000000    0.19000000
   16.06555557   83.95359802    0.05000000    0.19000000
   16.06861115   87.63189697    0.05000000    0.19000000
   16.07194519   94.41400146    0.05000000    0.19000000
   16.07527924   98.48539734    0.05000000    0.19000000
   16.07833481   96.67680359    0.05000000    0.19000000
   16.08166695   90.75150299    0.05000000    0.19000000
   16.08250046   86.80829620    0.05000000    0.19000000
   16.08805656   86.80829620    0.05000000    0.19000000
   16.09222221   90.31459808    0.05000000    0.19000000
   16.09527779  106.99099731    0.05000000    0.19000000
   16.09861183   87.09349823    0.05000000    0.19000000
   16.11611176   89.13890076    0.05000000    0.19000000
   16.11861038   94.93599701    0.05000000    0.19000000
   16.12194443   94.07830048    0.05000000    0.19000000
   16.12500000   89.90570068    0.05000000    0.19000000
   16.13111115   89.90570068    0.05000000    0.19000000
   16.13527679   95.24530029    0.05000000    0.19000000
   16.13833237   90.67389679    0.05000000    0.19000000
   16.14166641   88.67279816    0.05000000    0.19000000
   16.14500046  111.26699829    0.05000000    0.19000000
   16.14805603  105.94999695    0.05000000    0.19000000
   16.14944458   93.80039978    0.05000000    0.19000000
   16.15194321  113.83100128    0.05000000    0.19000000
   16.15499878   92.78230286    0.05000000    0.19000000
   16.15833282  100.75700378    0.05000000    0.19000000
   16.16166687  100.80500031    0.05000000    0.19000000
   16.16472244   98.82630157    0.05000000    0.19000000
   16.16805458   99.03790283    0.05000000    0.19000000
   16.17388916   99.03790283    0.05000000    0.19000000
   16.17805481  106.14499664    0.05000000    0.19000000
   16.18138885   99.06159973    0.05000000    0.19000000
   16.18277740  100.66400146    0.05000000    0.19000000
   16.18499947  101.05999756    0.05000000    0.19000000
   16.18805504   94.44010162    0.05000000    0.19000000
   16.19138718  103.47299957    0.05000000    0.19000000
   16.19472122   97.21559906    0.05000000    0.19000000
   16.19777679   98.28970337    0.05000000    0.19000000
   16.20111275   91.57900238    0.05000000    0.19000000
   16.20444489  107.76699829    0.05000000    0.19000000
   16.20750046   83.45369720    0.05000000    0.19000000
   16.21083450  101.83200073    0.05000000    0.19000000
   16.21666718  101.83200073    0.05000000    0.19000000
   16.22083473   38.48770142    0.05000000    0.19000000
   16.22416687   -1.00000000    0.05000000    0.19000000
   16.22722244   -1.00000000    0.05000000    0.19000000
   16.23055649   -1.00000000    0.05000000    0.19000000
   16.23388863   -1.00000000    0.05000000    0.19000000
   16.23694420   -1.00000000    0.05000000    0.19000000
   16.24027824   -1.00000000    0.05000000    0.19000000
   16.24361229  126.37599945    0.05000000    0.19000000
   16.24666786  160.51300049    0.05000000    0.19000000
   16.24944496  123.83200073    0.05000000    0.19000000
   16.25055504  129.21299744    0.05000000    0.19000000
   16.25361061  104.43599701    0.05000000    0.19000000
   16.25972176  104.43599701    0.05000000    0.19000000
   16.26361084   -1.00000000    0.05000000    0.19000000
   16.26694489   -1.00000000   -1.00000000   -1.00000000
   16.27027702  276.48199463    0.05000000    0.19000000
   16.27333260   -1.00000000    0.05000000    0.19000000
   16.27666664   83.81189728    0.05000000    0.19000000
   16.28000069  108.99900055    0.05000000    0.19000000
   16.28277779   99.35820007    0.05000000    0.19000000
   16.28361130  104.00399780    0.05000000    0.19000000
   16.28694344  114.64299774    0.05000000    0.19000000
   16.28999901   94.92449951    0.05000000    0.19000000
   16.29333305  107.15599823    0.05000000    0.19000000
   16.29638863  104.31300354    0.05000000    0.19000000
   16.30249977  104.31300354    0.05000000    0.19000000
   16.30666542   98.83390045    0.05000000    0.19000000
   16.30972099   98.23539734    0.05000000    0.19000000
   16.31305504   93.86969757    0.05000000    0.19000000
   16.31611061   87.78959656    0.05000000    0.19000000
   16.31666756   97.15519714    0.05000000    0.19000000
   16.31972313  103.31300354    0.05000000    0.19000000
   16.32305717   94.82409668    0.05000000    0.19000000
   16.32638931  111.21199799    0.05000000    0.19000000
   16.32944489   99.37149811    0.05000000    0.19000000
   16.33277893  108.73899841    0.05000000    0.19000000
   16.33611107   99.06400299    0.05000000    0.19000000
   16.33916664   99.90579987    0.05000000    0.19000000
   16.34527779   99.90579987    0.05000000    0.19000000
   16.34944534  110.14299774    0.05000000    0.19000000
   16.35000038  101.66100311    0.05000000    0.19000000
   16.35305595  103.79299927    0.05000000    0.19000000
   16.35639000  103.18199921    0.05000000    0.19000000
   16.35972214  107.38400269    0.05000000    0.19000000
   16.36277771   98.13400269    0.05000000    0.19000000
   16.36611176  100.80100250    0.05000000    0.19000000
   16.36944389  102.66100311    0.05000000    0.19000000
   16.37249947  103.52400208    0.05000000    0.19000000
   16.37583351  111.98200226    0.05000000    0.19000000
   16.37888908   96.01580048    0.05000000    0.19000000
   16.38222313   99.69640350    0.05000000    0.19000000
   16.38277817   98.57189941    0.05000000    0.19000000
   16.38805580   98.57189941    0.05000000    0.19000000
   16.39222145  103.76499939    0.05000000    0.19000000
   16.39555550   96.17040253    0.05000000    0.19000000
   16.39861107  100.70600128    0.05000000    0.19000000
   16.40194321  107.28900146    0.05000000    0.19000000
   16.40527725  111.86900330    0.05000000    0.19000000
   16.40833282  100.01100159    0.05000000    0.19000000
   16.41166687   99.52649689    0.05000000    0.19000000
   16.41472244  107.11299896    0.05000000    0.19000000
   16.41611099  116.32800293    0.05000000    0.19000000
   16.41860962   98.24019623    0.05000000    0.19000000
   16.42166519  104.42099762    0.05000000    0.19000000
   16.42499924  103.20300293    0.05000000    0.19000000
   16.43111038  103.20300293    0.05000000    0.19000000
   16.43499947  103.60800171    0.05000000    0.19000000
   16.43833160  101.78199768    0.05000000    0.19000000
   16.44166565  103.77700043    0.05000000    0.19000000
   16.44472122  106.85700226    0.05000000    0.19000000
   16.44805527   97.44460297    0.05000000    0.19000000
   16.44944382  102.87500000    0.05000000    0.19000000
   16.45166779  113.35299683    0.05000000    0.19000000
   16.45499992  113.51899719    0.05000000    0.19000000
   16.45805550  150.69000244    0.05000000    0.19000000
   16.46138954  149.25999451    0.05000000    0.19000000
   16.46444511  351.58099365    0.05000000    0.19000000
   16.46666718  101.78199768    0.05000000    0.19000000
   16.46666718  103.77700043    0.05000000    0.19000000
   16.46694565  106.85700226    0.05000000    0.19000000
   16.46694565   97.44460297    0.05000000    0.19000000
   16.46694565  113.35299683    0.05000000    0.19000000
   16.46722221  113.51899719    0.05000000    0.19000000
   16.46722221  150.69000244    0.05000000    0.19000000
   16.46722221  149.25999451    0.05000000    0.19000000
   16.46916771   96.16480255    0.05000000    0.19000000
   16.47249985  213.32499695    0.05000000    0.19000000
   16.47583389  155.06700134    0.05000000    0.19000000
   16.47888947  132.54200745    0.05000000    0.19000000
   16.48222351  104.13300323    0.05000000    0.19000000
   16.48722267  104.13300323    0.05000000    0.19000000
   16.49138832  121.87999725    0.05000000    0.19000000
   16.49472237  121.59999847    0.05000000    0.19000000
   16.49777794  124.53700256    0.05000000    0.19000000
   16.50027847  119.06300354    0.05000000    0.19000000
   16.50166702  117.84799957    0.05000000    0.19000000
   16.50499916  114.47799683    0.05000000    0.19000000
   16.50805473  107.36599731    0.05000000    0.19000000
   16.51138878  123.21399689    0.05000000    0.19000000
   16.51472282  111.34100342    0.05000000    0.19000000
   16.51777840  209.13800049    0.05000000    0.19000000
   16.52111053   -1.00000000    0.05000000    0.19000000
   16.52416611   -1.00000000    0.05000000    0.19000000
   16.53416634  126.96700287    0.05000000    0.19000000
   16.53750038  121.36100006    0.05000000    0.19000000
   16.54055595  115.91600037    0.05000000    0.19000000
   16.54388809  111.39900208    0.05000000    0.19000000
   16.54722214  144.61599731    0.05000000    0.19000000
   16.55027771   -1.00000000    0.05000000    0.19000000
   16.55360985  176.77200317    0.05000000    0.19000000
   16.55694389   94.62809753    0.05000000    0.19000000
   16.55999947   98.76719666    0.05000000    0.19000000
   16.56333351  118.03700256    0.05000000    0.19000000
   16.56638718  139.21699524    0.05000000    0.19000000
   16.56694603  116.05100250    0.05000000    0.19000000
   16.57305717  116.05100250    0.05000000    0.19000000
   16.57722282  198.93800354    0.05000000    0.19000000
   16.58027840  115.16799927    0.05000000    0.19000000
   16.58361244  108.31900024    0.05000000    0.19000000
   16.58694458  107.47200012    0.05000000    0.19000000
   16.59000015  149.15100098    0.05000000    0.19000000
   16.59333420   98.35769653    0.05000000    0.19000000
   16.59666824  117.15200043    0.05000000    0.19000000
   16.59972191  110.51000214    0.05000000    0.19000000
   16.60027885   87.71299744    0.05000000    0.19000000
   16.60333443   93.41719818    0.05000000    0.19000000
   16.60666656   92.33879852    0.05000000    0.19000000
   16.60972214   99.54389954    0.05000000    0.19000000
   16.61583328   99.54389954    0.05000000    0.19000000
   16.62000084  100.03199768    0.05000000    0.19000000
   16.62333298  102.54900360    0.05000000    0.19000000
   16.62638855   98.88189697    0.05000000    0.19000000
   16.62972260   99.92859650    0.05000000    0.19000000
   16.63277817   96.21530151    0.05000000    0.19000000
   16.63361168  100.51100159    0.05000000    0.19000000
   16.63638878   97.87110138    0.05000000    0.19000000
   16.63972282  104.34300232    0.05000000    0.19000000
   16.64277840  111.60399628    0.05000000    0.19000000
   16.64611053   97.54440308    0.05000000    0.19000000
   16.64944458  113.08399963    0.05000000    0.19000000
   16.65250015  101.29499817    0.05000000    0.19000000
   16.65861130  101.29499817    0.05000000    0.19000000
   16.66277695   93.47519684    0.05000000    0.19000000
   16.66611099  102.28900146    0.05000000    0.19000000
   16.66694450   97.04039764    0.05000000    0.19000000
   16.66972160  101.34500122    0.05000000    0.19000000
   16.67305565  100.58499908    0.05000000    0.19000000
   16.67611122  105.08699799    0.05000000    0.19000000
   16.67944336   95.50370026    0.05000000    0.19000000
   16.68277740  101.15200043    0.05000000    0.19000000
   16.68583298   94.29180145    0.05000000    0.19000000
   16.68916512  125.57700348    0.05000000    0.19000000
   16.69222069  208.57200623    0.05000000    0.19000000
   16.69555473  112.60399628    0.05000000    0.19000000
   16.70166779  112.60399628    0.05000000    0.19000000
   16.70583344   95.39099884    0.05000000    0.19000000
   16.70888901   95.21160126    0.05000000    0.19000000
   16.71222305   86.56159973    0.05000000    0.19000000
   16.71527863   90.67569733    0.05000000    0.19000000
   16.71861076   93.58630371    0.05000000    0.19000000
   16.72194481   97.05899811    0.05000000    0.19000000
   16.72500038  100.94100189    0.05000000    0.19000000
   16.72833443  101.03900146    0.05000000    0.19000000
   16.73166656  102.87599945    0.05000000    0.19000000
   16.73388863  104.50599670    0.05000000    0.19000000
   16.73527718   99.66470337    0.05000000    0.19000000
   16.73861122   94.86399841    0.05000000    0.19000000
   16.74444389   94.86399841    0.05000000    0.19000000
   16.74861145  100.64499664    0.05000000    0.19000000
   16.75166702   92.83370209    0.05000000    0.19000000
   16.75499916   98.26249695    0.05000000    0.19000000
   16.75833321   98.60459900    0.05000000    0.19000000
   16.76138878  104.24600220    0.05000000    0.19000000
   16.76472282  101.86299896    0.05000000    0.19000000
   16.76722145  105.20600128    0.05000000    0.19000000
   16.76833344   96.90830231    0.05000000    0.19000000
   16.77166557   92.53849792    0.05000000    0.19000000
   16.77472115  101.68699646    0.05000000    0.19000000
   16.77805519  101.84899902    0.05000000    0.19000000
   16.78138924  250.04699707    0.05000000    0.19000000
   16.78722191  250.04699707    0.05000000    0.19000000
   16.79138756  184.65199280    0.05000000    0.19000000
   16.79472160  186.69099426    0.05000000    0.19000000
   16.79777718   -1.00000000    0.05000000    0.19000000
   16.80138779   -1.00000000    0.05000000    0.19000000
   16.80444336   -1.00000000    0.05000000    0.19000000
   16.80777740   -1.00000000    0.05000000    0.19000000
   16.81110954   -1.00000000    0.05000000    0.19000000
   16.81416512   -1.00000000    0.05000000    0.19000000
   16.81750107   -1.00000000    0.05000000    0.19000000
   16.82083511   -1.00000000    0.05000000    0.19000000
   16.82389069   -1.00000000    0.05000000    0.19000000
   16.83416748   -1.00000000    0.05000000    0.19000000
   16.83750153   -1.00000000    0.05000000    0.19000000
   16.84055710   -1.00000000    0.05000000    0.19000000
   16.84388924   -1.00000000    0.05000000    0.19000000
   16.84694481  112.52400208    0.05000000    0.19000000
   16.85027885  117.66500092    0.05000000    0.19000000
   16.85361099  102.44200134    0.05000000    0.19000000
   16.85666656  109.54299927    0.05000000    0.19000000
   16.86000061  116.37699890    0.05000000    0.19000000
   16.86333466  123.36299896    0.05000000    0.19000000
   16.86638832  130.75700378    0.05000000    0.19000000
   16.86722183  114.34999847    0.05000000    0.19000000
   16.87305641  114.34999847    0.05000000    0.19000000
   16.87694550  112.17199707    0.05000000    0.19000000
   16.88027763  103.14900208    0.05000000    0.19000000
   16.88361168   97.53970337    0.05000000    0.19000000
   16.88666725  107.11399841    0.05000000    0.19000000
   16.88999939  106.33000183    0.05000000    0.19000000
   16.89333344  103.51399994    0.05000000    0.19000000
   16.89638901  109.90899658    0.05000000    0.19000000
   16.89972115  112.62100220    0.05000000    0.19000000
   16.90055466  110.19200134    0.05000000    0.19000000
   16.90333366  103.75499725    0.05000000    0.19000000
   16.90666580  104.42400360    0.05000000    0.19000000
   16.90972137  106.00700378    0.05000000    0.19000000
   16.91583252  106.00700378    0.05000000    0.19000000
   16.92000008   97.51529694    0.05000000    0.19000000
   16.92305565  100.71900177    0.05000000    0.19000000
   16.92638779   98.18229675    0.05000000    0.19000000
   16.92972183  107.95500183    0.05000000    0.19000000
   16.93277740   98.84429932    0.05000000    0.19000000
   16.93388748  101.67700195    0.05000000    0.19000000
   16.93638802   94.17829895    0.05000000    0.19000000
   16.93972206  100.65599823    0.05000000    0.19000000
   16.94277763   97.85369873    0.05000000    0.19000000
   16.94610977   93.56060028    0.05000000    0.19000000
   16.94944382  111.00000000    0.05000000    0.19000000
   16.95250130   97.58760071    0.05000000    0.19000000
   16.95861244   97.58760071    0.05000000    0.19000000
   16.96277809   95.63020325    0.05000000    0.19000000
   16.96611214   99.79060364    0.05000000    0.19000000
   16.96722221  105.77500153    0.05000000    0.19000000
   16.96944427  103.05699921    0.05000000    0.19000000
   16.97277832  100.50700378    0.05000000    0.19000000
   16.97583389  101.31099701    0.05000000    0.19000000
   16.97916794  105.80200195    0.05000000    0.19000000
   16.98250008   96.04889679    0.05000000    0.19000000
   16.98555565  105.63700104    0.05000000    0.19000000
   16.98888969  102.65200043    0.05000000    0.19000000
   16.99222183  102.95899963    0.05000000    0.19000000
   16.99527740  100.68399811    0.05000000    0.19000000
   17.00138855  100.68399811    0.05000000    0.19000000
   17.00555611  101.07399750    0.05000000    0.19000000
   17.00888824  106.18599701    0.05000000    0.19000000
   17.01222229  104.23699951    0.05000000    0.19000000
   17.01527786  102.56800079    0.05000000    0.19000000
   17.01861000  104.89800262    0.05000000    0.19000000
   17.02166557  103.21399689    0.05000000    0.19000000
   17.02499962  111.78199768    0.05000000    0.19000000
   17.02833366  102.60299683    0.05000000    0.19000000
   17.03138924  102.54499817    0.05000000    0.19000000
   17.03388786   98.81700134    0.05000000    0.19000000
   17.03499985  101.18000031    0.05000000    0.19000000
   17.03833199  100.26200104    0.05000000    0.19000000
   17.04444313  100.26200104    0.05000000    0.19000000
   17.04861069   99.79820251    0.05000000    0.19000000
   17.05166626  103.14800262    0.05000000    0.19000000
   17.05499840  108.85199738    0.05000000    0.19000000
   17.05805397  116.33200073    0.05000000    0.19000000
   17.06138802  104.44499969    0.05000000    0.19000000
   17.06472206  142.40499878    0.05000000    0.19000000
   17.06722260  104.20400238    0.05000000    0.19000000
   17.06833458   99.87519836    0.05000000    0.19000000
   17.07166672  132.27799988    0.05000000    0.19000000
   17.07472229   98.23539734    0.05000000    0.19000000
   17.07805634  106.23100281    0.05000000    0.19000000
   17.08139038  112.35299683    0.05000000    0.19000000
   17.08722305  112.35299683    0.05000000    0.19000000
   17.09138870  109.72200012    0.05000000    0.19000000
   17.09444427  100.43000031    0.05000000    0.19000000
   17.09777832  101.68000031    0.05000000    0.19000000
   17.10055542   96.85430145    0.05000000    0.19000000
   17.10138893  137.50000000    0.05000000    0.19000000
   17.10472298  102.66400146    0.05000000    0.19000000
   17.10805511  103.91100311    0.05000000    0.19000000
   17.11111069   91.64340210    0.05000000    0.19000000
   17.11444473   96.79579926    0.05000000    0.19000000
   17.13722229   96.79579926    0.05000000    0.19000000
   17.14138794  108.95099640    0.05000000    0.19000000
   17.14444351  102.59200287    0.05000000    0.19000000
   17.14777756  102.54499817    0.05000000    0.19000000
   17.15083313  100.27200317    0.05000000    0.19000000
   17.15416718  105.41699982    0.05000000    0.19000000
   17.15749931  103.75499725    0.05000000    0.19000000
   17.16055489  113.00000000    0.05000000    0.19000000
   17.16388893  101.83100128    0.05000000    0.19000000
   17.16722107  106.35099792    0.05000000    0.19000000
   17.16805458  104.81800079    0.05000000    0.19000000
   17.17055511   98.85659790    0.05000000    0.19000000
   17.17388916  101.93099976    0.05000000    0.19000000
   17.18000031  101.93099976    0.05000000    0.19000000
   17.18388748  100.65200043    0.05000000    0.19000000
   17.18722153   94.44190216    0.05000000    0.19000000
   17.19055557   93.30339813    0.05000000    0.19000000
   17.19361115  100.43499756    0.05000000    0.19000000
   17.19694328   95.10669708    0.05000000    0.19000000
   17.20027924  104.85800171    0.05000000    0.19000000
   17.20138931   94.78600311    0.05000000    0.19000000
   17.20361137  110.52300262    0.05000000    0.19000000
   17.20694542  102.88800049    0.05000000    0.19000000
   17.21027946  101.17400360    0.05000000    0.19000000
   17.21333504  100.05799866    0.05000000    0.19000000
   17.21666718   99.73909760    0.05000000    0.19000000
   17.22277832   99.73909760    0.05000000    0.19000000
   17.22694588  105.65100098    0.05000000    0.19000000
   17.23000145  104.10199738    0.05000000    0.19000000
   17.23333359   99.27940369    0.05000000    0.19000000
   17.23472214  109.85199738    0.05000000    0.19000000
   17.23694420  113.08999634    0.05000000    0.19000000
   17.24027824  102.15499878    0.05000000    0.19000000
   17.24333382  106.15000153    0.05000000    0.19000000
   17.24666786  108.43699646    0.05000000    0.19000000
   17.25000000  105.05500031    0.05000000    0.19000000
   17.25305557  132.49899292    0.05000000    0.19000000
   17.25638962  101.49600220    0.05000000    0.19000000
   17.25944519  103.09600067    0.05000000    0.19000000
   17.26555634  103.09600067    0.05000000    0.19000000
   17.26972198  116.79599762    0.05000000    0.19000000
   17.27305603  107.59799957    0.05000000    0.19000000
   17.27611160  101.47899628    0.05000000    0.19000000
   17.27944374  118.51899719    0.05000000    0.19000000
   17.28249931  110.75900269    0.05000000    0.19000000
   17.28583336   97.38359833    0.05000000    0.19000000
   17.28916550  110.16899872    0.05000000    0.19000000
   17.29222107  104.12500000    0.05000000    0.19000000
   17.29555511   93.50569916    0.05000000    0.19000000
   17.29888916  111.21099854    0.05000000    0.19000000
   17.30138779  102.50299835    0.05000000    0.19000000
   17.30249977  111.35500336    0.05000000    0.19000000
   17.30833244  111.35500336    0.05000000    0.19000000
   17.31250000  110.59999847    0.05000000    0.19000000
   17.31583214  114.09600067    0.05000000    0.19000000
   17.31888962  108.68399811    0.05000000    0.19000000
   17.32222366  102.48799896    0.05000000    0.19000000
   17.32555580  123.05799866    0.05000000    0.19000000
   17.32861137  101.79000092    0.05000000    0.19000000
   17.33194542  104.04399872    0.05000000    0.19000000
   17.33472252  116.74700165    0.05000000    0.19000000
   17.33555603  106.84300232    0.05000000    0.19000000
   17.33889008  116.73600006    0.05000000    0.19000000
   17.34194565  124.97699738    0.05000000    0.19000000
   17.34527779  132.27999878    0.05000000    0.19000000
   17.35138893  132.27999878    0.05000000    0.19000000
   17.35527802  118.62799835    0.05000000    0.19000000
   17.35861206  139.06199646    0.05000000    0.19000000
   17.36194420  122.61199951    0.05000000    0.19000000
   17.36499977  110.69599915    0.05000000    0.19000000
   17.36805534  130.17300415    0.05000000    0.19000000
   17.36861038  120.71399689    0.05000000    0.19000000
   17.37194443  124.58699799    0.05000000    0.19000000
   17.37500000  127.55799866    0.05000000    0.19000000
   17.37833405  117.47000122    0.05000000    0.19000000
   17.38166618  127.03399658    0.05000000    0.19000000
   17.38472176  134.67500305    0.05000000    0.19000000
   17.38805580  147.30900574    0.05000000    0.19000000
   17.39416695  147.30900574    0.05000000    0.19000000
   17.39833260  113.16500092    0.05000000    0.19000000
   17.40138817  147.94700623    0.05000000    0.19000000
   17.40194321  134.01199341    0.05000000    0.19000000
   17.40527725  116.29599762    0.05000000    0.19000000
   17.40833282  126.00800323    0.05000000    0.19000000
   17.41166687  140.81199646    0.05000000    0.19000000
   17.41499901  134.65400696    0.05000000    0.19000000
   17.41805458  134.95500183    0.05000000    0.19000000
   17.42138863  136.18699646    0.05000000    0.19000000
   17.42472076  120.22399902    0.05000000    0.19000000
   17.42777634  124.04599762    0.05000000    0.19000000
   17.43111038  132.23899841    0.05000000    0.19000000
   17.43694305  132.23899841    0.05000000    0.19000000
   17.44111061  110.81900024    0.05000000    0.19000000
   17.44444275  124.19499969    0.05000000    0.19000000
   17.44749832  118.28500366    0.05000000    0.19000000
   17.45083427  101.87699890    0.05000000    0.19000000
   17.45388985  114.10700226    0.05000000    0.19000000
   17.45722389  116.96600342    0.05000000    0.19000000
   17.46055603  114.04699707    0.05000000    0.19000000
   17.46361160  120.79900360    0.05000000    0.19000000
