    HOUR (UT)   FLARE FACTOR    SKY TESTER    SUN TESTER
   11.54055595   -1.00000000   -1.00000000   -1.00000000
   11.56833363  130.24499512    4.82999992    1.91999996
   11.57138920  128.22399902    4.82999992    1.91999996
   11.57472229  125.85099792    4.80999994    1.94000006
   11.57805538  119.76100159    4.80999994    1.94000006
   11.58111095  130.88900757    4.80000019    1.94000006
   11.58444405  135.01899719    4.80000019    1.94000006
   11.58861065  135.01899719    4.78000021    1.96000004
   11.59277725  136.41200256    4.78000021    1.96000004
   11.59583282  134.59100342    4.76000023    1.96000004
   11.59916592  133.75399780    4.76000023    1.96000004
   11.60138893  130.26699829    4.73999977    1.96000004
   11.60277843  134.50599670    4.73999977    1.96000004
   11.60611153  130.05400085    4.73999977    1.98000002
   11.60916710  120.09600067    4.71999979    1.98000002
   11.61250019  125.66999817    4.69999981    1.98000002
   11.61583328  123.73799896    4.69999981    1.98000002
   11.61888885  127.90499878    4.69999981    2.00000000
   11.62222195  125.57700348    4.67999983    1.98000002
   11.62555599  124.74299622    4.65999985    1.98000002
   11.63138866  124.74299622    4.61999989    2.00000000
   11.63583279  127.81500244    4.61999989    2.00000000
   11.63888836  129.42100525    4.61999989    2.00000000
   11.64249992  128.77200317    4.59999990    2.01999998
   11.64583302  129.64500427    4.59999990    2.01999998
   11.64916611  129.28799438    4.59999990    2.00000000
   11.65222168  121.57900238    4.57999992    2.01999998
   11.65555477  123.76000214    4.55999994    2.00000000
   11.65861034  123.75299835    4.55999994    2.01999998
   11.66194439  124.18900299    4.55999994    2.01999998
   11.66527748  140.71800232    4.53999996    2.01999998
   11.66805553  132.25000000    4.53999996    2.01999998
   11.66888905  124.12400055    4.53999996    2.01999998
   11.67416668  124.12400055    4.53999996    2.01999998
   11.67833328  124.27500153    4.53000021    2.03999996
   11.68166733  122.08100128    4.51000023    2.03999996
   11.68472195  126.72000122    4.48999977    2.03999996
   11.68805599  122.69699860    4.48999977    2.03999996
   11.69138908  130.69700623    4.46999979    2.03999996
   11.69444466  122.75800323    4.46999979    2.03999996
   11.69777775  121.13400269    4.44999981    2.03999996
   11.70083332  125.54799652    4.42999983    2.05999994
   11.70166683  130.65499878    4.42999983    2.05999994
   11.70444393  123.59300232    4.40999985    2.05999994
   11.70777798  123.07199860    4.40999985    2.05999994
   11.71083355  128.95300293    4.40999985    2.05999994
   11.71694374  128.95300293    4.40999985    2.05999994
   11.72111034  123.83899689    4.40999985    2.05999994
   11.72444439  143.23399353    4.40999985    2.07999992
   11.72777748  136.21099854    4.38999987    2.07999992
   11.73083305  128.09500122    4.38999987    2.07999992
   11.73416710  129.32299805    4.38999987    2.07999992
   11.73500061  122.23600006    4.38999987    2.07999992
   11.73777771  124.16699982    4.38999987    2.07999992
   11.74111176  131.92700195    4.36999989    2.07999992
   11.74416733  127.41799927    4.34999990    2.09999990
   11.74750042  127.45999908    4.32999992    2.09999990
   11.75083351  120.05699921    4.32999992    2.09999990
   11.75388908  126.85700226    4.30999994    2.09999990
   11.76000023  126.85700226    4.28999996    2.09999990
   11.76416683  122.28500366    4.26999998    2.09999990
   11.76722240  131.75300598    4.26999998    2.09999990
   11.76833344  121.80100250    4.26999998    2.09999990
   11.77083302  125.17800140    4.26000023    2.09999990
   11.77416611  120.49700165    4.23999977    2.09999990
   11.77722168  132.24000549    4.21999979    2.09999990
   11.78055573  125.25099945    4.21999979    2.11999989
   11.78388977  121.22899628    4.19999981    2.11999989
   11.78694534  122.60299683    4.17999983    2.11999989
   11.79027843  123.39800262    4.15999985    2.11999989
   11.79361153  120.51200104    4.15999985    2.11999989
   11.79666710  123.35800171    4.13999987    2.11999989
   11.80277824  123.35800171    4.09999990    2.13000011
   11.80694485  119.98400116    4.07999992    2.13000011
   11.81027794  118.76899719    4.07999992    2.13000011
   11.81333351  122.15299988    4.03999996    2.13000011
   11.81666660  119.41400146    4.05999994    2.13000011
   11.81972218  123.44899750    4.03999996    2.13000011
   11.82305527  128.94500732    4.01999998    2.13000011
   11.82638836  125.70300293    4.00000000    2.15000010
   11.82944393  116.68900299    3.99000001    2.15000010
   11.83277798  120.44200134    3.99000001    2.15000010
   11.83500004  121.12799835    3.97000003    2.15000010
   11.83638859  122.25099945    3.97000003    2.15000010
   11.83972168  129.66000366    3.95000005    2.15000010
   11.84555531  129.66000366    3.95000005    2.15000010
   11.84972191  123.77600098    3.91000009    2.15000010
   11.85305595  121.89800262    3.93000007    2.17000008
   11.85611153  119.50299835    3.91000009    2.17000008
   11.85944462  123.54100037    3.89000010    2.17000008
   11.86277771  119.64199829    3.86999989    2.17000008
   11.86583328  113.34799957    3.84999990    2.17000008
   11.86833382  116.76799774    3.82999992    2.17000008
   11.86944485  120.19499969    3.82999992    2.17000008
   11.87277794  114.60399628    3.80999994    2.17000008
   11.87583351  120.48200226    3.80999994    2.17000008
   11.87916660  120.65100098    3.80999994    2.19000006
   11.88249969  122.24199677    3.78999996    2.19000006
   11.88833332  122.24199677    3.76999998    2.19000006
   11.89249992  121.98899841    3.75000000    2.19000006
   11.89583302  120.31800079    3.75000000    2.19000006
   11.89916611  116.45099640    3.75000000    2.19000006
   11.90166664  122.82900238    3.75000000    2.19000006
   11.90249920  118.67099762    3.75000000    2.19000006
   11.90583324  118.69400024    3.73000002    2.21000004
   11.90888882  129.10899353    3.72000003    2.19000006
   11.91222191  119.83999634    3.72000003    2.21000004
   11.91555500  112.41000366    3.70000005    2.21000004
   11.91861153  118.77400208    3.68000007    2.21000004
   11.92194462  117.34300232    3.68000007    2.21000004
   11.92527771  118.07299805    3.66000009    2.21000004
   11.93138885  118.07299805    3.66000009    2.21000004
   11.93555546  114.81300354    3.61999989    2.21000004
   11.93861103  118.53600311    3.59999990    2.23000002
   11.94194412  113.35099792    3.57999992    2.23000002
   11.94527817  118.25900269    3.57999992    2.23000002
   11.94833374  115.91000366    3.55999994    2.23000002
   11.95166683  114.66200256    3.55999994    2.23000002
   11.95472240  114.98899841    3.55999994    2.23000002
   11.95805550  114.84899902    3.53999996    2.23000002
   11.96138859  115.25299835    3.53999996    2.25000000
   11.96444416  115.38099670    3.53999996    2.25000000
   11.96777725  119.41899872    3.51999998    2.25000000
   11.96833324  115.07399750    3.51999998    2.23000002
   11.97416592  115.07399750    3.50000000    2.25000000
   11.97888851  113.94799805    3.50000000    2.25000000
   11.98222160  120.09999847    3.50000000    2.25000000
   11.98527813  122.35199738    3.48000002    2.25000000
   11.98861122  122.82499695    3.48000002    2.25000000
   11.99194431  116.28700256    3.46000004    2.25000000
   11.99499989  114.29100037    3.46000004    2.25000000
   11.99833393  120.85700226    3.45000005    2.25000000
   12.00166702  113.94100189    3.46000004    2.25000000
   12.00194454  113.44599915    3.46000004    2.25000000
   12.00527763  114.89600372    3.45000005    2.26999998
   12.00861073  110.19000244    3.45000005    2.26999998
   12.01166630  118.01399994    3.45000005    2.26999998
   12.01694393  118.01399994    3.43000007    2.26999998
   12.02111053  113.16699982    3.41000009    2.26999998
   12.02444458  113.26699829    3.41000009    2.26999998
   12.02750015  109.77600098    3.41000009    2.26999998
   12.03083324  113.82800293    3.39000010    2.28999996
   12.03416729  110.04199982    3.39000010    2.28999996
   12.03500080  115.35399628    3.39000010    2.26999998
   12.03777790  117.43599701    3.36999989    2.28999996
   12.04083347  109.66200256    3.36999989    2.26999998
   12.04416752  117.86299896    3.34999990    2.28999996
   12.04722309  112.83100128    3.32999992    2.28999996
   12.05055618  118.32900238    3.32999992    2.28999996
   12.05388927  121.99500275    3.30999994    2.28999996
   12.05972195  121.99500275    3.28999996    2.28999996
   12.06388950  120.64800262    3.28999996    2.28999996
   12.06722260  112.43599701    3.28999996    2.28999996
   12.06833363  122.47699738    3.30999994    2.28999996
   12.07083321  113.95099640    3.28999996    2.28999996
   12.07388878  110.19599915    3.26999998    2.30999994
   12.07722187  109.66100311    3.26999998    2.30999994
   12.08027744  114.98500061    3.25000000    2.28999996
   12.08361053  113.66999817    3.25000000    2.30999994
   12.08694458  131.74099731    3.23000002    2.30999994
   12.09000015  122.09799957    3.23000002    2.30999994
   12.09333324  141.82899475    3.21000004    2.30999994
   12.09666634  137.86999512    3.20000005    2.30999994
   12.10277843  137.86999512    3.20000005    2.32999992
   12.10694504  140.65100098    3.18000007    2.32999992
   12.11000061  129.08999634    3.18000007    2.32999992
   12.11333370  121.41200256    3.18000007    2.30999994
   12.11666679  133.95500183    3.18000007    2.32999992
   12.11972237  134.09899902    3.16000009    2.32999992
   12.12305546  138.54200745    3.14000010    2.32999992
   12.12611103  127.67099762    3.14000010    2.32999992
   12.12944412  126.47899628    3.14000010    2.32999992
   12.13277817  127.66699982    3.11999989    2.32999992
   12.13500023  123.90299988    3.11999989    2.32999992
   12.13638878  123.48600006    3.11999989    2.32999992
   12.13944435  125.49299622    3.09999990    2.32999992
   12.14555550  125.49299622    3.07999992    2.32999992
   12.14972210  123.44699860    3.05999994    2.32999992
   12.15277767  117.45500183    3.07999992    2.32999992
   12.15611076  120.35600281    3.05999994    2.32999992
   12.15944386  122.45200348    3.05999994    2.32999992
   12.16277695  119.74500275    3.05999994    2.32999992
   12.16583252  122.13099670    3.05999994    2.34999990
   12.16833401  114.63600159    3.03999996    2.34999990
   12.16972256  107.25900269    3.05999994    2.34999990
   12.17277813  111.70800018    3.03999996    2.34999990
   12.17611122  125.68599701    3.01999998    2.34999990
   12.17916679  112.60800171    3.01999998    2.34999990
   12.18249989  131.56100464    3.00000000    2.34999990
   12.18833351  131.56100464    3.00000000    2.34999990
   12.19250011  134.64900208    2.98000002    2.34999990
   12.19583321  110.88400269    2.98000002    2.34999990
   12.19888878  122.80899811    2.96000004    2.36999989
   12.20166683  116.68900299    2.96000004    2.36999989
   12.20277786  116.14399719    2.94000006    2.34999990
   12.20583344  110.13800049    2.94000006    2.34999990
   12.20916653  113.93499756    2.94000006    2.36999989
   12.21222210  108.96199799    2.94000006    2.36999989
   12.21555519  125.72599792    2.93000007    2.36999989
   12.21888828  118.65699768    2.93000007    2.36999989
   12.22194386  112.34999847    2.91000009    2.36999989
   12.22527695  109.65599823    2.91000009    2.36999989
   12.23111057  109.65599823    2.89000010    2.36999989
   12.23527813  131.89199829    2.89000010    2.36999989
   12.23861122  135.39799500    2.89000010    2.39000010
   12.24166679  117.80799866    2.86999989    2.39000010
   12.24499989  107.78299713    2.84999990    2.39000010
   12.24833393  117.13300323    2.84999990    2.39000010
   12.25166702  107.43000031    2.84999990    2.39000010
   12.25472260  115.14700317    2.82999992    2.39000010
   12.25805569  110.74099731    2.84999990    2.39000010
   12.26138878  108.42299652    2.84999990    2.39000010
   12.26444435  111.18900299    2.82999992    2.39000010
   12.26777744  111.95500183    2.82999992    2.39000010
   12.26833344  111.13600159    2.82999992    2.39000010
   12.27416611  111.13600159    2.80999994    2.39000010
   12.27833271  114.86499786    2.80999994    2.40000010
   12.28138828  109.13700104    2.80999994    2.40000010
   12.28472233  110.66600037    2.78999996    2.40000010
   12.28777790  111.09100342    2.78999996    2.40000010
   12.29111195  112.16300201    2.76999998    2.40000010
   12.29444504  116.68299866    2.76999998    2.40000010
   12.29750061  108.85600281    2.75000000    2.40000010
   12.30083370  111.06500244    2.75000000    2.40000010
   12.30166721  108.52400208    2.75000000    2.40000010
   12.30444431  112.83799744    2.75000000    2.40000010
   12.30749989  109.04399872    2.73000002    2.40000010
   12.31083393  110.43099976    2.73000002    2.40000010
   12.31694412  110.43099976    2.73000002    2.40000010
   12.32111073  115.22100067    2.71000004    2.40000010
   12.32416630  115.27200317    2.71000004    2.40000010
   12.32750034  111.39900208    2.69000006    2.40000010
   12.33083344  120.44499969    2.69000006    2.40000010
   12.33388901  115.60299683    2.69000006    2.40000010
   12.33500004  109.52500153    2.69000006    2.40000010
   12.33777714  112.43699646    2.67000008    2.42000008
   12.34083271  109.39700317    2.69000006    2.42000008
   12.34416676  112.19699860    2.67000008    2.42000008
   12.34722233  128.31900024    2.69000006    2.42000008
   12.35055637  114.38899994    2.67000008    2.42000008
   12.35388947  115.22599792    2.67000008    2.42000008
   12.35972214  115.22599792    2.66000009    2.42000008
   12.36388969  114.10900116    2.66000009    2.42000008
   12.36722279  119.50800323    2.64000010    2.42000008
   12.36833382  116.51999664    2.66000009    2.42000008
   12.37083340  114.05899811    2.66000009    2.42000008
   12.37388897  112.49199677    2.64000010    2.42000008
   12.37722206  112.84500122    2.64000010    2.44000006
   12.38027763  105.72399902    2.64000010    2.44000006
   12.38361073  119.19000244    2.64000010    2.44000006
   12.38694477  114.18499756    2.64000010    2.44000006
   12.39027786  115.97100067    2.64000010    2.42000008
   12.39333344  116.98600006    2.64000010    2.44000006
   12.39666653  119.95999908    2.61999989    2.44000006
   12.40249920  119.95999908    2.61999989    2.44000006
   12.40666676  108.51699829    2.61999989    2.44000006
   12.40999985  105.99099731    2.61999989    2.46000004
   12.41305542  109.86100006    2.61999989    2.44000006
   12.41638851  113.10900116    2.61999989    2.44000006
   12.41972256  117.48899841    2.61999989    2.44000006
   12.42277813  117.98999786    2.61999989    2.44000006
   12.42611122  112.47200012    2.59999990    2.44000006
   12.42944431  114.34899902    2.59999990    2.46000004
   12.43249989  116.01200104    2.59999990    2.46000004
   12.43500042  111.54000092    2.57999992    2.46000004
   12.43638897  116.02600098    2.57999992    2.46000004
   12.43944454  109.43499756    2.57999992    2.46000004
   12.44555569  109.43499756    2.57999992    2.46000004
   12.44972229  116.76799774    2.55999994    2.46000004
   12.45277786  111.09700012    2.55999994    2.46000004
   12.45611095  117.48200226    2.55999994    2.46000004
   12.45916653  112.20700073    2.55999994    2.46000004
   12.46249962  111.67299652    2.53999996    2.46000004
   12.46583271  106.98400116    2.53999996    2.46000004
   12.46833324  106.71600342    2.51999998    2.46000004
   12.46944427  109.71499634    2.51999998    2.46000004
   12.47249985  111.37400055    2.51999998    2.46000004
   12.47583294  118.15899658    2.51999998    2.46000004
   12.47916603  108.97499847    2.50000000    2.46000004
   12.48222160  115.76200104    2.50000000    2.48000002
   12.48833370  115.76200104    2.48000002    2.48000002
   12.49250031  111.65799713    2.48000002    2.48000002
   12.49555588  105.46700287    2.46000004    2.46000004
   12.49888897  110.19100189    2.44000006    2.48000002
   12.50166702  110.28900146    2.44000006    2.48000002
   12.50249958  103.77500153    2.44000006    2.48000002
   12.50555515  106.04299927    2.44000006    2.48000002
   12.50888920  109.48999786    2.44000006    2.48000002
   12.51222229  113.30999756    2.42000008    2.48000002
   12.51527786  107.26399994    2.42000008    2.48000002
   12.51861095  109.70999908    2.42000008    2.48000002
   12.52166653  103.80999756    2.42000008    2.48000002
   12.52499962  103.28399658    2.40000010    2.48000002
   12.53111076  103.28399658    2.40000010    2.48000002
   12.53527832  107.90499878    2.42000008    2.48000002
   12.53861141  110.66799927    2.42000008    2.48000002
   12.54166698  109.55400085    2.42000008    2.48000002
   12.54500008  102.30400085    2.40000010    2.50000000
   12.54833412  106.51599884    2.40000010    2.48000002
   12.55138874  101.49800110    2.42000008    2.50000000
   12.55472279  107.11599731    2.40000010    2.48000002
   12.55777836  106.49700165    2.40000010    2.50000000
   12.56111145  111.19100189    2.40000010    2.50000000
   12.56444454  103.62599945    2.40000010    2.50000000
   12.56750011  111.32099915    2.40000010    2.50000000
   12.56833363  109.99099731    2.40000010    2.50000000
   12.58916664  109.99099731    2.40000010    2.51999998
   12.59333324  111.48799896    2.40000010    2.50000000
   12.59638882  111.43599701    2.40000010    2.50000000
   12.59972191  106.19799805    2.40000010    2.50000000
   12.60166740  109.97200012    2.40000010    2.51999998
   12.60333347  106.12300110    2.40000010    2.50000000
   12.60638905  110.24199677    2.40000010    2.50000000
   12.60972214  106.46099854    2.40000010    2.50000000
   12.61305618  105.49199677    2.40000010    2.50000000
   12.61611176  111.94599915    2.39000010    2.50000000
   12.61944485  103.17299652    2.39000010    2.50000000
   12.62250042  111.57299805    2.36999989    2.51999998
   12.62583351  110.10900116    2.36999989    2.50000000
   12.63194466  110.10900116    2.36999989    2.51999998
   12.63611126  108.80000305    2.39000010    2.51999998
   12.63916683  109.33899689    2.36999989    2.50000000
   12.64249992  112.81700134    2.36999989    2.51999998
   12.64555550  107.58599854    2.34999990    2.51999998
   12.64888859  106.12799835    2.34999990    2.51999998
   12.65222168  109.54799652    2.34999990    2.51999998
   12.65527725  113.14600372    2.34999990    2.51999998
   12.65861034  107.99299622    2.34999990    2.51999998
   12.66194439  106.60399628    2.32999992    2.51999998
   12.66499996  104.88600159    2.32999992    2.51999998
   12.66833401  108.41500092    2.32999992    2.51999998
   12.66888905  116.11699677    2.32999992    2.53999996
   12.67472267  116.11699677    2.30999994    2.51999998
   12.67888927  111.32299805    2.30999994    2.51999998
   12.68222237  102.68800354    2.28999996    2.53999996
   12.68527794  107.43099976    2.28999996    2.51999998
   12.68861103  109.77600098    2.28999996    2.51999998
   12.69166660  107.08200073    2.26999998    2.53999996
   12.69499969  114.08300018    2.26999998    2.53999996
   12.69833374  107.36299896    2.26999998    2.53999996
   12.70138836  112.43900299    2.26999998    2.53999996
   12.70222187  108.02999878    2.26999998    2.53999996
   12.70499992  105.78700256    2.26999998    2.53999996
   12.70833302  104.25199890    2.26999998    2.53999996
   12.71166611  110.24500275    2.25000000    2.53999996
   12.71749973  110.24500275    2.23000002    2.53999996
   12.72166634  110.62100220    2.23000002    2.53999996
   12.72499943  111.50599670    2.21000004    2.53999996
   12.72805500  116.56099701    2.21000004    2.53999996
   12.73138809  109.81900024    2.21000004    2.53999996
   12.73472214  110.07199860    2.21000004    2.53999996
   12.73555565  108.93000031    2.21000004    2.53999996
   12.73833370  115.25900269    2.19000006    2.53999996
   12.74138927  116.94200134    2.21000004    2.53999996
   12.74472237  113.42500305    2.21000004    2.53999996
   12.74777794  111.93900299    2.21000004    2.53999996
   12.75111103  116.62400055    2.19000006    2.53999996
   12.75444412  114.43499756    2.19000006    2.53999996
   12.76027775  114.43499756    2.19000006    2.53999996
   12.76444435  112.42600250    2.19000006    2.53999996
   12.76777744  108.98000336    2.19000006    2.55999994
   12.76888847  110.45999908    2.19000006    2.53999996
   12.77138901  106.61399841    2.19000006    2.55999994
   12.77472210  111.38300323    2.19000006    2.55999994
   12.77805519  111.96600342    2.17000008    2.53999996
   12.78111076  116.39499664    2.17000008    2.55999994
   12.78444481  120.22699738    2.17000008    2.55999994
   12.78777790  110.66400146    2.17000008    2.53999996
   12.79083347  110.45300293    2.17000008    2.55999994
   12.79416752  109.78900146    2.17000008    2.55999994
   12.79722309  108.11199951    2.17000008    2.55999994
   12.80333328  108.11199951    2.15000010    2.55999994
   12.80749989  112.03900146    2.17000008    2.55999994
   12.81055546  109.38800049    2.15000010    2.55999994
   12.81388950  118.15799713    2.17000008    2.55999994
   12.81694412  113.87300110    2.15000010    2.55999994
   12.82027817  105.08999634    2.17000008    2.55999994
   12.82361126  107.28600311    2.15000010    2.55999994
   12.82666683  107.77799988    2.17000008    2.55999994
   12.82999992  112.19599915    2.15000010    2.55999994
   12.83333302  115.09999847    2.15000010    2.55999994
   12.83555508  117.80999756    2.15000010    2.55999994
   12.83666611  119.48400116    2.15000010    2.57999992
   12.84000015  105.90000153    2.15000010    2.57999992
   12.84611034  105.90000153    2.15000010    2.57999992
   12.85027790  116.00099945    2.13000011    2.55999994
   12.85333347  116.42099762    2.15000010    2.57999992
   12.85666752  114.70200348    2.13000011    2.57999992
   12.86000061  110.61900330    2.13000011    2.55999994
   12.86305618  110.58599854    2.13000011    2.57999992
   12.86638927  112.96600342    2.13000011    2.55999994
   12.86888885  116.70200348    2.13000011    2.57999992
   12.86999989  111.08599854    2.13000011    2.57999992
   12.87333393  109.28900146    2.13000011    2.57999992
   12.87666702  111.69300079    2.13000011    2.57999992
   12.87972260  111.82800293    2.11999989    2.59999990
   12.88305569  105.83499908    2.11999989    2.57999992
   12.88888836  105.83499908    2.11999989    2.57999992
   12.89305496  115.48500061    2.11999989    2.57999992
   12.89638901  108.87599945    2.11999989    2.57999992
   12.89944458  107.53800201    2.11999989    2.57999992
   12.90222168  120.11699677    2.11999989    2.57999992
   12.90305519  109.16100311    2.11999989    2.57999992
   12.90638828  120.04399872    2.11999989    2.59999990
   12.90972137  115.72499847    2.11999989    2.57999992
   12.91277695  109.91799927    2.11999989    2.59999990
   12.91611099  109.46900177    2.11999989    2.57999992
   12.91944504  109.43199921    2.11999989    2.57999992
   12.92277813  114.39199829    2.11999989    2.57999992
   12.92583370  119.33499908    2.11999989    2.59999990
   12.93166733  119.33499908    2.09999990    2.57999992
   12.93583298  111.14900208    2.09999990    2.57999992
   12.93916702  115.59700012    2.09999990    2.57999992
   12.94222260  111.77300262    2.09999990    2.59999990
   12.94555569  112.67800140    2.09999990    2.59999990
   12.94888878  108.07399750    2.09999990    2.59999990
   12.95194435  117.26000214    2.09999990    2.57999992
   12.95527744  111.26799774    2.07999992    2.57999992
   12.95861053  113.80400085    2.07999992    2.57999992
   12.96166611  111.43599701    2.07999992    2.59999990
   12.96500015  115.80599976    2.07999992    2.59999990
   12.96833324  115.97899628    2.07999992    2.59999990
   12.96888828  114.32900238    2.07999992    2.59999990
   12.97472191  114.32900238    2.05999994    2.59999990
   12.97888851  106.36699677    2.07999992    2.59999990
   12.98194408  120.62200165    2.07999992    2.59999990
   12.98527813  116.51300049    2.07999992    2.59999990
   12.98833370  112.74299622    2.05999994    2.59999990
   12.99166679  112.30599976    2.05999994    2.59999990
   12.99499989  109.92500305    2.05999994    2.59999990
   12.99805546  112.83300018    2.05999994    2.61999989
   13.00138855  112.71399689    2.05999994    2.59999990
   13.00222206  118.66600037    2.05999994    2.59999990
   13.00500011  109.52600098    2.03999996    2.59999990
   13.00805569  111.30500031    2.03999996    2.59999990
   13.01138878  104.11799622    2.03999996    2.59999990
   13.01749992  104.11799622    2.01999998    2.59999990
   13.02166653  108.26899719    2.01999998    2.59999990
   13.02472210  115.62999725    2.00000000    2.61999989
   13.02805519  114.52999878    2.00000000    2.61999989
   13.03138828  110.19699860    2.00000000    2.61999989
   13.03444481  105.33599854    1.98000002    2.61999989
   13.03555584  108.97299957    1.98000002    2.59999990
   13.03833389  114.62300110    1.98000002    2.61999989
   13.04138947  106.12999725    1.98000002    2.61999989
   13.04472256  111.92900085    1.98000002    2.59999990
   13.04777813  111.10800171    1.98000002    2.61999989
   13.05111122  113.16799927    1.98000002    2.61999989
   13.05444431  115.12200165    1.98000002    2.61999989
   13.06027794  115.12200165    1.98000002    2.61999989
   13.06444454  112.52600098    1.98000002    2.61999989
   13.06777763  113.18199921    1.98000002    2.61999989
   13.06888866  108.16699982    1.98000002    2.61999989
   13.07138920  111.62100220    1.98000002    2.61999989
   13.07444477  110.47399902    1.98000002    2.59999990
   13.07777786  123.84799957    1.98000002    2.61999989
   13.08083344  113.14600372    1.96000004    2.61999989
   13.08416653  120.61399841    1.94000006    2.64000010
   13.08749962  116.01599884    1.94000006    2.61999989
   13.09055519  114.26699829    1.94000006    2.61999989
   13.09388828  120.12300110    1.94000006    2.61999989
   13.09722233  115.90799713    1.91999996    2.64000010
   13.10305595  115.90799713    1.89999998    2.61999989
   13.10722256  117.31099701    1.89999998    2.61999989
   13.11055565  121.99400330    1.89999998    2.64000010
   13.11361122  113.52600098    1.88000000    2.64000010
   13.11694431  116.98799896    1.86000001    2.61999989
   13.12027836  117.75399780    1.86000001    2.64000010
   13.12333393  113.66799927    1.86000001    2.64000010
   13.12666702  118.89700317    1.85000002    2.64000010
   13.13000011  117.33699799    1.85000002    2.61999989
   13.13305569  114.73000336    1.85000002    2.61999989
   13.13555527  118.58300018    1.85000002    2.64000010
   13.13694477  116.12999725    1.85000002    2.64000010
   13.14000034  111.13300323    1.85000002    2.64000010
   13.14611053  111.13300323    1.85000002    2.64000010
   13.14999962  109.35800171    1.85000002    2.61999989
   13.15333271  125.17400360    1.85000002    2.64000010
   13.15666676  128.91099548    1.85000002    2.64000010
   13.15972137  115.88500214    1.83000004    2.64000010
   13.16305542  111.80500031    1.80999994    2.64000010
   13.16638851  114.73799896    1.80999994    2.64000010
   13.16888905  119.98600006    1.83000004    2.64000010
   13.17000008  108.26699829    1.83000004    2.64000010
   13.17305565  111.08799744    1.80999994    2.64000010
   13.17638874  114.13099670    1.80999994    2.64000010
   13.17972279  114.48699951    1.80999994    2.61999989
   13.18277836  126.40000153    1.80999994    2.64000010
   13.18888855  126.40000153    1.78999996    2.64000010
   13.19305515  108.96399689    1.78999996    2.64000010
   13.19611073  110.89900208    1.78999996    2.64000010
   13.19944477  111.91100311    1.78999996    2.66000009
   13.20222187  126.17600250    1.78999996    2.64000010
   13.20305538  114.36599731    1.78999996    2.64000010
   13.20611095  122.47799683    1.80999994    2.66000009
   13.20944405  117.01799774    1.78999996    2.64000010
   13.21249962  115.77899933    1.78999996    2.64000010
   13.21583271  107.83399963    1.78999996    2.64000010
   13.21916580  115.86900330    1.78999996    2.64000010
   13.22222137  116.32900238    1.78999996    2.66000009
   13.22555542  115.05400085    1.78999996    2.64000010
   13.23166656  115.05400085    1.76999998    2.66000009
   13.23583317  113.04900360    1.78999996    2.66000009
   13.23916721  112.72599792    1.76999998    2.66000009
   13.24222279  116.08599854    1.76999998    2.66000009
   13.24555588  114.31300354    1.76999998    2.64000010
   13.24861145  114.91799927    1.76999998    2.66000009
   13.25194454  116.27100372    1.78999996    2.66000009
   13.25527763  119.50099945    1.78999996    2.66000009
   13.25833321  120.08499908    1.78999996    2.66000009
   13.26166630  115.97000122    1.78999996    2.66000009
   13.26500034  117.73200226    1.78999996    2.66000009
   13.26805496  125.12100220    1.78999996    2.66000009
   13.26888847  124.37200165    1.78999996    2.66000009
   13.27444458  124.37200165    1.78999996    2.66000009
   13.27861118  118.96600342    1.78999996    2.66000009
   13.28194427  117.93900299    1.78999996    2.66000009
   13.28500080  117.52500153    1.78999996    2.66000009
   13.28833389  114.77100372    1.78999996    2.66000009
   13.29166698  107.24700165    1.78999996    2.66000009
   13.29472256  116.20400238    1.78999996    2.66000009
   13.29805565  115.00900269    1.78999996    2.66000009
   13.30138874  115.41699982    1.78999996    2.66000009
   13.30222225  116.56600189    1.80999994    2.66000009
   13.30500031  116.37100220    1.80999994    2.66000009
   13.30805588  117.60299683    1.80999994    2.66000009
   13.31138897  118.03500366    1.80999994    2.66000009
   13.31750011  118.03500366    1.80999994    2.66000009
   13.32138920  119.09300232    1.78999996    2.64000010
   13.32472229  120.90899658    1.78999996    2.66000009
   13.32805538  116.01100159    1.78999996    2.66000009
   13.33111095  120.66300201    1.76999998    2.66000009
   13.33444405  121.41999817    1.76999998    2.67000008
   13.33555508  122.40899658    1.76999998    2.66000009
   13.33805561  114.31700134    1.75000000    2.66000009
   13.34111118  113.26300049    1.75000000    2.66000009
   13.34444427  126.83200073    1.76999998    2.66000009
   13.34777737  124.46900177    1.76999998    2.66000009
   13.35083389  128.60499573    1.75000000    2.66000009
   13.35416698  110.04699707    1.75000000    2.66000009
   13.36027813  110.04699707    1.73000002    2.66000009
   13.36444473  114.51200104    1.71000004    2.67000008
   13.36750031  120.97200012    1.71000004    2.67000008
   13.36888885  115.59500122    1.71000004    2.67000008
   13.37138939  120.39800262    1.71000004    2.66000009
   13.37444496  119.38899994    1.69000006    2.66000009
   13.37777805  119.12200165    1.69000006    2.67000008
   13.38111115  121.35199738    1.69000006    2.66000009
   13.38416672  128.33999634    1.71000004    2.67000008
   13.38749981  113.46299744    1.71000004    2.67000008
   13.39055538  120.91699982    1.71000004    2.67000008
   13.39388847  117.46800232    1.69000006    2.67000008
   13.39722252  114.23100281    1.71000004    2.67000008
   13.40305519  114.23100281    1.69000006    2.67000008
   13.40722179  116.75700378    1.69000006    2.69000006
   13.41055489  120.31500244    1.69000006    2.67000008
   13.41361046  111.77500153    1.69000006    2.67000008
   13.41694450  112.31500244    1.66999996    2.67000008
   13.42000008  111.63200378    1.64999998    2.67000008
   13.42333412  119.70999908    1.64999998    2.67000008
   13.42666721  118.74099731    1.64999998    2.67000008
   13.42972279  117.38999939    1.66999996    2.67000008
   13.43305588  110.79399872    1.64999998    2.67000008
   13.43555546  114.45899963    1.64999998    2.67000008
   13.43666649  118.62799835    1.66999996    2.67000008
   13.43972206  114.84200287    1.64999998    2.67000008
   13.44583321  114.84200287    1.64999998    2.67000008
   13.44999981  120.37699890    1.64999998    2.67000008
   13.45333290  116.14499664    1.64999998    2.67000008
   13.45638847  117.33599854    1.64999998    2.67000008
   13.45972157  115.08899689    1.64999998    2.69000006
   13.46305561  118.89800262    1.64999998    2.67000008
   13.46611118  115.18299866    1.64999998    2.67000008
   13.46888828  110.87200165    1.64999998    2.69000006
   13.46999931  110.06700134    1.64999998    2.67000008
   13.47305489  118.89399719    1.64999998    2.67000008
   13.47638798  118.24199677    1.64999998    2.69000006
   13.47972202  115.03399658    1.64999998    2.67000008
   13.48277760  118.16999817    1.66999996    2.67000008
   13.48888874  118.16999817    1.64999998    2.69000006
   13.49277782  115.20500183    1.66999996    2.69000006
   13.49611092  114.40499878    1.64999998    2.69000006
   13.49944496  111.44499969    1.64999998    2.69000006
   13.50222206  118.61100006    1.64999998    2.69000006
   13.50305557  112.27500153    1.64999998    2.67000008
   13.50611115  116.48799896    1.64999998    2.69000006
   13.50944424  112.11499786    1.63000000    2.69000006
   13.51277733  118.95899963    1.63000000    2.69000006
   13.51583290  107.50900269    1.63000000    2.69000006
   13.51916599  119.01799774    1.63000000    2.67000008
   13.52250004  109.80699921    1.63000000    2.67000008
   13.52555561  117.73600006    1.63000000    2.67000008
   13.53166676  117.73600006    1.63000000    2.69000006
   13.53583336  110.58300018    1.63000000    2.69000006
   13.53888893  114.38700104    1.63000000    2.67000008
   13.54222298  112.18699646    1.63000000    2.69000006
   13.54555607  112.59600067    1.63000000    2.69000006
   13.54861164  111.66200256    1.63000000    2.69000006
   13.55194473  121.80599976    1.61000001    2.69000006
   13.55500031  111.94000244    1.61000001    2.69000006
   13.55833340  117.38800049    1.60000002    2.69000006
   13.56166649  118.98699951    1.60000002    2.69000006
   13.56472206  113.27400208    1.60000002    2.69000006
   13.56805515  117.18499756    1.60000002    2.69000006
   13.56888866  116.48400116    1.60000002    2.69000006
   13.57444477  116.48400116    1.60000002    2.69000006
   13.57861137  112.38300323    1.60000002    2.69000006
   13.58194447  107.58699799    1.60000002    2.69000006
   13.58500004  113.98100281    1.60000002    2.69000006
   13.60277843  110.84899902    1.58000004    2.69000006
   13.60500050  112.56300354    1.58000004    2.69000006
   13.60833359  117.03199768    1.58000004    2.71000004
   13.61138916  114.48999786    1.55999994    2.71000004
   13.61750031  114.48999786    1.55999994    2.69000006
   13.62166691  114.08399963    1.53999996    2.69000006
   13.62472248  116.29199982    1.55999994    2.69000006
   13.62805557  110.77999878    1.53999996    2.69000006
   13.63138866  127.22899628    1.55999994    2.71000004
   13.63444424  116.38200378    1.53999996    2.69000006
   13.63583279  115.93099976    1.53999996    2.71000004
   13.63833332  111.73300171    1.55999994    2.69000006
   13.64166641  124.12000275    1.55999994    2.69000006
   13.64472198  110.76999664    1.55999994    2.69000006
   13.64805508  119.05300140    1.55999994    2.71000004
   13.65111065  123.46800232    1.53999996    2.71000004
   13.65444374  117.43900299    1.51999998    2.69000006
   13.66027737  117.43900299    1.51999998    2.71000004
   13.66444397  121.06700134    1.51999998    2.69000006
   13.66777802  115.24700165    1.50000000    2.71000004
   13.66916656  120.03600311    1.50000000    2.69000006
   13.67138958  108.22499847    1.50000000    2.71000004
   13.67472267  113.56999969    1.50000000    2.71000004
   13.67777824  122.47100067    1.50000000    2.71000004
   13.68111134  115.09799957    1.48000002    2.71000004
   13.68444443  116.72200012    1.50000000    2.71000004
   13.68750000  120.34100342    1.48000002    2.71000004
   13.69083309  118.51300049    1.48000002    2.71000004
   13.69388866  112.50000000    1.48000002    2.71000004
   13.69722271  116.96499634    1.48000002    2.71000004
   13.70333290  116.96499634    1.46000004    2.71000004
   13.70722198  123.99500275    1.46000004    2.71000004
   13.71055508  122.19899750    1.44000006    2.71000004
   13.71388912  118.79499817    1.44000006    2.71000004
   13.71694374  118.84500122    1.41999996    2.71000004
   13.72027779  122.22699738    1.41999996    2.71000004
   13.72361088  121.81700134    1.41999996    2.71000004
   13.72666645  115.49700165    1.41999996    2.71000004
   13.72999954  118.74700165    1.41999996    2.71000004
   13.73305511  121.38700104    1.41999996    2.71000004
   13.73583317  113.64199829    1.41999996    2.71000004
   13.73694515  119.86799622    1.41999996    2.71000004
   13.74027824  115.11699677    1.41999996    2.71000004
   13.74611092  115.11699677    1.44000006    2.71000004
   13.75027752  114.02700043    1.44000006    2.71000004
   13.75333309  114.74099731    1.41999996    2.71000004
   13.75666714  117.25399780    1.41999996    2.73000002
   13.75972176  114.19000244    1.39999998    2.71000004
   13.76305580  117.91400146    1.39999998    2.73000002
   13.76638889  119.06600189    1.38000000    2.71000004
   13.76916599  118.82800293    1.38000000    2.73000002
   13.76999950  112.72200012    1.38000000    2.71000004
   13.77333355  117.85600281    1.38000000    2.71000004
   13.77638817  122.42199707    1.36000001    2.71000004
   13.77972221  117.26499939    1.38000000    2.71000004
   13.78277779  117.43900299    1.36000001    2.71000004
   13.78888893  117.43900299    1.38000000    2.71000004
   13.79305553  121.45099640    1.38000000    2.71000004
   13.79611111  108.20700073    1.38000000    2.71000004
   13.79944515  111.31999969    1.39999998    2.73000002
   13.80249977  110.27700043    1.38000000    2.73000002
   13.80305576  115.81600189    1.38000000    2.73000002
   13.80638885  113.31400299    1.38000000    2.73000002
   13.80944443  115.93399811    1.38000000    2.73000002
   13.81277752  117.28199768    1.38000000    2.71000004
   13.81583309  120.72000122    1.38000000    2.73000002
   13.81916618  117.84300232    1.38000000    2.71000004
   13.82250023  109.99900055    1.36000001    2.73000002
   13.82555580  123.46800232    1.36000001    2.73000002
   13.83166695  123.46800232    1.34000003    2.73000002
   13.83583260  117.89499664    1.33000004    2.73000002
   13.83638859  115.21099854    1.33000004    2.73000002
   13.83972168  124.74299622    1.34000003    2.73000002
   13.84277725  116.64600372    1.34000003    2.73000002
   13.84611034  116.91200256    1.34000003    2.73000002
   13.84916592  122.37400055    1.34000003    2.73000002
   13.85249996  118.89199829    1.34000003    2.71000004
   13.85583401  116.35199738    1.34000003    2.73000002
   13.85888958  112.86699677    1.34000003    2.73000002
   13.86222267  115.74400330    1.33000004    2.75000000
   13.86555576  114.26499939    1.33000004    2.75000000
   13.86861134  114.12200165    1.34000003    2.75000000
   13.86916637  115.72299957    1.34000003    2.75000000
   13.87444496  115.72299957    1.34000003    2.73000002
   13.87861156  115.31300354    1.33000004    2.73000002
   13.88194466  122.18599701    1.33000004    2.73000002
   13.88527775  106.22699738    1.33000004    2.73000002
   13.88833332  119.16799927    1.34000003    2.73000002
   13.89166641  114.31500244    1.34000003    2.73000002
   13.89472198  124.20899963    1.34000003    2.73000002
   13.89805508  124.71199799    1.34000003    2.73000002
   13.90138817  117.74400330    1.34000003    2.75000000
   13.90249920  113.13200378    1.36000001    2.73000002
   13.90499973  117.19300079    1.36000001    2.73000002
   13.90833282  122.51000214    1.34000003    2.75000000
   13.91138840  120.16400146    1.34000003    2.73000002
   13.91750050  120.16400146    1.34000003    2.73000002
   13.92166710  115.80899811    1.34000003    2.73000002
   13.92472267  117.89499664    1.34000003    2.75000000
   13.92805576  121.00599670    1.33000004    2.73000002
   13.93138885  117.97599792    1.34000003    2.75000000
   13.93444443  115.89499664    1.33000004    2.75000000
   13.93583298  113.52300262    1.33000004    2.75000000
   13.93805599  112.23000336    1.34000003    2.73000002
   13.94138908  124.60199738    1.34000003    2.75000000
   13.94444466  116.12400055    1.34000003    2.75000000
   13.94777775  117.83899689    1.33000004    2.75000000
   13.95111084  116.02600098    1.33000004    2.75000000
   13.95416641  113.29499817    1.33000004    2.75000000
   13.96027756  113.29499817    1.30999994    2.73000002
   13.96444416  117.60800171    1.30999994    2.75000000
   13.96749973  111.56400299    1.30999994    2.75000000
   13.96916580  129.88400269    1.30999994    2.75000000
   13.97111034  118.87999725    1.30999994    2.75000000
   13.97444439  111.88899994    1.28999996    2.75000000
   13.97749996  120.81500244    1.28999996    2.75000000
   13.98083305  126.10800171    1.28999996    2.75000000
   13.98416710  113.97200012    1.28999996    2.75000000
   13.98722267  117.07199860    1.28999996    2.75000000
   13.99055576  110.93900299    1.26999998    2.75000000
   13.99361134  116.78800201    1.26999998    2.75000000
   13.99694443  123.43499756    1.26999998    2.75000000
   14.00305557  123.43499756    1.25000000    2.75000000
   14.00722218  115.54299927    1.25000000    2.75000000
   14.01055527  118.44300079    1.23000002    2.75000000
   14.01388931  122.29499817    1.23000002    2.75000000
   14.01694393  124.44400024    1.23000002    2.75000000
   14.02027798  124.63200378    1.21000004    2.75000000
   14.02333355  123.66899872    1.23000002    2.75000000
   14.02666664  118.10299683    1.23000002    2.75000000
   14.02999973  129.87399292    1.23000002    2.75000000
   14.03305531  119.11900330    1.23000002    2.75000000
   14.03611183  120.87100220    1.23000002    2.75000000
   14.03666687  124.20200348    1.23000002    2.75000000
   14.04000092  124.67900085    1.23000002    2.76999998
   14.04611111  124.67900085    1.23000002    2.75000000
   14.05000019  126.37400055    1.23000002    2.75000000
   14.05333328  127.54000092    1.23000002    2.76999998
   14.05666733  119.14199829    1.21000004    2.75000000
   14.05972195  125.66300201    1.23000002    2.75000000
   14.06305599  117.05699921    1.23000002    2.75000000
   14.06638908  121.49400330    1.23000002    2.73000002
   14.06944466  124.74600220    1.23000002    2.75000000
   14.06999969  129.19000244    1.23000002    2.75000000
   14.07333374  119.61799622    1.23000002    2.75000000
   14.07638836  128.57699585    1.23000002    2.75000000
   14.07972240  116.29299927    1.23000002    2.75000000
   14.08305550  113.42400360    1.23000002    2.75000000
   14.08888817  113.42400360    1.25000000    2.75000000
   14.09305477  126.29199982    1.23000002    2.75000000
   14.09611034  120.04100037    1.25000000    2.75000000
   14.09944439  118.40200043    1.25000000    2.75000000
   14.10249996  116.99600220    1.25000000    2.75000000
   14.10305595  109.20999908    1.25000000    2.75000000
   14.10638905  116.26599884    1.25000000    2.75000000
   14.10944462  120.90599823    1.26999998    2.76999998
   14.11277771  114.43699646    1.26999998    2.76999998
   14.11611176  116.33899689    1.25000000    2.75000000
   14.11916637  117.20500183    1.25000000    2.75000000
   14.12250042  119.92099762    1.25000000    2.75000000
   14.12555599  118.15799713    1.25000000    2.76999998
   14.13166714  118.15799713    1.25000000    2.75000000
   14.13583279  125.30300140    1.23000002    2.75000000
   14.13638878  119.09799957    1.23000002    2.75000000
   14.13944435  120.19699860    1.25000000    2.76999998
   14.14277744  122.51100159    1.21000004    2.75000000
   14.14611053  117.70200348    1.21000004    2.75000000
   14.14916611  120.75199890    1.21000004    2.76999998
   14.15249920  115.48200226    1.21000004    2.76999998
   14.15583324  120.13700104    1.19000006    2.76999998
   14.15888882  117.70400238    1.21000004    2.76999998
   14.16222191  110.95300293    1.21000004    2.76999998
   14.16527748  115.33399963    1.21000004    2.75000000
   14.16861153  113.37200165    1.21000004    2.76999998
   14.16972256  122.40100098    1.21000004    2.76999998
   14.17444515  122.40100098    1.21000004    2.76999998
   14.17861176  111.69799805    1.23000002    2.76999998
   14.18194485  112.94599915    1.21000004    2.76999998
   14.18500042  117.35900116    1.21000004    2.76999998
   14.18833351  112.99099731    1.21000004    2.76999998
   14.19166660  112.88899994    1.21000004    2.76999998
   14.19472218  107.79399872    1.21000004    2.76999998
   14.19805527  111.38300323    1.21000004    2.75000000
   14.20138836  108.15499878    1.21000004    2.76999998
   14.20305538  114.61299896    1.21000004    2.76999998
   14.20499992  112.22699738    1.21000004    2.76999998
   14.20805550  113.65899658    1.21000004    2.78999996
   14.21138859  113.30500031    1.23000002    2.76999998
   14.21722221  113.30500031    1.23000002    2.76999998
   14.22138882  113.15100098    1.21000004    2.76999998
   14.22472191  116.26200104    1.23000002    2.76999998
   14.22805500  118.17900085    1.23000002    2.76999998
   14.23111057  115.31099701    1.23000002    2.76999998
   14.23444462  114.65100098    1.25000000    2.76999998
   14.23638916  112.56900024    1.25000000    2.76999998
   14.23805618  117.55999756    1.25000000    2.76999998
   14.24111176  108.38899994    1.25000000    2.76999998
   14.24444485  115.55400085    1.25000000    2.76999998
   14.24750042  115.71199799    1.26999998    2.76999998
   14.25083351  123.06800079    1.25000000    2.76999998
   14.25416660  121.68599701    1.25000000    2.76999998
   14.26027775  121.68599701    1.25000000    2.76999998
   14.26444435  121.57700348    1.25000000    2.76999998
   14.26749992  111.47100067    1.26999998    2.76999998
   14.26972198  118.89900208    1.26999998    2.76999998
   14.27138901  120.28800201    1.26999998    2.76999998
   14.27444458  118.61699677    1.25000000    2.76999998
   14.27777767  121.81900024    1.25000000    2.76999998
   14.28083324  122.99199677    1.25000000    2.76999998
   14.28416729  117.83499908    1.25000000    2.76999998
   14.28750038  107.92400360    1.25000000    2.76999998
   14.29055595  116.40499878    1.23000002    2.76999998
   14.29388905  116.46900177    1.21000004    2.76999998
   14.29722309  120.45999908    1.21000004    2.76999998
   14.30305576  120.45999908    1.21000004    2.76999998
   14.30722237  126.54499817    1.21000004    2.78999996
   14.31027794  111.96199799    1.21000004    2.76999998
   14.31361103  118.87100220    1.21000004    2.78999996
   14.31694412  114.72100067    1.21000004    2.76999998
   14.31999969  119.94999695    1.21000004    2.78999996
   14.32333374  109.79599762    1.19000006    2.76999998
   14.32666683  111.41600037    1.21000004    2.76999998
   14.32972240  115.63200378    1.19000006    2.78999996
   14.33305550  113.08100128    1.19000006    2.76999998
   14.33611107  110.45099640    1.19000006    2.78999996
   14.33666611  110.98100281    1.19000006    2.78999996
   14.34000015  110.31700134    1.19000006    2.76999998
   14.34583282  110.31700134    1.19000006    2.78999996
   14.35000038  113.46600342    1.21000004    2.76999998
   14.35333347  113.08799744    1.21000004    2.78999996
   14.35638905  110.89299774    1.21000004    2.76999998
   14.35972214  116.32299805    1.25000000    2.76999998
   14.36305618  111.71099854    1.25000000    2.76999998
   14.36611176  116.63500214    1.25000000    2.76999998
   14.36944485  109.55799866    1.25000000    2.76999998
   14.36999989  112.75000000    1.25000000    2.78999996
   14.37305546  123.42299652    1.26999998    2.76999998
   14.37638855  118.09400177    1.26999998    2.76999998
   14.37944412  115.43599701    1.26999998    2.78999996
   14.38277817  125.63300323    1.26999998    2.76999998
   14.38861084  125.63300323    1.26999998    2.76999998
   14.39277744  116.84799957    1.28999996    2.78999996
   14.39611053  109.51799774    1.28999996    2.76999998
   14.39944458  115.57599640    1.28999996    2.76999998
   14.40249920  108.76799774    1.30999994    2.78999996
   14.40333271  110.99700165    1.30999994    2.76999998
   14.40611076  111.99800110    1.30999994    2.76999998
   14.40944386  110.69999695    1.30999994    2.76999998
   14.41249943  116.00700378    1.30999994    2.76999998
   14.41583252  113.73699951    1.30999994    2.76999998
   14.41916656  120.65499878    1.30999994    2.78999996
   14.42222214  114.08399963    1.30999994    2.76999998
   14.42555618  120.21399689    1.30999994    2.76999998
   14.43166733  120.21399689    1.30999994    2.76999998
   14.43583298  109.04299927    1.30999994    2.76999998
   14.43666649  110.15299988    1.28999996    2.76999998
   14.43944454  112.28399658    1.28999996    2.76999998
   14.44277763  116.30000305    1.26999998    2.76999998
   14.44583321  113.17299652    1.26999998    2.76999998
   14.44916630  117.96199799    1.26999998    2.76999998
   14.45249939  119.60099792    1.25000000    2.78999996
   14.45555496  119.81500244    1.25000000    2.78999996
   14.45888901  115.75800323    1.23000002    2.76999998
   14.46194458  104.73300171    1.21000004    2.76999998
   14.46527767  113.17199707    1.19000006    2.78999996
   14.46861076  117.39800262    1.16999996    2.78999996
   14.46999931  112.85900116    1.16999996    2.78999996
   14.47444439  112.85900116    1.14999998    2.78999996
   14.47861099  110.51000214    1.14999998    2.78999996
   14.48166656  108.26899719    1.13000000    2.78999996
   14.48500061  112.32399750    1.13000000    2.78999996
   14.48833370  115.89299774    1.14999998    2.78999996
   14.49138927  116.39499664    1.13000000    2.78999996
   14.49472237  122.37799835    1.11000001    2.78999996
   14.49805546  120.16000366    1.11000001    2.78999996
   14.50111103  118.96199799    1.09000003    2.78999996
   14.50333309  114.20999908    1.09000003    2.78999996
   14.50472260  113.59100342    1.09000003    2.78999996
   14.50805569  117.66899872    1.09000003    2.78999996
   14.51111126  117.34200287    1.09000003    2.78999996
   14.51722240  117.34200287    1.09000003    2.80999994
   14.52138901  107.93800354    1.09000003    2.78999996
   14.52472210  112.25099945    1.09000003    2.78999996
   14.52805519  116.09799957    1.09000003    2.78999996
   14.53111076  116.71499634    1.09000003    2.78999996
   14.53444481  112.09600067    1.09000003    2.78999996
   14.53666687  110.32900238    1.11000001    2.78999996
   14.53805637  113.93199921    1.11000001    2.78999996
   14.54138947  113.16799927    1.11000001    2.78999996
   14.54444504  111.78600311    1.11000001    2.78999996
   14.54777813  112.03099823    1.13000000    2.78999996
   14.55111122  112.75099945    1.11000001    2.78999996
   14.55416679  112.72699738    1.11000001    2.78999996
   14.56000042  112.72699738    1.13000000    2.78999996
   14.56416702  117.69899750    1.13000000    2.78999996
   14.56750011  113.87699890    1.11000001    2.78999996
   14.56999969  119.07399750    1.11000001    2.78999996
   14.57111073  112.21700287    1.11000001    2.78999996
   14.57444477  116.21900177    1.11000001    2.78999996
   14.57750034  110.98699951    1.13000000    2.78999996
   14.58083344  112.72200012    1.13000000    2.78999996
   14.58416653  103.33399963    1.13000000    2.78999996
   14.58722210  114.28800201    1.14999998    2.78999996
   14.59055519  113.44200134    1.13000000    2.78999996
   14.59388828  112.63600159    1.13000000    2.78999996
   14.59694386  113.04299927    1.14999998    2.78999996
   14.60305595  113.04299927    1.16999996    2.78999996
   14.62138939  114.48000336    1.16999996    2.78999996
   14.62444496  110.06099701    1.19000006    2.78999996
   14.62777805  105.87599945    1.19000006    2.78999996
   14.63111115  104.46700287    1.21000004    2.78999996
   14.63416672  115.35399628    1.23000002    2.78999996
   14.63749981  107.79599762    1.23000002    2.80999994
   14.64083290  113.65000153    1.25000000    2.78999996
   14.64611053  113.65000153    1.23000002    2.78999996
   14.65027714  113.77999878    1.23000002    2.80999994
   14.65333271  112.86199951    1.23000002    2.78999996
   14.65444374  113.91600037    1.23000002    2.78999996
   14.65722179  113.58699799    1.23000002    2.78999996
   14.66027737  123.35900116    1.21000004    2.78999996
   14.66361046  125.76200104    1.23000002    2.78999996
   14.66694450  111.64499664    1.21000004    2.78999996
   14.67000008  119.87000275    1.21000004    2.78999996
   14.67333412  123.57499695    1.21000004    2.78999996
   14.67638874  118.33200073    1.21000004    2.78999996
   14.67972279  113.20099640    1.21000004    2.78999996
   14.68305588  107.16899872    1.21000004    2.78999996
   14.68888855  107.16899872    1.21000004    2.78999996
   14.69305515  117.97899628    1.21000004    2.80999994
   14.69638920  113.68900299    1.19000006    2.78999996
   14.69944477  114.11900330    1.19000006    2.78999996
   14.70277786  111.79100037    1.19000006    2.78999996
   14.70583344  107.74900055    1.16999996    2.78999996
   14.70916653  113.93800354    1.16999996    2.78999996
   14.71249962  112.93499756    1.16999996    2.78999996
   14.71555519  109.83699799    1.14999998    2.78999996
   14.71888828  113.48500061    1.14999998    2.80999994
   14.72111034  113.46499634    1.13000000    2.78999996
   14.72277737  118.10600281    1.13000000    2.80999994
   14.72583294  110.05300140    1.14999998    2.80999994
   14.73166656  110.05300140    1.13000000    2.80999994
   14.73583317  112.17900085    1.11000001    2.80999994
   14.73916721  117.32499695    1.11000001    2.78999996
   14.74250031  107.73400116    1.11000001    2.80999994
   14.74583340  112.75199890    1.13000000    2.80999994
   14.74888897  106.83200073    1.13000000    2.80999994
   14.75222206  111.04399872    1.13000000    2.80999994
   14.75444412  112.21099854    1.14999998    2.80999994
   14.75583363  119.13400269    1.13000000    2.80999994
   14.75888920  114.91600037    1.14999998    2.80999994
   14.76222229  113.72499847    1.13000000    2.78999996
   14.76527786  116.73400116    1.13000000    2.80999994
   14.76861095  111.35299683    1.14999998    2.80999994
   14.77472210  111.35299683    1.11000001    2.80999994
   14.77861118  114.59999847    1.11000001    2.80999994
   14.78194427  114.28800201    1.11000001    2.80999994
   14.78527832  110.63899994    1.11000001    2.80999994
   14.78777790  109.72100067    1.11000001    2.80999994
   14.78888893  111.73899841    1.11000001    2.80999994
   14.79194450  109.62200165    1.11000001    2.80999994
   14.79527855  113.31700134    1.11000001    2.80999994
   14.79861164  106.14399719    1.13000000    2.80999994
   14.80166721  112.95700073    1.13000000    2.80999994
   14.80500031  114.35500336    1.13000000    2.80999994
   14.80805588  116.73400116    1.11000001    2.78999996
   14.81138897  120.17099762    1.11000001    2.80999994
   14.81750011  120.17099762    1.11000001    2.80999994
   14.82166672  111.77500153    1.11000001    2.80999994
   14.82472229  120.50700378    1.11000001    2.80999994
   14.82805538  113.61699677    1.11000001    2.80999994
   14.83138847  114.64600372    1.11000001    2.82999992
   14.83444405  118.62000275    1.11000001    2.80999994
   14.83777714  113.97599792    1.11000001    2.80999994
   14.84083271  113.23300171    1.09000003    2.80999994
   14.84416676  110.78199768    1.07000005    2.80999994
   14.84749985  116.04799652    1.07000005    2.80999994
   14.85055637  115.42800140    1.05999994    2.80999994
   14.85388947  111.96600342    1.05999994    2.82999992
   14.85444450  115.96299744    1.05999994    2.82999992
   14.86027813  115.96299744    1.05999994    2.80999994
   14.86444473  111.35900116    1.03999996    2.80999994
   14.86777782  115.38099670    1.03999996    2.80999994
   14.87083340  103.44100189    1.03999996    2.80999994
   14.87416649  105.14900208    1.01999998    2.80999994
   14.87750053  105.47299957    1.01999998    2.82999992
   14.88055611  108.48300171    1.03999996    2.82999992
   14.88388920  112.55999756    1.01999998    2.80999994
   14.88694477  109.75399780    1.01999998    2.82999992
   14.88777733  112.08200073    1.01999998    2.82999992
   14.89083290  104.96600342    1.01999998    2.80999994
   14.89388847  115.02600098    1.03999996    2.82999992
   14.89722252  109.04499817    1.03999996    2.80999994
   14.90305519  109.04499817    1.01999998    2.80999994
   14.90722179   95.23290253    1.01999998    2.82999992
   14.91055489  122.46900177    1.01999998    2.82999992
   14.91361046  112.18699646    1.01999998    2.80999994
   14.91694450  115.36000061    1.03999996    2.82999992
   14.92027855  116.27200317    1.03999996    2.80999994
   14.92111111  114.05599976    1.03999996    2.80999994
   14.92388916  117.06300354    1.03999996    2.82999992
   14.92694473  113.33399963    1.05999994    2.82999992
   14.93027782  108.22299957    1.05999994    2.80999994
   14.93361092  101.33499908    1.05999994    2.80999994
   14.93666649  110.24099731    1.07000005    2.80999994
   14.94000053  114.46800232    1.07000005    2.80999994
   14.94611073  114.46800232    1.07000005    2.80999994
   14.95027733  113.73999786    1.07000005    2.80999994
   14.95361137  107.51899719    1.07000005    2.80999994
   14.95444393  107.16600037    1.07000005    2.80999994
   14.95722198  110.95200348    1.09000003    2.80999994
   14.96027756  109.56400299    1.09000003    2.82999992
   14.96361065  114.85399628    1.09000003    2.82999992
   14.96694374  118.17400360    1.09000003    2.80999994
   14.96999931  115.60500336    1.09000003    2.80999994
   14.97333336  110.18499756    1.09000003    2.80999994
   14.97666645  119.61399841    1.09000003    2.80999994
   14.97972202  119.29799652    1.09000003    2.80999994
   14.98305511  114.27600098    1.09000003    2.80999994
   14.98888874  114.27600098    1.09000003    2.82999992
   14.99305534  116.16899872    1.09000003    2.82999992
   14.99611092  113.88800049    1.09000003    2.80999994
   14.99972248  115.58300018    1.09000003    2.80999994
   15.00305557  110.04100037    1.09000003    2.82999992
   15.00611115  119.21399689    1.09000003    2.80999994
   15.00944424  109.54699707    1.09000003    2.82999992
   15.01249981  109.66100311    1.09000003    2.82999992
   15.01583290  111.27100372    1.09000003    2.82999992
   15.01916599  112.99299622    1.09000003    2.82999992
   15.02111053  114.23799896    1.09000003    2.80999994
   15.02277756  108.87699890    1.09000003    2.82999992
   15.02583313  109.45200348    1.09000003    2.80999994
   15.03166676  109.45200348    1.07000005    2.80999994
   15.03583336  118.47499847    1.07000005    2.80999994
   15.03916740  116.64700317    1.07000005    2.80999994
   15.04222298  116.46800232    1.07000005    2.82999992
   15.04555607  115.27700043    1.05999994    2.80999994
   15.04861164  118.96399689    1.07000005    2.80999994
   15.05194473  116.63700104    1.05999994    2.82999992
   15.05444431  110.44400024    1.03999996    2.82999992
   15.05555534  119.09300232    1.03999996    2.82999992
   15.05861092  117.97100067    1.03999996    2.82999992
   15.06194496  112.12400055    1.01999998    2.80999994
   15.06527805  112.04499817    1.01999998    2.82999992
   15.06833363  109.80300140    1.01999998    2.80999994
   15.07444477  109.80300140    1.01999998    2.80999994
   15.07861137  121.38099670    1.01999998    2.82999992
   15.08194447  109.23699951    1.01999998    2.82999992
   15.08527756  114.04199982    1.01999998    2.82999992
   15.08777714  106.13099670    1.01999998    2.82999992
   15.08888817  111.18299866    1.01999998    2.82999992
   15.09194374  113.61000061    1.01999998    2.82999992
   15.09527779  112.62400055    1.01999998    2.82999992
   15.09861088  113.80200195    1.01999998    2.82999992
   15.10166740  108.66000366    1.00000000    2.82999992
   15.10500050  111.10900116    1.00000000    2.82999992
   15.10833359  113.33799744    1.00000000    2.82999992
   15.11138916  114.35900116    1.00000000    2.82999992
   15.11750031  114.35900116    1.01999998    2.80999994
   15.12166691  107.27500153    1.01999998    2.82999992
   15.12472248  105.30899811    1.01999998    2.82999992
   15.12805557  112.35299683    1.00000000    2.82999992
   15.13111115  111.28800201    0.98000002    2.82999992
   15.13444424  113.55100250    0.98000002    2.82999992
   15.13777733  115.15799713    1.00000000    2.82999992
   15.14083290  113.60900116    0.98000002    2.82999992
   15.14416695  107.91200256    0.98000002    2.82999992
   15.14750004  106.55400085    0.98000002    2.82999992
   15.15055561  114.38200378    0.98000002    2.82999992
   15.15388870  110.83399963    0.98000002    2.82999992
   15.15444374  109.62899780    0.98000002    2.82999992
   15.16027737  109.62899780    0.95999998    2.82999992
   15.16444397  115.04399872    0.95999998    2.82999992
   15.16750050  114.92500305    0.95999998    2.82999992
   15.17083359  108.73000336    0.95999998    2.82999992
   15.17388916  109.44899750    0.94000000    2.82999992
   15.17722225  107.48400116    0.94000000    2.82999992
   15.18055630  108.36699677    0.94000000    2.82999992
   15.18361092  113.84100342    0.92000002    2.82999992
   15.18694496  109.19100189    0.92000002    2.82999992
   15.18777752  109.70600128    0.92000002    2.82999992
   15.19055557  107.57599640    0.92000002    2.82999992
   15.19361115  109.68099976    0.89999998    2.82999992
   15.19694424  110.46600342    0.89999998    2.84999990
   15.20305538  110.46600342    0.88000000    2.82999992
   15.20722198  109.35600281    0.88000000    2.82999992
   15.21055508  109.71499634    0.88000000    2.84999990
   15.21361065  113.90399933    0.88000000    2.84999990
   15.21694374  114.91500092    0.88000000    2.84999990
   15.22027779  109.41600037    0.88000000    2.82999992
   15.22111034  109.24800110    0.88000000    2.82999992
   15.22388840  115.05200195    0.88000000    2.82999992
   15.22694397  116.73400116    0.88000000    2.82999992
   15.23027706  111.83999634    0.89999998    2.82999992
   15.23361111  111.57499695    0.89999998    2.82999992
   15.23666668  119.02500153    0.92000002    2.84999990
   15.24000072  116.13300323    0.92000002    2.82999992
   15.24583340  116.13300323    0.94000000    2.82999992
   15.25000000  117.42099762    0.94000000    2.82999992
   15.25333309  116.47699738    0.95999998    2.82999992
   15.25444412  118.49400330    0.95999998    2.82999992
   15.25694466  113.57599640    0.95999998    2.82999992
   15.26000023  112.72599792    0.98000002    2.82999992
   15.26333332  115.43399811    0.98000002    2.82999992
   15.26666641  120.27100372    1.00000000    2.82999992
   15.26972198  107.35099792    0.98000002    2.82999992
   15.27305508  115.71399689    1.00000000    2.84999990
   15.27638817  120.58599854    1.00000000    2.80999994
   15.27944374  114.57499695    1.00000000    2.82999992
   15.28277779  113.39399719    1.00000000    2.82999992
   15.28888893  113.39399719    1.01999998    2.82999992
   15.29305553  114.19499969    1.01999998    2.82999992
   15.29611111  120.45099640    1.01999998    2.82999992
   15.29944515  107.43000031    1.00000000    2.82999992
   15.30277824  115.39800262    1.01999998    2.82999992
   15.30583382  109.55899811    1.00000000    2.82999992
   15.30916691  112.36900330    0.98000002    2.82999992
   15.31222248  111.67700195    0.98000002    2.82999992
   15.31555557  115.11599731    0.92000002    2.84999990
   15.31888866  108.52899933    0.92000002    2.84999990
   15.32111073  112.29000092    0.88000000    2.82999992
   15.32250023  116.05000305    0.89999998    2.84999990
   15.32555580  113.90100098    0.88000000    2.84999990
   15.33166695  113.90100098    0.89999998    2.84999990
   15.33583260  110.92900085    0.89999998    2.84999990
   15.33888817  112.34600067    0.89999998    2.84999990
   15.34222221  107.50299835    0.88000000    2.84999990
   15.34555531  103.54000092    0.89999998    2.84999990
   15.34861088  105.79299927    0.89999998    2.84999990
   15.35194492  115.42199707    0.92000002    2.82999992
   15.35444450  113.74600220    0.92000002    2.84999990
   15.35555553  107.67800140    0.92000002    2.84999990
   15.35861111  103.75199890    0.95999998    2.84999990
   15.36194515  105.96900177    0.95999998    2.82999992
   15.36527824  111.65399933    0.95999998    2.82999992
   15.36833382  106.45500183    0.95999998    2.82999992
   15.37444496  106.45500183    1.01999998    2.82999992
   15.37861156  111.20200348    1.01999998    2.82999992
   15.38194466  110.75099945    1.03999996    2.82999992
   15.38500023  107.92400360    1.03999996    2.82999992
   15.38777733  111.97599792    1.03999996    2.82999992
   15.38888836  110.85900116    1.03999996    2.82999992
   15.39194393  103.96900177    1.03999996    2.82999992
   15.39527798  112.41300201    1.03999996    2.82999992
   15.39861107  107.13300323    1.03999996    2.82999992
   15.40166664  109.19799805    1.03999996    2.82999992
   15.40499973  106.82099915    1.03999996    2.82999992
   15.40833282  105.49099731    1.01999998    2.82999992
   15.41138840  105.88300323    1.03999996    2.82999992
   15.41722298  105.88300323    1.00000000    2.84999990
   15.42138958  107.03600311    1.00000000    2.82999992
   15.42472267  108.59600067    0.98000002    2.84999990
   15.42805576  113.41999817    1.00000000    2.84999990
   15.43111134  114.26899719    1.00000000    2.84999990
   15.43444443  119.10600281    1.00000000    2.82999992
   15.43777752  110.87400055    0.95999998    2.84999990
   15.44083309  106.72699738    0.94000000    2.84999990
   15.44416714  111.02300262    0.92000002    2.84999990
   15.44722271  110.79399872    0.92000002    2.84999990
   15.45055580  106.45500183    0.89999998    2.86999989
   15.45388889  112.30200195    0.86000001    2.84999990
   15.45472240  114.76000214    0.86000001    2.84999990
   15.46027756  114.76000214    0.83999997    2.84999990
   15.46444416  107.64600372    0.81999999    2.84999990
   15.46749973  111.45500183    0.80000001    2.84999990
   15.47083282  118.24500275    0.79000002    2.84999990
   15.47388840  106.81099701    0.79000002    2.84999990
   15.47722149  120.03800201    0.76999998    2.86999989
   15.48055553  116.18299866    0.76999998    2.84999990
   15.48388958  115.23400116    0.76999998    2.84999990
   15.48694515  111.64800262    0.76999998    2.86999989
   15.48777771  113.49700165    0.76999998    2.86999989
   15.49055576  119.67099762    0.76999998    2.84999990
   15.49388885  116.09500122    0.79000002    2.86999989
   15.49694443  117.93399811    0.79000002    2.84999990
   15.50305557  117.93399811    0.79000002    2.84999990
   15.50722218  109.96299744    0.79000002    2.84999990
   15.51027775  109.29900360    0.80000001    2.86999989
   15.51361084  114.38800049    0.81999999    2.86999989
   15.51694393  111.74600220    0.83999997    2.84999990
   15.51999950  118.51699829    0.81999999    2.84999990
   15.52111053  107.82599640    0.83999997    2.86999989
   15.52361107  115.92199707    0.81999999    2.84999990
   15.52694416  113.74400330    0.83999997    2.84999990
   15.52999973  116.30999756    0.86000001    2.84999990
   15.53333378  115.81600189    0.86000001    2.84999990
   15.53666687  111.86799622    0.83999997    2.84999990
   15.53972244  118.09600067    0.83999997    2.84999990
   15.54583359  118.09600067    0.81999999    2.84999990
   15.55000019  121.65899658    0.83999997    2.86999989
   15.55333328  122.05799866    0.81999999    2.84999990
   15.55444431  117.04499817    0.81999999    2.84999990
   15.55694485  112.57199860    0.81999999    2.84999990
   15.56027794  111.95200348    0.81999999    2.84999990
   15.56333351  111.75599670    0.81999999    2.84999990
   15.56666660  112.03299713    0.83999997    2.84999990
   15.56972218  116.06199646    0.83999997    2.84999990
   15.57305527  113.67099762    0.81999999    2.84999990
   15.57638836  118.34799957    0.83999997    2.84999990
   15.57944393  116.31199646    0.81999999    2.84999990
   15.58277798  113.74800110    0.81999999    2.84999990
   15.58861065  113.74800110    0.80000001    2.84999990
   15.59277725  116.93699646    0.79000002    2.84999990
   15.59611034  117.08699799    0.79000002    2.86999989
   15.59944439  116.12200165    0.76999998    2.84999990
   15.60249996  117.37999725    0.75000000    2.84999990
   15.60583401  111.42299652    0.75000000    2.86999989
   15.60888958  114.38800049    0.73000002    2.84999990
   15.61222267  114.93599701    0.70999998    2.84999990
   15.61555576  114.58399963    0.67000002    2.86999989
   15.61861134  110.00099945    0.67000002    2.86999989
   15.62111092  116.11100006    0.69000000    2.86999989
   15.64194393  116.11100006    0.75000000    2.86999989
   15.64611053  112.44999695    0.75000000    2.84999990
   15.74361134   -1.00000000   -1.00000000   -1.00000000
   16.09250069   -1.00000000   -1.00000000   -1.00000000
   16.19222069   -1.00000000   -1.00000000   -1.00000000
   16.30611038   -1.00000000   -1.00000000   -1.00000000
   16.45666695   74.85459900    0.70999998    2.86999989
   16.45972252  124.14900208    0.69000000    2.89000010
   16.46305656  124.13300323    0.69000000    2.89000010
   16.46638870  120.33999634    0.69000000    2.89000010
   16.46944427  117.46299744    0.69000000    2.86999989
   16.47277832  117.15100098    0.69000000    2.89000010
   16.47694588  117.15100098    0.67000002    2.86999989
   16.48111153  123.70700073    0.69000000    2.86999989
   16.48416710  120.77300262    0.69000000    2.89000010
   16.48750114  120.00700378    0.69000000    2.89000010
   16.48999977  113.66500092    0.69000000    2.89000010
   16.49111176  113.92500305    0.69000000    2.89000010
   16.49444389  121.52700043    0.70999998    2.89000010
   16.49777794  117.16999817    0.73000002    2.89000010
   16.50083351  121.97599792    0.73000002    2.89000010
   16.50416756  112.17500305    0.73000002    2.89000010
   16.50749969  115.81300354    0.73000002    2.86999989
   16.51055527  106.25399780    0.73000002    2.89000010
   16.51388931  112.65299988    0.73000002    2.86999989
   16.51972198  112.65299988    0.73000002    2.86999989
   16.52388954  122.88500214    0.73000002    2.86999989
   16.52722168  118.07399750    0.75000000    2.86999989
   16.53027725  117.13300323    0.75000000    2.86999989
   16.53361130  112.70200348    0.75000000    2.86999989
   16.53694344  125.94999695    0.75000000    2.86999989
   16.53999901  114.45600128    0.75000000    2.89000010
   16.54333305  111.08799744    0.75000000    2.89000010
   16.54666710  120.64299774    0.75000000    2.86999989
   16.54972076  112.43199921    0.75000000    2.86999989
   16.55305481  115.99800110    0.73000002    2.89000010
   16.55638885  122.23899841    0.73000002    2.86999989
   16.55694389  114.10700226    0.73000002    2.86999989
   16.56277657  114.10700226    0.73000002    2.86999989
   16.56666756  113.44599915    0.70999998    2.89000010
   16.57000160  124.58100128    0.69000000    2.89000010
   16.57333374  115.21700287    0.67000002    2.89000010
   16.57638931  116.95600128    0.69000000    2.86999989
   16.57972336  119.15899658    0.67000002    2.89000010
   16.58277893  117.61499786    0.67000002    2.89000010
   16.58611107  117.47699738    0.69000000    2.86999989
   16.58944511  114.94300079    0.69000000    2.89000010
   16.59027863  124.58300018    0.69000000    2.89000010
   16.59305573  124.46199799    0.70999998    2.89000010
   16.59638977  115.16899872    0.70999998    2.89000010
   16.59944534  113.30799866    0.70999998    2.89000010
   16.60555649  113.30799866    0.69000000    2.89000010
   16.60972214  108.26799774    0.67000002    2.89000010
   16.61277771  117.57599640    0.67000002    2.89000010
   16.61611176  114.95700073    0.69000000    2.89000010
   16.61916733  117.15899658    0.67000002    2.86999989
   16.62249947  126.56300354    0.67000002    2.89000010
   16.62361145  121.95700073    0.67000002    2.89000010
   16.62611198  123.76599884    0.67000002    2.89000010
   16.62944412  118.68000031    0.67000002    2.89000010
   16.63249969  116.12699890    0.67000002    2.89000010
   16.63583374  108.85600281    0.69000000    2.89000010
   16.63916588  118.74099731    0.69000000    2.89000010
   16.64222145  112.42099762    0.67000002    2.89000010
   16.64833260  112.42099762    0.67000002    2.91000009
   16.65250015  120.87500000    0.67000002    2.89000010
   16.65555573  112.90799713    0.67000002    2.89000010
   16.65694427  117.24299622    0.67000002    2.86999989
   16.65916634  118.76399994    0.67000002    2.86999989
   16.66250038  108.13300323    0.67000002    2.89000010
   16.66555595  120.08699799    0.67000002    2.86999989
   16.66888809  114.17800140    0.69000000    2.89000010
   16.67222214  113.00599670    0.64999998    2.89000010
   16.67527771  113.10700226    0.64999998    2.89000010
   16.67860985  119.16300201    0.64999998    2.89000010
   16.68194389  118.96700287    0.64999998    2.89000010
   16.68499947  112.22899628    0.64999998    2.89000010
   16.69111061  112.22899628    0.64999998    2.86999989
   16.69527626  120.68199921    0.64999998    2.86999989
   16.69861031  112.43599701    0.64999998    2.89000010
   16.70166779  116.06600189    0.64999998    2.89000010
   16.70499992  118.92299652    0.64999998    2.89000010
   16.70833397  119.17400360    0.64999998    2.89000010
   16.71138954  117.31999969    0.63000000    2.86999989
   16.71472359  124.31700134    0.64999998    2.89000010
   16.71777916  119.71299744    0.63000000    2.89000010
   16.72111130  115.89199829    0.63000000    2.89000010
   16.72361183  115.99700165    0.63000000    2.89000010
   16.72472191  120.41300201    0.63000000    2.89000010
   16.72805595  121.45999908    0.63000000    2.89000010
   16.73388863  121.45999908    0.63000000    2.89000010
   16.73805618  111.04100037    0.63000000    2.89000010
   16.74138832  105.70500183    0.63000000    2.91000009
   16.74472237  112.45600128    0.63000000    2.89000010
   16.74777794  106.17500305    0.61000001    2.89000010
   16.75111198  110.98999786    0.61000001    2.89000010
   16.75416756  112.41899872    0.58999997    2.89000010
   16.75694466  111.72200012    0.58999997    2.91000009
   16.75777817  112.57599640    0.58999997    2.91000009
   16.76111031  122.90299988    0.56999999    2.89000010
   16.76416588  113.74500275    0.56999999    2.89000010
   16.76749992  113.88600159    0.56999999    2.89000010
   16.77083397  116.16799927    0.56999999    2.89000010
   16.77694511  116.16799927    0.56999999    2.89000010
   16.78111076  112.62799835    0.56999999    2.91000009
   16.78416634  114.84899902    0.56999999    2.91000009
   16.78750038  116.08200073    0.58999997    2.89000010
   16.79027748  113.93499756    0.58999997    2.89000010
   16.79111099  115.20899963    0.56999999    2.91000009
   16.79444313  114.03600311    0.56999999    2.89000010
   16.79777718  114.82800293    0.56999999    2.89000010
   16.80083275  118.53199768    0.56999999    2.89000010
   16.80416679  120.20899963    0.56999999    2.89000010
   16.80722237  122.10399628    0.56999999    2.91000009
   16.81055450  120.13999939    0.56999999    2.89000010
   16.81388855  113.20999908    0.56999999    2.89000010
   16.81972313  113.20999908    0.56999999    2.91000009
   16.82389069  122.54399872    0.56999999    2.89000010
   16.82694626  124.28399658    0.56999999    2.91000009
   16.83027840  119.40100098    0.55000001    2.89000010
   16.83361244  125.54499817    0.55000001    2.89000010
   16.83666801  114.72899628    0.55000001    2.89000010
   16.84000015  120.41799927    0.55000001    2.89000010
   16.84333420  110.59600067    0.55000001    2.89000010
   16.84638977  116.82499695    0.55000001    2.89000010
   16.84972191  120.88200378    0.55000001    2.89000010
   16.85277748  115.88899994    0.55000001    2.89000010
   16.85611153  112.57800293    0.56999999    2.89000010
   16.85694504  119.04100037    0.56999999    2.89000010
   16.86250114  119.04100037    0.58999997    2.89000010
   16.86666679  125.37400055    0.58999997    2.89000010
   16.87000084  113.03800201    0.58999997    2.89000010
   16.87305641  122.35600281    0.63000000    2.89000010
   16.87638855  117.64800262    0.63000000    2.89000010
   16.87944412  114.50800323    0.63000000    2.89000010
   16.88277817  115.58499908    0.69000000    2.89000010
   16.88611031  119.82499695    0.73000002    2.89000010
   16.88916588  112.90299988    0.73000002    2.89000010
   16.89027786  111.35399628    0.73000002    2.89000010
   16.89277840  113.93499756    0.80000001    2.89000010
   16.89611053  110.62000275    0.80000001    2.86999989
   16.89944458  116.21399689    0.81999999    2.89000010
   16.90527725  116.21399689    0.92000002    2.86999989
   16.90944481  117.18299866    0.95999998    2.86999989
   16.91277695  110.44100189    1.00000000    2.86999989
   16.91583252  111.63800049    1.01999998    2.86999989
   16.91916656  113.09899902    1.03999996    2.86999989
   16.92249870  117.34100342    1.03999996    2.86999989
   16.92361069  110.94599915    1.03999996    2.86999989
   16.92583275  110.33999634    1.00000000    2.86999989
   16.92916679  110.23600006    0.98000002    2.86999989
   16.93249893  112.00399780    1.00000000    2.86999989
   16.93555450  118.42299652    1.00000000    2.86999989
   16.93888855  106.17900085    0.98000002    2.86999989
   16.94194412  115.20400238    0.95999998    2.86999989
   16.94833183  115.20400238    0.92000002    2.86999989
   16.95250130  120.33200073    0.92000002    2.86999989
   16.95555687  115.11699677    0.89999998    2.86999989
   16.95694542  114.54000092    0.92000002    2.86999989
   16.95916748  113.94499969    0.89999998    2.86999989
   16.96250153  115.89700317    0.86000001    2.86999989
   16.96583366  114.54599762    0.86000001    2.86999989
   16.96888924  125.70700073    0.86000001    2.86999989
   16.97222328  115.08799744    0.81999999    2.89000010
   16.97555542  113.74400330    0.81999999    2.86999989
   16.97861099  114.81099701    0.81999999    2.89000010
   16.98194504  113.76399994    0.80000001    2.89000010
   16.98500061  123.87500000    0.80000001    2.89000010
   16.99138832  123.87500000    0.80000001    2.86999989
   16.99555588  121.03600311    0.79000002    2.86999989
   16.99888992  120.76799774    0.79000002    2.86999989
   17.00194359  114.80899811    0.79000002    2.86999989
   17.00527763  119.45500183    0.79000002    2.86999989
   17.00861168  111.80699921    0.79000002    2.86999989
   17.01166725  113.45999908    0.80000001    2.89000010
   17.01499939  107.52899933    0.80000001    2.86999989
   17.01805496  110.06700134    0.79000002    2.86999989
   17.02138901  108.13099670    0.80000001    2.86999989
   17.02361107  111.43000031    0.80000001    2.86999989
   17.02499962  110.82499695    0.80000001    2.86999989
   17.02833366  110.96499634    0.80000001    2.86999989
   17.03388786  110.96499634    0.80000001    2.89000010
   17.03805542  117.40899658    0.80000001    2.86999989
   17.04138756  116.45800018    0.81999999    2.86999989
   17.04444313  111.38200378    0.80000001    2.86999989
   17.04777718  117.65299988    0.80000001    2.86999989
   17.05083275  115.14900208    0.80000001    2.86999989
   17.05416679  125.22299957    0.80000001    2.86999989
   17.05694389  118.17299652    0.80000001    2.86999989
   17.05777740  117.18299866    0.80000001    2.86999989
   17.06110954  125.47799683    0.79000002    2.86999989
   17.06444359  118.00599670    0.79000002    2.89000010
   17.06750107  113.48600006    0.80000001    2.89000010
   17.07083511  115.81800079    0.80000001    2.91000009
   17.07666779  115.81800079    0.81999999    2.86999989
   17.08083344  114.53800201    0.80000001    2.89000010
   17.08416748  110.67099762    0.80000001    2.86999989
   17.08722305  117.41899872    0.80000001    2.86999989
   17.09027863  108.11900330    0.80000001    2.86999989
   17.09083366  108.63300323    0.80000001    2.86999989
   17.09416771  108.59100342    0.80000001    2.89000010
   17.09749985  119.53800201    0.80000001    2.86999989
   17.10055542  110.16899872    0.80000001    2.86999989
   17.10388947  111.62599945    0.81999999    2.86999989
   17.10722351  106.87799835    0.81999999    2.86999989
   17.11027908  109.95899963    0.83999997    2.86999989
   17.11361122  113.70200348    0.81999999    2.89000010
   17.11972237  113.70200348    0.81999999    2.89000010
   17.12388992   99.69909668    0.80000001    2.89000010
   17.12694550  112.97000122    0.80000001    2.86999989
   17.13027763  114.71600342    0.81999999    2.86999989
   17.13333321  110.45300293    0.81999999    2.86999989
   17.13666725  110.29299927    0.81999999    2.86999989
   17.13999939  113.83200073    0.81999999    2.89000010
   17.14305496  112.53700256    0.80000001    2.89000010
   17.14638901  111.68599701    0.80000001    2.86999989
   17.14972115  110.05100250    0.80000001    2.86999989
   17.15277672  108.06500244    0.81999999    2.89000010
   17.15611076  113.16400146    0.81999999    2.86999989
   17.15694427  116.72599792    0.81999999    2.86999989
   17.16250038  116.72599792    0.81999999    2.86999989
   17.16666603  115.20600128    0.83999997    2.86999989
   17.16972160  115.40299988    0.83999997    2.86999989
   17.17305565  111.83100128    0.83999997    2.86999989
   17.17638779  110.73200226    0.86000001    2.86999989
   17.17944336  108.86799622    0.86000001    2.86999989
   17.18277740  108.31400299    0.86000001    2.86999989
   17.18583298  111.78700256    0.88000000    2.86999989
   17.18916512  109.45099640    0.88000000    2.86999989
   17.19027710  111.48500061    0.88000000    2.86999989
   17.19277763  108.50700378    0.88000000    2.89000010
   17.19610977  114.08399963    0.88000000    2.84999990
   17.19944382  107.89800262    0.88000000    2.86999989
   17.20527840  107.89800262    0.88000000    2.86999989
   17.20944595  109.06999969    0.88000000    2.86999989
   17.21277809  120.04499817    0.88000000    2.89000010
   17.21583366  110.98500061    0.88000000    2.86999989
   17.21916771  115.78800201    0.88000000    2.86999989
   17.22222328  115.76399994    0.88000000    2.86999989
   17.22361183  115.65299988    0.88000000    2.86999989
   17.22583389  108.03199768    0.88000000    2.86999989
   17.22916794  116.02999878    0.88000000    2.86999989
   17.23250008  115.49800110    0.86000001    2.86999989
   17.23555565  119.00399780    0.86000001    2.86999989
   17.23888969  114.53299713    0.86000001    2.86999989
   17.24222183  110.05500031    0.86000001    2.86999989
   17.24805641  110.05500031    0.86000001    2.89000010
   17.25222206  108.11599731    0.88000000    2.89000010
   17.25555611  115.97200012    0.88000000    2.86999989
   17.25694466  115.92900085    0.88000000    2.86999989
   17.25916672  108.76599884    0.89999998    2.86999989
   17.26222229  111.38899994    0.89999998    2.86999989
   17.26555634  119.48899841    0.88000000    2.86999989
   17.26861000  110.80000305    0.88000000    2.86999989
   17.27194405  117.64399719    0.89999998    2.86999989
   17.27527809  118.10500336    0.92000002    2.84999990
   17.27833366  111.20899963    0.92000002    2.86999989
   17.28166580  113.40299988    0.92000002    2.86999989
   17.28499985  113.60600281    0.92000002    2.86999989
   17.29111099  113.60600281    0.94000000    2.86999989
   17.29500008  114.49900055    0.94000000    2.86999989
   17.29833221  115.03199768    0.95999998    2.86999989
   17.30166626  107.10600281    0.95999998    2.86999989
   17.30472183  110.81999969    0.95999998    2.84999990
   17.30805397  105.87599945    0.95999998    2.86999989
   17.31138802  113.40100098    0.95999998    2.86999989
   17.31444359  119.34700012    0.95999998    2.86999989
   17.31777954  111.71600342    0.94000000    2.86999989
   17.32111168  117.27100372    0.94000000    2.86999989
   17.32361221  116.25199890    0.94000000    2.86999989
   17.32472229  117.15000153    0.94000000    2.86999989
   17.32777786  118.36900330    0.94000000    2.86999989
   17.33388901  118.36900330    0.95999998    2.86999989
   17.33805656  109.36299896    0.95999998    2.84999990
   17.34111214  109.52400208    0.98000002    2.84999990
   17.34444427  109.20600128    0.98000002    2.84999990
   17.34777832  119.66200256    1.00000000    2.84999990
   17.35083389  111.21399689    1.00000000    2.86999989
   17.35416794  114.57599640    1.01999998    2.86999989
   17.35694504  111.15699768    1.01999998    2.84999990
   17.35777855  112.33899689    1.01999998    2.84999990
   17.36083412  104.69599915    1.03999996    2.86999989
   17.36416626  113.69599915    1.03999996    2.84999990
   17.36722183  113.88200378    1.03999996    2.84999990
   17.37055588  111.83499908    1.03999996    2.84999990
   17.37666702  111.83499908    1.01999998    2.86999989
   17.38083267  114.26999664    1.01999998    2.86999989
   17.38416672  111.78099823    1.00000000    2.86999989
   17.38722229  110.29499817    0.98000002    2.86999989
   17.39027786  110.50199890    1.00000000    2.84999990
   17.39111137  112.73799896    1.00000000    2.84999990
   17.39416695  112.58000183    0.98000002    2.86999989
   17.39749908  113.60299683    1.01999998    2.86999989
   17.40055466  109.23699951    1.05999994    2.84999990
   17.40388870  109.01399994    1.05999994    2.86999989
   17.40722275  120.03700256    1.03999996    2.86999989
   17.41027832  119.39299774    1.01999998    2.84999990
   17.41361046  112.13300323    1.01999998    2.86999989
   17.41944313  112.13300323    1.01999998    2.84999990
   17.42361069  109.61900330    1.03999996    2.86999989
   17.42694473  113.18099976    1.05999994    2.86999989
   17.43027687  115.73100281    1.05999994    2.84999990
   17.43333244  110.68599701    1.03999996    2.86999989
   17.43666649  114.22699738    1.03999996    2.86999989
   17.43972206  112.37000275    1.03999996    2.86999989
   17.44305420  115.90499878    1.03999996    2.84999990
   17.44638824  110.49600220    1.03999996    2.84999990
   17.44944382  112.85900116    1.03999996    2.84999990
   17.45277786  113.66899872    1.03999996    2.86999989
   17.45583344  114.52200317    1.03999996    2.86999989
   17.45694542  109.40599823    1.03999996    2.86999989
   17.47750092  109.40599823    1.01999998    2.86999989
   17.48166656  119.32399750    1.00000000    2.86999989
   17.48500061  118.78800201    1.00000000    2.86999989
   17.48805618  109.74500275    1.00000000    2.86999989
   17.49027824  113.44799805    1.00000000    2.86999989
   17.49194527  115.92600250    1.00000000    2.86999989
   17.49500084  117.12200165    1.03999996    2.84999990
   17.49833298  114.57399750    1.03999996    2.84999990
   17.50166702  115.90799713    1.05999994    2.86999989
   17.50472260  117.05100250    1.05999994    2.86999989
   17.50805473  113.79699707    1.07000005    2.84999990
   17.51138878  111.99199677    1.07000005    2.84999990
   17.51444435  118.67199707    1.09000003    2.84999990
   17.52027702  118.67199707    1.11000001    2.86999989
   17.52444458  113.94300079    1.11000001    2.84999990
   17.52777672  107.83100128    1.11000001    2.84999990
   17.53083229  118.94200134    1.11000001    2.86999989
   17.53416634  116.47200012    1.11000001    2.86999989
   17.53722191  121.10199738    1.11000001    2.86999989
   17.54055595  118.61100006    1.13000000    2.84999990
   17.54388809  118.38899994    1.14999998    2.84999990
   17.54694366  122.30599976    1.14999998    2.86999989
   17.55027771  120.06199646    1.14999998    2.84999990
   17.55360985  122.49199677    1.14999998    2.84999990
   17.55666542  115.45500183    1.16999996    2.84999990
   17.55722237  116.41799927    1.16999996    2.84999990
   17.56305504  116.41799927    1.16999996    2.84999990
   17.56722260  111.73100281    1.19000006    2.86999989
   17.57055664  112.76599884    1.16999996    2.84999990
   17.57361221  108.98899841    1.19000006    2.84999990
   17.57694626  117.07499695    1.19000006    2.84999990
   17.58027840  112.03299713    1.16999996    2.84999990
   17.58333397  111.05100250    1.16999996    2.84999990
   17.58666801  107.15599823    1.16999996    2.84999990
   17.59000015  108.92400360    1.14999998    2.84999990
   17.59055710  108.26300049    1.14999998    2.84999990
   17.59361267  110.81099701    1.16999996    2.84999990
   17.59666824  112.07599640    1.16999996    2.84999990
   17.60000038  109.15299988    1.16999996    2.86999989
   17.60611153  109.15299988    1.16999996    2.84999990
   17.61000061  111.39600372    1.16999996    2.86999989
   17.61333466  113.75499725    1.14999998    2.84999990
   17.61666679  117.53199768    1.14999998    2.84999990
   17.61972237  113.66999817    1.16999996    2.84999990
   17.62305641  111.38500214    1.19000006    2.84999990
   17.62388992  114.39700317    1.21000004    2.84999990
   17.62666702  111.36900330    1.23000002    2.84999990
   17.62972260  108.62300110    1.23000002    2.84999990
   17.63305473  115.08799744    1.23000002    2.82999992
   17.63638878  114.02799988    1.21000004    2.82999992
   17.63944435  114.00900269    1.21000004    2.84999990
   17.64277840  112.37599945    1.21000004    2.84999990
   17.64888954  112.37599945    1.19000006    2.84999990
   17.65305519  113.06500244    1.19000006    2.84999990
   17.65611076  113.56300354    1.19000006    2.84999990
   17.65722275  116.48899841    1.19000006    2.84999990
   17.65999985  117.54199982    1.19000006    2.84999990
   17.66305542  117.20099640    1.16999996    2.82999992
   17.66638756  115.91699982    1.16999996    2.82999992
   17.66972160  115.00000000    1.16999996    2.84999990
   17.67277718  115.11900330    1.16999996    2.84999990
   17.67611122  115.18800354    1.16999996    2.84999990
   17.67944336  121.42099762    1.16999996    2.84999990
   17.68249893  118.89700317    1.16999996    2.84999990
   17.68583298  118.40599823    1.16999996    2.84999990
   17.69166565  118.40599823    1.16999996    2.84999990
   17.69583321  115.90399933    1.16999996    2.82999992
   17.69916534  116.26599884    1.19000006    2.84999990
   17.70222282  119.26799774    1.19000006    2.84999990
   17.70555687  123.39399719    1.19000006    2.84999990
   17.70861244  119.73799896    1.19000006    2.84999990
   17.71194458  116.21199799    1.19000006    2.84999990
   17.71527863  117.01799774    1.19000006    2.84999990
   17.71833420  119.44300079    1.23000002    2.82999992
   17.72166634  124.24400330    1.23000002    2.84999990
   17.72389030  120.54599762    1.23000002    2.84999990
   17.72527885  115.05999756    1.21000004    2.84999990
   17.72833443  121.66300201    1.21000004    2.84999990
   17.73444557  121.66300201    1.21000004    2.84999990
   17.73861122  111.08200073    1.19000006    2.84999990
   17.74194527  114.43000031    1.16999996    2.84999990
   17.74527740  114.88999939    1.16999996    2.84999990
   17.74833298  118.21299744    1.14999998    2.84999990
   17.75166702  111.87200165    1.14999998    2.84999990
   17.75472260  121.69699860    1.14999998    2.84999990
   17.75722313  117.41899872    1.14999998    2.84999990
   17.75861168  125.33300018    1.16999996    2.84999990
   17.76166725  113.23200226    1.14999998    2.84999990
   17.76499939  110.90899658    1.14999998    2.84999990
   17.76833344  112.23400116    1.13000000    2.84999990
   17.77138901   99.68509674    1.13000000    2.84999990
   17.77750015   99.68509674    1.14999998    2.86999989
   17.78138924  114.25399780    1.14999998    2.84999990
   17.78472137  113.52400208    1.13000000    2.86999989
   17.78805542  108.68399811    1.13000000    2.82999992
   17.79055595  109.52700043    1.13000000    2.84999990
   17.79166603  104.07199860    1.13000000    2.84999990
   17.79472160  113.98400116    1.14999998    2.84999990
   17.79805565  118.73200226    1.13000000    2.82999992
   17.80138779  109.48899841    1.13000000    2.84999990
   17.80444336  115.77999878    1.13000000    2.84999990
   17.80777740  112.50900269    1.13000000    2.84999990
   17.81110954  119.89900208    1.11000001    2.86999989
   17.81416512  115.35299683    1.11000001    2.84999990
   17.82027817  115.35299683    1.09000003    2.84999990
   17.82444572  111.13899994    1.09000003    2.84999990
   17.82750130  113.20099640    1.07000005    2.84999990
   17.83083344  109.37200165    1.05999994    2.84999990
   17.83416748  109.42800140    1.05999994    2.84999990
   17.83722305  106.47499847    1.03999996    2.84999990
   17.84055710  100.15100098    1.03999996    2.84999990
   17.84361267  109.08999634    1.05999994    2.84999990
   17.84694481  113.54199982    1.05999994    2.84999990
   17.85027885  107.90200043    1.09000003    2.84999990
   17.85333443  111.19200134    1.09000003    2.84999990
   17.85666656  111.62500000    1.09000003    2.84999990
   17.85722351  109.26499939    1.09000003    2.84999990
   17.86305618  109.26499939    1.11000001    2.84999990
   17.86722183  115.30100250    1.11000001    2.84999990
   17.87055588  112.02600098    1.11000001    2.82999992
   17.87361145  109.37899780    1.13000000    2.84999990
   17.87694550  120.81999969    1.13000000    2.84999990
   17.88000107  114.72200012    1.14999998    2.84999990
   17.88333321  116.43599701    1.13000000    2.84999990
   17.88666725  115.15599823    1.13000000    2.84999990
   17.88972282  124.25399780    1.14999998    2.84999990
   17.89055634  110.40100098    1.14999998    2.84999990
   17.89333344  113.29000092    1.16999996    2.84999990
   17.89666748  111.96800232    1.16999996    2.84999990
   17.89972115  112.15399933    1.14999998    2.84999990
   17.90583229  112.15399933    1.13000000    2.84999990
   17.90999985  108.02100372    1.11000001    2.84999990
   17.91333389  109.01599884    1.09000003    2.84999990
   17.91638756  107.94899750    1.09000003    2.84999990
   17.91972160  118.57299805    1.11000001    2.84999990
   17.92305565  116.13200378    1.13000000    2.84999990
   17.92388916  109.52300262    1.13000000    2.84999990
   17.92666626  110.56900024    1.14999998    2.84999990
   17.93000031  116.45200348    1.14999998    2.82999992
   17.93305397  110.38099670    1.13000000    2.84999990
   17.93638802  111.68099976    1.16999996    2.84999990
   17.93944359  112.41300201    1.16999996    2.82999992
   17.94277763  106.40799713    1.14999998    2.82999992
   17.94888878  106.40799713    1.13000000    2.84999990
   17.95277786  113.54199982    1.14999998    2.84999990
   17.95611191  114.54399872    1.23000002    2.84999990
   17.95722389  115.76300049    1.23000002    2.84999990
   17.95972252  117.32700348    1.26999998    2.82999992
   17.96305656  112.08999634    1.28999996    2.82999992
   17.96611214  112.05799866    1.30999994    2.82999992
   17.96944427  112.66300201    1.30999994    2.82999992
   17.97249985  110.90000153    1.30999994    2.84999990
   17.97583389  115.32900238    1.36000001    2.82999992
   17.97916794  109.04399872    1.36000001    2.82999992
   17.98222351  107.00299835    1.36000001    2.82999992
   17.98555565  110.55999756    1.36000001    2.82999992
   17.99166679  110.55999756    1.34000003    2.82999992
   17.99583435  113.27899933    1.36000001    2.82999992
   17.99888992  124.62400055    1.36000001    2.82999992
   18.00222206  110.94999695    1.36000001    2.82999992
   18.00555611  109.00599670    1.34000003    2.82999992
   18.00861168  113.32599640    1.33000004    2.82999992
   18.01194382  110.04499817    1.30999994    2.82999992
   18.01499939  111.16300201    1.28999996    2.82999992
   18.01833344  120.12999725    1.28999996    2.84999990
   18.02166557  114.17199707    1.28999996    2.84999990
   18.02388954  111.11399841    1.26999998    2.82999992
   18.02527809  114.05799866    1.26999998    2.82999992
   18.02861023  114.79499817    1.28999996    2.82999992
   18.03444481  114.79499817    1.25000000    2.84999990
   18.03861046  117.56600189    1.25000000    2.82999992
   18.04194450  111.76999664    1.23000002    2.82999992
   18.04500008  111.93199921    1.21000004    2.84999990
   18.04833221  120.69999695    1.21000004    2.82999992
   18.05138779  115.44999695    1.21000004    2.82999992
   18.05472183  111.18699646    1.21000004    2.84999990
   18.05722237  111.11599731    1.16999996    2.82999992
   18.05833244  110.28399658    1.16999996    2.82999992
   18.06166649  106.92600250    1.14999998    2.84999990
   18.06472206  115.17700195    1.13000000    2.84999990
   18.06805611  110.30500031    1.11000001    2.84999990
   18.07139015  107.83799744    1.09000003    2.84999990
   18.07722282  107.83799744    1.07000005    2.82999992
   18.08139038  110.53900146    1.07000005    2.84999990
   18.08472252  112.22799683    1.07000005    2.84999990
   18.08777809  108.88400269    1.07000005    2.84999990
   18.09055710  109.68599701    1.05999994    2.84999990
   18.09166718  113.51999664    1.05999994    2.84999990
   18.09500122  111.01999664    1.05999994    2.82999992
   18.09805679  114.44799805    1.05999994    2.82999992
   18.10138893  108.86000061    1.03999996    2.84999990
   18.10472298  115.48600006    1.05999994    2.84999990
   18.10805511  114.72499847    1.05999994    2.84999990
   18.11111069  113.00700378    1.05999994    2.84999990
   18.11444473  111.71399689    1.07000005    2.82999992
   18.12027740  111.71399689    1.01999998    2.84999990
   18.12416649  111.83699799    1.01999998    2.84999990
   18.12750053  112.57199860    1.00000000    2.84999990
   18.13083267  110.70700073    1.00000000    2.84999990
   18.13388824  106.77799988    1.00000000    2.84999990
   18.13722229  115.78800201    1.00000000    2.84999990
   18.14055634  112.02700043    1.03999996    2.82999992
   18.14361191  112.46199799    1.05999994    2.84999990
   18.14694405  109.58399963    1.07000005    2.84999990
   18.14999962  112.64700317    1.09000003    2.84999990
   18.15333366  110.11499786    1.11000001    2.84999990
   18.15666580  112.57199860    1.11000001    2.84999990
   18.15722275  111.70500183    1.11000001    2.84999990
   18.16305542  111.70500183    1.14999998    2.82999992
   18.16722107  110.88200378    1.26999998    2.82999992
   18.17027664  107.98799896    1.28999996    2.82999992
   18.17361069  107.86499786    1.30999994    2.80999994
   18.17694473  109.15899658    1.30999994    2.82999992
   18.18000031  108.15799713    1.30999994    2.82999992
   18.18333244  108.50399780    1.30999994    2.82999992
   18.18666649  108.91699982    1.28999996    2.82999992
   18.18972206  111.62000275    1.26999998    2.82999992
   18.19055557  111.12000275    1.26999998    2.82999992
   18.19333267  115.95600128    1.25000000    2.82999992
   18.19666672  108.98699951    1.25000000    2.82999992
   18.19972038  109.26599884    1.23000002    2.82999992
   18.20583344  109.26599884    1.25000000    2.82999992
   18.21000099  112.32599640    1.21000004    2.82999992
   18.21333504  110.74700165    1.19000006    2.82999992
   18.21638870  115.20400238    1.16999996    2.82999992
   18.21972275  111.29299927    1.14999998    2.82999992
   18.22277832  110.94699860    1.11000001    2.82999992
   18.22389030  117.48799896    1.11000001    2.82999992
   18.22666740  119.65899658    1.09000003    2.82999992
   18.22972298  113.02500153    1.09000003    2.82999992
   18.23305511  117.31900024    1.09000003    2.82999992
   18.23638916  110.47699738    1.07000005    2.84999990
   18.23944473  107.63700104    1.05999994    2.84999990
   18.24277878  110.39900208    1.05999994    2.84999990
   18.24861145  110.39900208    1.07000005    2.82999992
   18.25277710  115.20400238    1.09000003    2.84999990
   18.25611115  117.55999756    1.09000003    2.84999990
   18.25749969  109.64900208    1.09000003    2.84999990
   18.25972176  111.76999664    1.09000003    2.82999992
   18.26305580  110.03099823    1.07000005    2.82999992
   18.26611137  110.23100281    1.09000003    2.84999990
   18.26944351  114.61799622    1.07000005    2.84999990
   18.27277756  105.49299622    1.11000001    2.82999992
   18.27583313  108.86199951    1.13000000    2.84999990
   18.27916718  111.09600067    1.14999998    2.84999990
   18.28222275  116.95300293    1.16999996    2.84999990
   18.28555489  113.54799652    1.14999998    2.84999990
   18.29166603  113.54799652    1.14999998    2.82999992
   18.29583359  107.06700134    1.14999998    2.82999992
   18.29888916  114.08999634    1.19000006    2.82999992
   18.30222130  107.94999695    1.19000006    2.82999992
   18.30527687  109.92099762    1.19000006    2.82999992
   18.30861092  114.01000214    1.19000006    2.82999992
   18.31194305  108.56600189    1.21000004    2.82999992
   18.31499863  111.35700226    1.21000004    2.82999992
   18.31833458  112.35800171    1.21000004    2.82999992
   18.32139015  114.15799713    1.19000006    2.82999992
   18.32389069  108.74400330    1.19000006    2.82999992
   18.32500076  117.40200043    1.19000006    2.82999992
   18.32833481  109.84600067    1.16999996    2.82999992
   18.33444595  109.84600067    1.14999998    2.82999992
   18.33861160  109.87400055    1.16999996    2.84999990
   18.34166718  112.71700287    1.14999998    2.82999992
   18.34500122  110.85500336    1.14999998    2.82999992
   18.34805679  114.75900269    1.14999998    2.82999992
   18.35138893  113.95999908    1.14999998    2.82999992
   18.35472298  112.90699768    1.16999996    2.82999992
   18.35750008  113.58000183    1.16999996    2.82999992
   18.35805511  115.91999817    1.16999996    2.82999992
   18.36138916  111.28399658    1.16999996    2.82999992
   18.36444473  108.23999786    1.14999998    2.82999992
   18.36777878  108.09600067    1.14999998    2.82999992
   18.37111092  113.31199646    1.14999998    2.82999992
   18.37722206  113.31199646    1.13000000    2.82999992
   18.38138962  106.23999786    1.14999998    2.82999992
   18.38472176  111.46499634    1.13000000    2.82999992
   18.38777733  108.97399902    1.11000001    2.84999990
   18.39083290  113.90599823    1.11000001    2.82999992
   18.39138794  115.67600250    1.11000001    2.82999992
   18.39472198  113.61499786    1.09000003    2.82999992
   18.39805603  108.34500122    1.09000003    2.84999990
   18.40138817  110.41400146    1.09000003    2.84999990
   18.40472221  112.72200012    1.09000003    2.84999990
   18.40777779  113.92600250    1.09000003    2.84999990
   18.41110992  110.67700195    1.09000003    2.82999992
   18.41444397  115.89299774    1.09000003    2.82999992
   18.42000008  115.89299774    1.11000001    2.84999990
   18.42416573  116.44799805    1.09000003    2.82999992
   18.42749977  111.25399780    1.11000001    2.82999992
   18.43083191  112.47699738    1.11000001    2.82999992
   18.43388748  115.08000183    1.11000001    2.82999992
   18.43722153  110.09400177    1.14999998    2.82999992
   18.44027710  113.45500183    1.14999998    2.82999992
   18.44361115  110.06199646    1.14999998    2.82999992
   18.44694328  125.27500153    1.13000000    2.82999992
   18.45000076  118.43399811    1.13000000    2.82999992
   18.45333481  116.63800049    1.13000000    2.82999992
   18.45666695  122.16600037    1.16999996    2.82999992
   18.45750046  112.61599731    1.16999996    2.82999992
   18.46305656  112.61599731    1.19000006    2.82999992
   18.46722221  117.68800354    1.19000006    2.80999994
   18.47027779  111.67600250    1.21000004    2.82999992
   18.47361183  110.77600098    1.21000004    2.80999994
   18.49111176  112.17400360    1.23000002    2.82999992
   18.49361229  109.76599884    1.25000000    2.82999992
   18.49666786  111.90100098    1.25000000    2.80999994
   18.50000000  116.88600159    1.25000000    2.82999992
   18.50611115  116.88600159    1.21000004    2.82999992
   18.51000023  116.08399963    1.21000004    2.80999994
   18.51333427  115.05400085    1.21000004    2.82999992
   18.51666641  117.26799774    1.25000000    2.80999994
   18.51972198  117.57499695    1.25000000    2.82999992
   18.52305603  118.38800049    1.23000002    2.80999994
   18.52444458  115.76000214    1.23000002    2.82999992
   18.52694511  116.90899658    1.19000006    2.82999992
   18.53000069  109.56700134    1.16999996    2.82999992
   18.53361130  113.19200134    1.14999998    2.82999992
   18.53666687  112.23300171    1.14999998    2.82999992
   18.53999901  114.95200348    1.16999996    2.82999992
   18.54305458  114.36199951    1.16999996    2.82999992
   18.54888916  114.36199951    1.14999998    2.82999992
   18.55305481  109.69200134    1.14999998    2.82999992
   18.55611038  111.54199982    1.14999998    2.82999992
   18.55777740  113.64600372    1.14999998    2.82999992
   18.55999947  119.31099701    1.14999998    2.82999992
   18.56305504  107.20500183    1.13000000    2.82999992
   18.56638718  110.89099884    1.14999998    2.82999992
   18.56944466  113.13200378    1.13000000    2.82999992
   18.57305717  112.81099701    1.13000000    2.82999992
   18.57666779  113.33200073    1.14999998    2.82999992
   18.58000183  110.12799835    1.14999998    2.82999992
   18.58305550  114.44200134    1.13000000    2.80999994
   18.58638954  111.21199799    1.11000001    2.80999994
   18.59166718  111.21199799    1.11000001    2.82999992
   18.59583473  115.58799744    1.11000001    2.82999992
   18.59916687  121.73000336    1.13000000    2.82999992
   18.60222244  117.32900238    1.13000000    2.82999992
   18.60555649  114.65200043    1.13000000    2.82999992
   18.60888863  113.80400085    1.11000001    2.82999992
   18.61194420  111.52799988    1.13000000    2.82999992
   18.61527824  111.46900177    1.13000000    2.82999992
   18.61861038  115.98500061    1.13000000    2.80999994
   18.62166595  111.07199860    1.13000000    2.82999992
   18.62444496  113.83300018    1.13000000    2.82999992
   18.62527847  111.20800018    1.13000000    2.82999992
   18.62861061  115.11699677    1.13000000    2.82999992
   18.63444519  115.11699677    1.13000000    2.82999992
   18.63861084  114.02700043    1.09000003    2.82999992
   18.64194489  119.63300323    1.03999996    2.84999990
   18.64500046  119.26499939    1.03999996    2.82999992
   18.64833260  117.61799622    1.03999996    2.84999990
   18.65138817  114.68900299    1.05999994    2.82999992
   18.65472221  115.67199707    1.03999996    2.82999992
   18.65777779  116.07199860    1.01999998    2.82999992
   18.65833282  117.18499756    1.01999998    2.82999992
   18.66138840  112.85199738    1.00000000    2.82999992
   18.66472244  110.99400330    1.00000000    2.82999992
   18.66805458  118.76799774    1.01999998    2.82999992
   18.67111015  114.72000122    1.00000000    2.84999990
   18.67722130  114.72000122    0.95999998    2.82999992
   18.68138885  118.73200226    0.95999998    2.82999992
   18.68472099  105.15200043    0.95999998    2.82999992
   18.68777657  119.81199646    0.94000000    2.82999992
   18.69111061  112.68099976    0.94000000    2.84999990
   18.69166565  117.40699768    0.94000000    2.82999992
   18.69499969  118.54100037    0.95999998    2.82999992
   18.69805527  112.31199646    0.95999998    2.82999992
   18.70138931  113.23999786    0.94000000    2.82999992
   18.70444489  116.04299927    0.94000000    2.82999992
   18.70777893  111.89099884    0.95999998    2.82999992
   18.71111107  111.57800293    1.01999998    2.82999992
   18.71416664  114.41899872    1.03999996    2.82999992
   18.72027779  114.41899872    1.00000000    2.80999994
   18.72444534  110.79900360    0.98000002    2.82999992
   18.72500038  110.67600250    0.98000002    2.82999992
   18.72805595  111.63500214    0.98000002    2.82999992
   18.73139000  115.31099701    1.00000000    2.82999992
   18.73444557  114.19599915    1.00000000    2.82999992
   18.73777771  118.19599915    1.00000000    2.82999992
   18.74083328  116.61499786    1.01999998    2.82999992
   18.74416733  115.05999756    1.01999998    2.82999992
   18.74749947  107.52300262    1.01999998    2.82999992
   18.75055504  113.26000214    1.01999998    2.82999992
   18.75388908  114.72599792    1.00000000    2.82999992
   18.75694466  112.47699738    1.00000000    2.82999992
   18.75833321  116.59500122    1.00000000    2.82999992
   18.76305580  116.59500122    1.00000000    2.82999992
   18.76722145  118.99900055    1.00000000    2.82999992
   18.77027702  113.47799683    0.94000000    2.82999992
   18.77361107  117.91500092    0.94000000    2.82999992
   18.77694511  117.28500366    0.94000000    2.82999992
   18.78000069  121.23000336    0.94000000    2.80999994
   18.78333282  125.33399963    0.94000000    2.82999992
   18.78638840  114.51899719    0.95999998    2.82999992
   18.78972244  113.96499634    0.98000002    2.82999992
   18.79166603  110.13400269    0.98000002    2.80999994
   18.79333305  114.42299652    1.00000000    2.82999992
   18.79666710  119.63999939    0.98000002    2.82999992
   18.79972076  112.54599762    0.98000002    2.82999992
   18.80583191  112.54599762    0.98000002    2.82999992
   18.80999947  111.22899628    0.98000002    2.82999992
   18.81333351  112.91000366    0.98000002    2.82999992
   18.81638718  113.34200287    1.00000000    2.82999992
   18.81972313  114.21499634    1.01999998    2.82999992
   18.82277870  115.43199921    1.03999996    2.82999992
   18.82500076  112.95700073    1.03999996    2.82999992
   18.82666779  110.68299866    1.03999996    2.82999992
   18.83000183  111.36499786    1.03999996    2.82999992
   18.83333397  114.51300049    1.03999996    2.80999994
   18.83638954  115.12599945    1.05999994    2.80999994
   18.83972359  119.16000366    1.07000005    2.82999992
   18.84277916  113.70600128    1.07000005    2.82999992
   18.84861183  113.70600128    1.05999994    2.82999992
   18.85277748  114.49900055    1.05999994    2.82999992
   18.85611153  115.88500214    1.03999996    2.82999992
   18.85833359  118.91000366    1.03999996    2.82999992
   18.85972214  116.29499817    1.03999996    2.82999992
   18.86305618  112.93900299    1.03999996    2.82999992
   18.86611176  113.71099854    1.01999998    2.82999992
   18.86944389  113.17299652    0.98000002    2.82999992
   18.87277794  116.84500122    0.95999998    2.82999992
   18.87583351  113.39900208    0.95999998    2.82999992
   18.87916756  116.14700317    0.98000002    2.82999992
   18.88222313  114.76699829    0.98000002    2.82999992
   18.88555527  108.82299805    0.98000002    2.82999992
   18.89166641  108.82299805    0.95999998    2.82999992
   18.89583397  109.50700378    0.94000000    2.82999992
   18.89888954  108.49199677    0.94000000    2.82999992
   18.90222168  115.70200348    0.94000000    2.82999992
   18.90527725  114.63300323    0.92000002    2.82999992
   18.90861130  111.71399689    0.95999998    2.82999992
   18.91166687  121.83799744    1.01999998    2.82999992
   18.91499901  116.58899689    1.01999998    2.82999992
   18.91833305  118.12300110    1.00000000    2.82999992
   18.92138863  109.05899811    1.03999996    2.80999994
   18.92472076  123.86299896    1.11000001    2.82999992
   18.92527771  110.81800079    1.11000001    2.80999994
   18.92833328  109.55999756    1.13000000    2.82999992
   18.93444443  109.55999756    1.01999998    2.82999992
   18.93861008  108.17099762    1.03999996    2.80999994
   18.94166565  114.03800201    1.03999996    2.82999992
   18.94499969  115.45700073    1.03999996    2.82999992
   18.94833183  112.93399811    1.05999994    2.80999994
   18.95138931  108.10800171    0.94000000    2.82999992
   18.95472336  114.15499878    0.94000000    2.82999992
   18.95777893  112.54499817    0.94000000    2.82999992
   18.95861244  119.10299683    0.94000000    2.82999992
   18.96138954  113.59100342    0.94000000    2.82999992
   18.96472359  112.30100250    0.94000000    2.82999992
   18.96777916  116.36399841    0.94000000    2.82999992
   18.97111130  112.39499664    0.94000000    2.82999992
   18.97722244  112.39499664    0.92000002    2.82999992
   18.98139000  116.42500305    0.92000002    2.82999992
   18.98472214  119.81900024    0.88000000    2.82999992
   18.98777771  116.11199951    0.88000000    2.82999992
   18.99111176  120.49400330    0.89999998    2.82999992
   18.99194527  115.97899628    0.89999998    2.82999992
   18.99472237  124.72799683    0.92000002    2.80999994
   18.99805641  112.65200043    0.92000002    2.82999992
   19.00138855  117.45700073    0.92000002    2.82999992
   19.00444412  117.28399658    0.92000002    2.80999994
   19.00777817  115.15100098    0.89999998    2.82999992
   19.01083374  118.38999939    0.92000002    2.80999994
   19.01416588  117.36100006    0.92000002    2.80999994
   19.02055550  117.36100006    0.94000000    2.82999992
   19.02472115  113.97699738    0.94000000    2.82999992
   19.02527809  115.67400360    0.94000000    2.82999992
   19.02805519  114.95200348    0.94000000    2.82999992
   19.03138924  113.99800110    0.95999998    2.80999994
   19.03444481  113.80500031    0.95999998    2.80999994
   19.03777695  120.88700104    0.95999998    2.80999994
   19.04111099  112.91100311    0.95999998    2.82999992
   19.04416656  114.81600189    0.95999998    2.80999994
   19.04749870  116.07199860    0.95999998    2.80999994
   19.05055428  114.90599823    0.98000002    2.80999994
   19.05388832  113.51699829    0.98000002    2.80999994
   19.05694389  115.03700256    0.95999998    2.80999994
   19.05861092  117.63700104    0.95999998    2.80999994
   19.06305504  117.63700104    0.98000002    2.82999992
   19.06722260  117.37200165    0.98000002    2.80999994
   19.07027817  119.98899841    0.98000002    2.80999994
   19.07361221  119.72299957    1.00000000    2.80999994
   19.07666779  114.30699921    1.00000000    2.80999994
   19.08027840  116.96299744    1.00000000    2.78999996
   19.08333397  116.19999695    1.00000000    2.80999994
   19.08666801  117.75800323    0.98000002    2.80999994
   19.08972359  114.80500031    0.98000002    2.80999994
   19.09194565  119.56700134    0.98000002    2.80999994
   19.09333420  115.05500031    0.98000002    2.82999992
   19.09666824  116.75499725    0.98000002    2.80999994
   19.09972191  109.67900085    0.95999998    2.80999994
   19.10583305  109.67900085    0.94000000    2.80999994
   19.11000061  112.80999756    0.89999998    2.82999992
   19.11305618  111.82900238    0.89999998    2.80999994
   19.11638832  114.56999969    0.92000002    2.80999994
   19.11972237  113.24700165    0.89999998    2.80999994
   19.12277794  114.74099731    0.89999998    2.82999992
   19.12527847  110.49199677    0.89999998    2.82999992
   19.12638855  112.96800232    0.88000000    2.80999994
   19.12972260  112.15200043    0.88000000    2.82999992
   19.13277817  116.50299835    0.88000000    2.82999992
   19.13611031  114.25900269    0.88000000    2.82999992
   19.13944435  113.34200287    0.88000000    2.80999994
   19.14249992  110.42500305    0.88000000    2.80999994
   19.14861107  110.42500305    0.88000000    2.80999994
   19.15277672  114.75099945    0.88000000    2.80999994
   19.15611076  110.96199799    0.88000000    2.82999992
   19.15861130  115.22499847    0.88000000    2.82999992
   19.15944481  116.28199768    0.88000000    2.80999994
   19.16277695  118.18399811    1.03999996    2.82999992
   19.16611099  117.80899811    1.05999994    2.82999992
   19.16916656  117.76399994    0.92000002    2.80999994
   19.17249870  116.53199768    0.92000002    2.82999992
   19.17555428  118.94799805    0.88000000    2.80999994
   19.17888832  117.15100098    0.88000000    2.82999992
   19.18194389  121.89900208    0.88000000    2.80999994
   19.18527603  114.46199799    0.86000001    2.82999992
   19.19138718  114.46199799    0.88000000    2.80999994
   19.19555473  115.01399994    0.88000000    2.82999992
   19.19888878  113.12999725    0.88000000    2.82999992
   19.20194435  112.04699707    0.86000001    2.82999992
   19.20527840  107.43299866    0.88000000    2.80999994
   19.20861244  110.19200134    0.88000000    2.80999994
   19.21166801  114.97200012    0.88000000    2.80999994
   19.21500015  115.85600281    0.88000000    2.80999994
   19.21805573  112.91999817    0.92000002    2.80999994
   19.22138977  105.29599762    0.94000000    2.80999994
   19.22444534  115.83300018    0.95999998    2.80999994
   19.22666740  112.03700256    0.95999998    2.80999994
   19.22805595  109.87300110    0.95999998    2.80999994
   19.23444557  109.87300110    0.94000000    2.82999992
   19.23861122  119.59899902    0.89999998    2.80999994
   19.24166679  122.11900330    0.89999998    2.80999994
   19.24500084  111.83100128    0.89999998    2.80999994
   19.24805641  125.46700287    0.88000000    2.80999994
   19.25138855  116.84400177    0.88000000    2.80999994
   19.25444412  121.51599884    0.95999998    2.80999994
   19.25777817  121.30999756    0.95999998    2.80999994
   19.26000023  116.18199921    0.98000002    2.80999994
   19.26138878  118.44599915    1.01999998    2.80999994
   19.26472282  118.74400330    1.07000005    2.80999994
   19.26777840  114.78800201    1.07000005    2.80999994
   19.27111053  117.41799927    0.98000002    2.78999996
   19.27722168  117.41799927    0.95999998    2.80999994
   19.28138924  119.91999817    0.94000000    2.80999994
   19.28444481  119.15899658    0.94000000    2.80999994
   19.28777695  111.05100250    0.92000002    2.80999994
   19.29111099  114.93499756    0.92000002    2.82999992
   19.29333305  115.87599945    0.92000002    2.80999994
   19.29472160  124.56300354    0.92000002    2.80999994
   19.29805565  109.99199677    0.89999998    2.80999994
   19.30111122  110.15799713    0.89999998    2.80999994
   19.30444336  113.20600128    0.92000002    2.80999994
   19.30749893  115.73400116    0.89999998    2.80999994
   19.31083298  117.41400146    0.89999998    2.80999994
   19.31388855  113.40599823    0.89999998    2.80999994
   19.32000160  113.40599823    0.92000002    2.80999994
   19.32416725  125.24800110    0.92000002    2.80999994
   19.32666779  115.26899719    0.92000002    2.80999994
   19.32777786  114.39299774    0.92000002    2.80999994
   19.33111191  113.62100220    0.94000000    2.80999994
   19.33416748  118.75000000    0.94000000    2.78999996
   19.33750153  117.11299896    0.94000000    2.80999994
   19.34055710  114.72200012    0.89999998    0.25000000
   19.34388924  114.85800171    0.89999998    0.19000000
   19.34694481  108.72299957    0.88000000    2.78999996
   19.35027885  114.90399933    0.86000001    2.80999994
   19.35361099  115.94400024    0.83999997    2.80999994
   19.35666656  112.04799652    0.83999997    2.80999994
   19.36305618  112.04799652    0.83999997    2.80999994
   19.36694527  111.51399994    0.81999999    2.80999994
   19.37027740  110.62899780    0.81999999    2.80999994
   19.37361145  116.21700287    0.81999999    2.80999994
   19.37666702  112.74400330    0.80000001    2.80999994
   19.38000107  118.14800262    0.80000001    2.80999994
   19.38333321  119.90299988    0.80000001    2.80999994
   19.38638878  115.67800140    0.80000001    2.80999994
   19.38972282  114.11399841    0.80000001    2.82999992
   19.39277840  114.02999878    0.80000001    2.82999992
   19.39388847  118.98000336    0.81999999    2.80999994
   19.39638901  112.89600372    0.80000001    2.80999994
   19.39972115  117.44799805    0.80000001    2.80999994
   19.40583229  117.44799805    0.81999999    2.80999994
   19.40999985  112.02500153    0.81999999    2.80999994
   19.41305542  120.20500183    0.81999999    2.80999994
   19.41638756  118.52600098    0.80000001    2.80999994
   19.41944313  122.29699707    0.81999999    2.80999994
   19.42277718  112.93599701    0.80000001    2.80999994
   19.42583275  116.34100342    0.80000001    2.80999994
   19.42722130  126.85299683    0.80000001    2.80999994
   19.42944336  118.30599976    0.80000001    2.78999996
   19.43277740  121.18399811    0.80000001    2.80999994
   19.43610954  114.86299896    0.80000001    2.80999994
   19.43944359  109.96700287    0.79000002    2.80999994
   19.44249916  110.07099915    0.79000002    2.80999994
   19.44888878  110.07099915    0.76999998    2.80999994
   19.45277786  118.13500214    0.76999998    2.80999994
   19.45611191  118.80599976    0.79000002    2.78999996
   19.45944595  122.87000275    0.81999999    2.78999996
   19.46055603  119.94799805    0.83999997    2.78999996
   19.46305656  112.61199951    0.83999997    2.78999996
   19.46611214  117.72000122    0.83999997    2.80999994
   19.46944427  112.19999695    0.81999999    2.80999994
   19.47249985  113.18299866    0.81999999    2.80999994
   19.47583389  118.83300018    0.80000001    2.80999994
   19.47916794  117.22299957    0.80000001    2.80999994
   19.48222351  113.54399872    0.79000002    2.80999994
   19.48555565  117.08200073    0.79000002    2.80999994
   19.49166679  117.08200073    0.79000002    2.80999994
   19.51000023  115.98899841    0.76999998    2.80999994
   19.51333427  114.15000153    0.76999998    2.80999994
   19.51638794  111.91400146    0.79000002    2.78999996
   19.51972198  111.25599670    0.80000001    2.80999994
   19.52277756  106.94899750    0.80000001    2.80999994
   19.52611160  115.88300323    0.80000001    2.78999996
   19.52916718  108.92500305    0.80000001    2.80999994
   19.53472137  108.92500305    0.80000001    2.78999996
   19.53888893  112.62899780    0.79000002    2.80999994
   19.54194450  119.52500153    0.79000002    2.80999994
   19.54305458  117.58599854    0.79000002    2.80999994
   19.54583359  122.48300171    0.79000002    2.78999996
   19.54888916  118.35600281    0.79000002    2.78999996
   19.55222130  120.60500336    0.76999998    2.78999996
   19.55527687  123.71199799    0.75000000    2.80999994
   19.55861092  115.62500000    0.75000000    2.80999994
   19.56166649  124.09899902    0.75000000    2.80999994
   19.56499863  121.36000061    0.75000000    2.80999994
   19.56833458  114.61900330    0.73000002    2.80999994
   19.57139015  112.31900024    0.73000002    2.80999994
   19.57750130  112.31900024    0.73000002    2.80999994
   19.58166695  109.80899811    0.70999998    2.78999996
   19.58500099  114.33699799    0.70999998    2.80999994
   19.58805656  114.39900208    0.69000000    2.80999994
   19.59138870  109.16200256    0.69000000    2.78999996
   19.59444427  109.02300262    0.67000002    2.80999994
   19.59777832  110.94200134    0.67000002    2.80999994
   19.60083389  108.86799622    0.69000000    2.80999994
   19.60416794  107.31099701    0.73000002    2.78999996
   19.60750008  117.45700073    0.75000000    2.78999996
   19.60972214  108.71800232    0.73000002    2.80999994
   19.61111069  110.18499756    0.73000002    2.78999996
   19.61416626  111.61599731    0.75000000    2.78999996
   19.62027740  111.61599731    0.75000000    2.80999994
   19.62444496  112.16699982    0.75000000    2.78999996
   19.62777710  110.44699860    0.76999998    2.78999996
   19.63083267  112.79299927    0.76999998    2.78999996
   19.63416672  110.79799652    0.80000001    2.78999996
   19.63750076  113.37699890    0.81999999    2.78999996
   19.64055634  113.41899872    0.83999997    2.78999996
   19.64305496  118.04399872    0.83999997    2.78999996
   19.64444351  119.67099762    0.83999997    2.78999996
   19.64749908  119.63999939    0.88000000    2.78999996
   19.65083313  116.30200195    0.89999998    2.78999996
   19.65388870  113.75900269    0.88000000    2.76999998
   19.65722275  116.18099976    0.88000000    2.78999996
   19.66333389  116.18099976    0.89999998    2.76999998
   19.66749954  114.57499695    0.89999998    2.78999996
   19.67055511  113.52600098    0.92000002    2.78999996
   19.67388916  110.17400360    0.92000002    2.78999996
   19.67638779  116.64800262    0.94000000    2.78999996
   19.67749977  117.83599854    0.94000000    2.78999996
   19.68055534  112.87699890    0.95999998    2.76999998
   19.68388748  115.79199982    0.95999998    2.76999998
   19.68694305  114.08499908    0.98000002    2.76999998
   19.69027710  114.91100311    0.95999998    2.78999996
   19.69333267  112.02999878    0.95999998    2.76999998
   19.69666672  117.03299713    0.95999998    2.76999998
   19.70000076  109.71099854    0.94000000    2.78999996
   19.70611191  109.71099854    0.92000002    2.76999998
   19.71027946  110.99500275    0.92000002    2.78999996
   19.71333504  110.67400360    0.92000002    2.76999998
   19.71666718  112.76499939    0.92000002    2.76999998
   19.71972275  109.63400269    0.89999998    2.78999996
   19.72305679  116.42099762    0.89999998    2.76999998
   19.72638893  117.47699738    0.89999998    2.78999996
   19.72944450  115.74299622    0.88000000    2.78999996
   19.73277855  114.04199982    0.89999998    2.76999998
   19.73583412  119.72299957    0.89999998    2.76999998
   19.73916626  118.71399689    0.89999998    2.78999996
   19.74222183  108.26899719    0.94000000    2.76999998
   19.74305534  114.61000061    0.94000000    2.76999998
   19.74888992  114.61000061    0.98000002    2.76999998
   19.75305557  113.71600342    0.98000002    2.76999998
   19.75638962  120.70300293    0.98000002    2.76999998
   19.75944519  113.73899841    0.98000002    2.76999998
   19.76277733  118.21099854    0.95999998    2.76999998
   19.76583290  115.02200317    0.95999998    2.76999998
   19.76916695  118.26399994    0.94000000    2.76999998
   19.77222252  111.80599976    0.98000002    2.76999998
   19.77555466  116.82199860    0.95999998    2.78999996
   19.77638817  117.58399963    0.95999998    2.78999996
   19.77916718  112.07499695    0.98000002    2.76999998
   19.78222275  115.55599976    0.98000002    2.76999998
   19.78555489  115.67800140    0.98000002    2.76999998
   19.79166603  115.67800140    0.98000002    2.76999998
   19.79583359  111.90299988    0.95999998    2.76999998
   19.79916573  110.52999878    0.95999998    2.76999998
   19.80222130  107.59200287    0.95999998    2.76999998
   19.80555534  110.82800293    0.98000002    2.76999998
   19.80861092  110.94300079    0.98000002    2.76999998
   19.80972099  113.61100006    0.98000002    2.76999998
   19.81250000  110.32299805    0.98000002    2.75000000
   19.81555557  115.22599792    1.00000000    2.76999998
   19.81888962  112.43800354    0.98000002    2.76999998
   19.82194519  114.30400085    0.95999998    2.76999998
   19.82527924  117.00299835    0.95999998    2.76999998
   19.82861137  118.51300049    0.95999998    2.76999998
   19.83472252  118.51300049    1.00000000    2.76999998
   19.83861160  117.38600159    1.00000000    2.75000000
   19.84194565  117.16600037    1.00000000    2.76999998
   19.84305573  114.61599731    1.00000000    2.76999998
   19.84555626  112.87799835    1.00000000    2.75000000
   19.84861183  117.50199890    1.00000000    2.76999998
   19.85194397  118.31999969    1.01999998    2.76999998
   19.85499954  113.20700073    1.01999998    2.75000000
   19.85833359  111.68499756    1.03999996    2.75000000
   19.86166763  115.69400024    1.03999996    2.75000000
   19.86472321  116.38400269    1.03999996    2.75000000
   19.86805534  113.92800140    1.05999994    2.75000000
   19.87111092  111.55899811    1.07000005    2.75000000
   19.87750053  111.55899811    1.09000003    2.75000000
   19.88166618  114.96600342    1.11000001    2.75000000
   19.88472176  115.10199738    1.11000001    2.75000000
   19.88805580  113.71800232    1.13000000    2.75000000
   19.89111137  113.48500061    1.13000000    2.75000000
   19.89444351  114.23500061    1.13000000    2.75000000
   19.89777756  112.29000092    1.09000003    2.75000000
   19.90083313  117.49900055    1.09000003    2.75000000
   19.90416718  118.78600311    1.07000005    2.75000000
   19.90722275  116.18199921    1.05999994    2.75000000
   19.90972137  112.05200195    1.05999994    2.75000000
   19.91110992  117.64099884    1.05999994    2.75000000
   19.91416550  119.89399719    1.05999994    2.75000000
   19.92027664  119.89399719    1.01999998    2.76999998
   19.92444420  118.84400177    1.00000000    2.75000000
   19.92749977  113.88800049    0.98000002    2.75000000
   19.93083191  114.69300079    0.94000000    2.75000000
   19.93416595  114.64499664    0.92000002    2.76999998
   19.93722153  114.30599976    0.92000002    2.76999998
   19.94055557  111.96800232    0.92000002    2.75000000
   19.94305420  116.86399841    0.94000000    2.75000000
   19.94416618  110.45600128    0.94000000    2.76999998
   19.94722176  116.52700043    0.94000000    2.75000000
   19.95055580  114.68699646    0.95999998    2.76999998
   19.95361137  113.49500275    0.98000002    2.75000000
   19.95694542  109.92199707    1.01999998    2.75000000
   19.96305656  109.92199707    1.03999996    2.75000000
   19.96722221  118.32099915    1.05999994    2.75000000
   19.97055626  117.05300140    1.07000005    2.73000002
   19.97361183  115.71900177    1.07000005    2.75000000
   19.97638893  114.65799713    1.07000005    2.75000000
   19.97750092  120.15200043    1.07000005    2.75000000
   19.98055649  116.41999817    1.07000005    2.75000000
   19.98388863  113.57399750    1.05999994    2.75000000
   19.98694420  119.83899689    1.05999994    2.75000000
   19.99027824  116.29100037    1.03999996    2.75000000
   19.99361229  117.04499817    1.03999996    2.75000000
   19.99666786  114.84899902    1.03999996    2.75000000
   20.00000000  118.51799774    1.03999996    2.75000000
   20.00611115  118.51799774    1.01999998    2.73000002
   20.01000023  116.18199921    1.00000000    2.75000000
   20.01333427  116.46600342    1.00000000    2.75000000
   20.01666641  115.17299652    1.00000000    2.75000000
   20.01972198  121.70200348    0.98000002    2.75000000
   20.02305603  113.86699677    1.00000000    2.75000000
   20.02611160  121.42099762    1.00000000    2.73000002
   20.02944374  116.70700073    1.01999998    2.73000002
   20.03249931  116.98999786    1.01999998    2.73000002
   20.03583336  121.74299622    1.05999994    2.73000002
   20.03916550  118.90799713    1.07000005    2.73000002
   20.04222107  121.84799957    1.07000005    2.73000002
   20.04305458  118.73899841    1.07000005    2.73000002
   20.04888916  118.73899841    1.09000003    2.73000002
   20.05305481  112.86900330    1.09000003    2.73000002
   20.05611038  111.36599731    1.11000001    2.73000002
   20.05944443  113.52400208    1.11000001    2.73000002
   20.06250000  117.86799622    1.14999998    2.73000002
   20.06583214  116.38999939    1.14999998    2.73000002
   20.06916809  116.10500336    1.14999998    2.75000000
   20.07222366  112.97499847    1.16999996    2.73000002
   20.07555580  117.17299652    1.16999996    2.73000002
   20.07638931  114.13099670    1.16999996    2.73000002
   20.07916832  119.42400360    1.19000006    2.71000004
   20.08250046  115.27899933    1.21000004    2.73000002
   20.08583450  115.98600006    1.19000006    2.71000004
   20.09166718  115.98600006    1.16999996    2.73000002
   20.09583473  116.01599884    1.16999996    2.73000002
   20.09889030  114.10399628    1.16999996    2.73000002
   20.10222244  116.03399658    1.16999996    2.73000002
   20.10555649  117.32199860    1.16999996    2.71000004
   20.10861206  116.22299957    1.16999996    2.73000002
   20.10972214  117.63700104    1.16999996    2.73000002
   20.11222267  118.75499725    1.19000006    2.73000002
   20.11527824  115.44499969    1.19000006    2.71000004
   20.11861038  112.66000366    1.19000006    2.71000004
   20.12194443  117.69300079    1.19000006    2.73000002
   20.12500000  116.64299774    1.16999996    2.71000004
   20.12833405  117.34700012    1.16999996    2.71000004
   20.13444519  117.34700012    1.19000006    2.73000002
   20.13861084  117.60299683    1.19000006    2.71000004
   20.14194489  118.34799957    1.19000006    2.71000004
   20.14305496  121.57700348    1.19000006    2.73000002
   20.14555550  115.80999756    1.19000006    2.71000004
   20.14861107  115.80100250    1.21000004    2.73000002
   20.15194321  111.94899750    1.21000004    2.71000004
   20.15527725  119.08499908    1.21000004    2.71000004
   20.15833282  117.45099640    1.21000004    2.73000002
   20.16166687  111.48899841    1.21000004    2.71000004
   20.16472244  117.37799835    1.21000004    2.71000004
   20.16805458  116.37599945    1.23000002    2.71000004
   20.17138863  116.04599762    1.21000004    2.71000004
   20.17749977  116.04599762    1.21000004    2.71000004
   20.18138885  119.10700226    1.21000004    2.73000002
   20.18472099  117.48000336    1.21000004    2.71000004
   20.18805504  111.12400055    1.28999996    2.71000004
   20.19111061  127.07199860    1.33000004    2.71000004
   20.19444275  118.45400238    1.36000001    2.71000004
   20.19749832  124.67500305    1.36000001    2.71000004
   20.20083427  113.53700256    1.38000000    2.69000006
   20.20388985  124.22699738    1.39999998    2.71000004
   20.20722389  126.87599945    1.39999998    2.71000004
   20.20972252  118.60399628    1.39999998    2.69000006
   20.21083450  118.16699982    1.39999998    2.71000004
   20.21389008  121.60299683    1.38000000    2.71000004
   20.22027779  121.60299683    1.39999998    2.71000004
   20.22444534  117.31600189    1.39999998    2.69000006
   20.22750092  120.89700317    1.39999998    2.71000004
   20.23083305  115.56999969    1.39999998    2.69000006
   20.23388863  115.13500214    1.41999996    2.69000006
   20.23722267  117.77600098    1.41999996    2.69000006
   20.24027824  116.36399841    1.41999996    2.71000004
   20.24305534  111.13300323    1.41999996    2.69000006
   20.24416733  118.66600037    1.41999996    2.69000006
   20.24722290  116.49700165    1.41999996    2.71000004
   20.25055504  111.35099792    1.39999998    2.69000006
   20.25388908  119.71099854    1.39999998    2.69000006
   20.25694466  115.73100281    1.39999998    2.69000006
   20.26305580  115.73100281    1.41999996    2.69000006
   20.26722145  114.80400085    1.44000006    2.69000006
   20.27027702  117.15499878    1.41999996    2.69000006
   20.27361107  113.69999695    1.44000006    2.69000006
   20.27638817  115.08200073    1.38000000    2.69000006
   20.27722168  119.70999908    1.38000000    2.69000006
   20.28027725  112.85600281    1.38000000    2.69000006
   20.28361130  119.01100159    1.36000001    2.69000006
   20.28694344  116.51999664    1.36000001    2.69000006
   20.28999901  109.95999908    1.36000001    2.69000006
   20.29333305  116.62699890    1.34000003    2.69000006
   20.29638863  114.42900085    1.34000003    2.69000006
   20.29972076  116.49500275    1.34000003    2.69000006
   20.30583191  116.49500275    1.30999994    2.69000006
   20.30999947  117.58599854    1.30999994    2.69000006
   20.31333351  116.90799713    1.28999996    2.69000006
   20.31638718  117.96499634    1.26999998    2.69000006
   20.31972313  123.69400024    1.26999998    2.69000006
   20.32277870  119.35099792    1.28999996    2.71000004
   20.32611275  122.87500000    1.28999996    2.71000004
   20.32944489  116.91400146    1.30999994    2.69000006
   20.33250046  116.64900208    1.30999994    2.69000006
   20.33583450  111.62799835    1.33000004    2.67000008
   20.33889008  117.96299744    1.36000001    2.69000006
   20.34222221  112.40499878    1.36000001    2.69000006
   20.34305573  113.72799683    1.36000001    2.69000006
   20.34889030  113.72799683    1.34000003    2.69000006
   20.35277748  111.86900330    1.34000003    2.67000008
   20.35611153  115.81700134    1.36000001    2.67000008
   20.35916710  117.59700012    1.38000000    2.69000006
   20.36250114  115.85600281    1.39999998    2.69000006
   20.36583328  114.53299713    1.41999996    2.67000008
   20.36888885  113.53600311    1.44000006    2.69000006
   20.37222290  117.31400299    1.44000006    2.67000008
   20.37527847  111.42700195    1.46000004    2.67000008
   20.37638855  118.68099976    1.46000004    2.67000008
   20.37888908  118.24400330    1.48000002    2.67000008
   20.38222313  129.59599304    1.50000000    2.67000008
   20.38527679  115.57499695    1.50000000    2.67000008
   20.39166641  115.57499695    1.50000000    2.67000008
   20.39583397  116.34200287    1.48000002    2.67000008
   20.39888954  124.79199982    1.46000004    2.67000008
   20.40222168  116.62300110    1.46000004    2.67000008
   20.40527725  117.60099792    1.44000006    2.67000008
   20.40861130  120.04100037    1.44000006    2.67000008
   20.40972137  112.81199646    1.44000006    2.67000008
   20.41222191  124.76799774    1.44000006    2.67000008
   20.41555595  121.55200195    1.41999996    2.67000008
   20.41860962  110.98100281    1.39999998    2.67000008
   20.42194366  112.47399902    1.39999998    2.67000008
   20.42499924  111.90299988    1.44000006    2.67000008
   20.42833328  113.06800079    1.41999996    2.69000006
   20.43444443  113.06800079    1.44000006    2.67000008
   20.43861008  113.77400208    1.39999998    2.67000008
   20.44166565  113.42500305    1.41999996    2.67000008
   20.44305420  110.59100342    1.39999998    2.67000008
   20.44555473  115.96199799    1.41999996    2.67000008
   20.44888878  114.53500366    1.41999996    2.67000008
   20.45194435  126.57700348    1.41999996    2.67000008
   20.45527840  116.62799835    1.41999996    2.67000008
   20.45833397  122.11900330    1.41999996    2.67000008
   20.46166801  122.49600220    1.44000006    2.67000008
   20.46472359  121.47699738    1.44000006    2.67000008
   20.46805573  120.78700256    1.44000006    2.66000009
   20.47138977  118.63300323    1.44000006    2.67000008
   20.47722244  118.63300323    1.46000004    2.67000008
   20.48139000  114.73600006    1.46000004    2.67000008
   20.48472214  129.93600464    1.48000002    2.67000008
   20.48777771  116.78199768    1.48000002    2.67000008
   20.49111176  114.77400208    1.48000002    2.67000008
   20.49444389  119.46299744    1.46000004    2.66000009
   20.49749947  108.84400177    1.46000004    2.66000009
   20.50083351  114.12300110    1.46000004    2.66000009
   20.50388908  112.09100342    1.44000006    2.67000008
   20.50722313  108.37500000    1.46000004    2.66000009
   20.50972176  114.28800201    1.44000006    2.66000009
   20.53055573  114.28800201    1.41999996    2.50000000
   20.53472137  121.86199951    1.41999996    2.50000000
   20.53777695  122.16200256    1.41999996    2.50000000
   20.54111099  117.32199860    1.41999996    2.50000000
   20.54305458  121.22000122    1.41999996    2.51999998
   20.54472160  128.21800232    1.41999996    2.50000000
   20.54805565  124.69799805    1.41999996    2.50000000
   20.55111122  124.35600281    1.44000006    2.50000000
   20.55444336  121.81999969    1.44000006    2.50000000
   20.55749893  121.75599670    1.46000004    2.51999998
   20.56083298  127.59600067    1.46000004    2.51999998
   20.56388855  121.49700165    1.46000004    2.51999998
   20.56722260  113.54900360    1.46000004    2.51999998
   20.57333374  113.54900360    1.46000004    2.51999998
   20.57722282  111.68800354    1.46000004    2.51999998
   20.58055687  114.46499634    1.46000004    2.51999998
   20.58388901  115.65599823    1.46000004    2.51999998
   20.58694458  116.74199677    1.46000004    2.51999998
   20.59027863  115.78299713    1.46000004    2.51999998
   20.59333420  113.76599884    1.46000004    2.51999998
   20.59666824  123.04399872    1.46000004    2.51999998
   20.59972191  114.30400085    1.46000004    2.51999998
   20.60305595  117.28099823    1.46000004    2.51999998
   20.60639000  122.03099823    1.46000004    2.51999998
   20.60944557  121.15799713    1.46000004    2.51999998
   20.61000061  122.68399811    1.46000004    2.51999998
   20.61611176  122.68399811    1.46000004    2.51999998
   20.62027740  120.50000000    1.46000004    2.51999998
   20.62333298  118.43000031    1.46000004    2.51999998
   20.62666702  119.81700134    1.46000004    2.51999998
   20.62972260  121.61399841    1.46000004    2.51999998
   20.63305473  129.23399353    1.46000004    2.51999998
   20.63611031  122.75900269    1.46000004    2.51999998
   20.63944435  123.93399811    1.46000004    2.51999998
   20.64277840  114.54499817    1.46000004    2.51999998
   20.64333344  119.49199677    1.46000004    2.51999998
   20.64638901  113.84999847    1.46000004    2.51999998
   20.64944458  120.45700073    1.46000004    2.51999998
   20.65277672  121.92199707    1.46000004    2.51999998
   20.65888786  121.92199707    1.46000004    2.51999998
   20.66305542  115.77200317    1.46000004    2.51999998
   20.66611099  114.13300323    1.46000004    2.51999998
   20.66944313  118.41799927    1.46000004    2.51999998
   20.67277718  120.00900269    1.46000004    2.51999998
   20.67583275  121.31700134    1.46000004    2.51999998
   20.67666626  110.66100311    1.46000004    2.51999998
   20.67944336  116.95700073    1.46000004    2.51999998
   20.68249893  112.86599731    1.46000004    2.51999998
   20.68583298  138.03700256    1.46000004    2.51999998
   20.68888855  120.95099640    1.46000004    2.51999998
   20.69222069  122.00499725    1.46000004    2.51999998
   20.69555473  164.78999329    1.46000004    2.51999998
   20.70166779  164.78999329    1.46000004    2.51999998
   20.70583344   -1.00000000    1.46000004    2.51999998
   20.70916748   -1.00000000    1.46000004    2.51999998
   20.71250153   -1.00000000    1.46000004    2.51999998
   20.71583366   -1.00000000    1.46000004    2.51999998
   20.71888924   -1.00000000    1.46000004    2.51999998
   20.72222328   -1.00000000    1.46000004    2.51999998
   20.72555542   -1.00000000    1.46000004    2.51999998
   20.72861099   -1.00000000    1.46000004    2.51999998
   20.73194504   -1.00000000    1.46000004    2.51999998
   20.73500061   -1.00000000    1.46000004    2.51999998
   20.73833275   -1.00000000    1.46000004    2.51999998
   20.74861145   -1.00000000    1.46000004    2.51999998
   20.75194359   -1.00000000    1.46000004    2.51999998
   20.75499916   -1.00000000    1.46000004    2.51999998
   20.75833321   -1.00000000    1.46000004    2.51999998
   20.76138878   -1.00000000    1.46000004    2.51999998
   20.76472282   -1.00000000    1.46000004    2.51999998
   20.76777840   -1.00000000    1.46000004    2.51999998
   20.77111053   -1.00000000    1.46000004    2.51999998
   20.77416611   -1.00000000    1.46000004    2.51999998
   20.77777672   -1.00000000    1.46000004    2.51999998
   20.78111076   -1.00000000    1.46000004    2.51999998
   20.79138756   -1.00000000    1.46000004    2.51999998
   20.79472160   -1.00000000    1.46000004    2.51999998
   20.79777718   -1.00000000    1.46000004    2.51999998
   20.80111122   -1.00000000    1.46000004    2.51999998
   20.80416679   -1.00000000    1.46000004    2.51999998
   20.80749893   -1.00000000    1.46000004    2.51999998
   20.81083298   -1.00000000    1.46000004    2.51999998
   20.81416512   -1.00000000    1.46000004    2.51999998
   20.81750107   -1.00000000    1.46000004    2.51999998
   20.82055664   -1.00000000    1.46000004    2.51999998
   20.82389069   -1.00000000    1.46000004    2.51999998
   20.83444595   -1.00000000    1.46000004    2.51999998
   20.83750153   -1.00000000    1.46000004    2.51999998
   20.84083366   -1.00000000    1.46000004    2.51999998
   20.84416771   -1.00000000    1.46000004    2.51999998
   20.84749985   -1.00000000    1.46000004    2.51999998
   20.85083389   -1.00000000    1.46000004    2.51999998
   20.85388947   -1.00000000    1.46000004    2.51999998
   20.85722351   -1.00000000    1.46000004    2.51999998
   20.86027908   -1.00000000    1.46000004    2.51999998
   20.86361122   -1.00000000    1.46000004    2.51999998
   20.86666679   -1.00000000    1.46000004    2.51999998
   20.87722206   -1.00000000    1.46000004    2.51999998
   20.88027763   -1.00000000    1.46000004    2.51999998
   20.88361168   -1.00000000    1.46000004    2.51999998
   20.88666725   -1.00000000    1.46000004    2.51999998
   20.88999939   -1.00000000    1.46000004    2.51999998
   20.89333344   -1.00000000    1.46000004    2.51999998
   20.89638901   -1.00000000    1.46000004    2.51999998
   20.89972115   -1.00000000    1.46000004    2.51999998
   20.90277672   -1.00000000    1.46000004    2.51999998
   20.90611076   -1.00000000    1.46000004    2.51999998
   20.90916634   -1.00000000    1.46000004    2.51999998
   20.92000008   -1.00000000    1.46000004    2.51999998
   20.92333221   -1.00000000    1.46000004    2.51999998
   20.92638779   -1.00000000    1.46000004    2.51999998
   20.92972183   -1.00000000    1.46000004    2.51999998
   20.93277740   -1.00000000    1.46000004    2.51999998
   20.93610954   -1.00000000    1.46000004    2.51999998
   20.93916512   -1.00000000    1.46000004    2.51999998
   20.94249916   -1.00000000    1.46000004    2.51999998
   20.94583321   -1.00000000    1.46000004    2.51999998
   20.94916534   -1.00000000    1.46000004    2.51999998
   20.95250130   -1.00000000    1.46000004    2.51999998
   20.96277809   -1.00000000    1.46000004    2.51999998
   20.96611214   -1.00000000    1.46000004    2.51999998
   20.96916771   -1.00000000    1.46000004    2.51999998
   20.97249985   -1.00000000    1.46000004    2.51999998
   20.97555542   -1.00000000    1.46000004    2.51999998
   20.97944450   -1.00000000    1.46000004    2.51999998
   20.98250008   -1.00000000    1.46000004    2.51999998
   20.98583412   -1.00000000    1.46000004    2.51999998
   20.98888969   -1.00000000    1.46000004    2.51999998
   20.99222183   -1.00000000    1.46000004    2.51999998
   20.99527740   -1.00000000    1.46000004    2.51999998
   21.00666618   -1.00000000    1.46000004    2.51999998
   21.00972176   -1.00000000    1.46000004    2.51999998
   21.01361084   -1.00000000    1.46000004    2.51999998
   21.01666641   -1.00000000    1.46000004    2.51999998
   21.02000046   -1.00000000    1.46000004    2.51999998
   21.02305603   -1.00000000    1.46000004    2.51999998
   21.02638817   -1.00000000    1.46000004    2.51999998
   21.03055573   -1.00000000    1.46000004    2.51999998
   21.03388786   -1.00000000    1.46000004    2.51999998
   21.03750038   -1.00000000    1.46000004    2.51999998
   21.04055595   -1.00000000    1.46000004    2.51999998
   21.05111122   -1.00000000    1.46000004    2.51999998
   21.05444336   -1.00000000    1.46000004    2.51999998
   21.05888748   -1.00000000    1.46000004    2.51999998
   21.06277657   -1.00000000    1.46000004    2.51999998
   21.06666756   -1.00000000    1.46000004    2.51999998
   21.07055664   -1.00000000    1.46000004    2.51999998
   21.07444572   -1.00000000    1.46000004    2.51999998
   21.07861137   -1.00000000    1.46000004    2.51999998
   21.08194542   -1.00000000    1.46000004    2.51999998
   21.09166718   -1.00000000    1.46000004    2.51999998
   21.09500122   -1.00000000    1.46000004    2.51999998
   21.09805679   -1.00000000    1.46000004    2.51999998
   21.10138893   -1.00000000    1.46000004    2.51999998
   21.10472298   -1.00000000    1.46000004    2.51999998
   21.10777855   -1.00000000    1.46000004    2.51999998
   21.11138916   -1.00000000    1.46000004    2.51999998
   21.11472321   -1.00000000    1.46000004    2.51999998
   21.11805534   -1.00000000    1.46000004    2.51999998
   21.12166595   -1.00000000    1.46000004    2.51999998
   21.12527847   -1.00000000    1.46000004    2.51999998
   21.13472176   -1.00000000    1.46000004    2.51999998
   21.13777733   -1.00000000    1.46000004    2.51999998
   21.14111137   -1.00000000    1.46000004    2.51999998
   21.14472198   -1.00000000    1.46000004    2.51999998
   21.14805603   -1.00000000    1.46000004    2.51999998
   21.15138817   -1.00000000    1.46000004    2.51999998
   21.15555573   -1.00000000    1.46000004    2.51999998
   21.15888786   -1.00000000    1.46000004    2.51999998
   21.16277695   -1.00000000    1.46000004    2.51999998
   21.16611099   -1.00000000    1.46000004    2.51999998
   21.16944313   -1.00000000    1.46000004    2.51999998
   21.17749977   -1.00000000    1.46000004    2.51999998
   21.18083191   -1.00000000    1.46000004    2.51999998
   21.18416595   -1.00000000    1.46000004    2.51999998
   21.18722153   -1.00000000    1.46000004    2.51999998
   21.19055557   -1.00000000    1.46000004    2.51999998
   21.19388771   -1.00000000    1.46000004    2.51999998
   21.19694328   -1.00000000    1.46000004    2.51999998
   21.20027924   -1.00000000    1.46000004    2.51999998
   21.20361137   -1.00000000    1.46000004    2.51999998
   21.20666695   -1.00000000    1.46000004    2.51999998
   21.21000099   -1.00000000    1.46000004    2.51999998
   21.22027779   -1.00000000    1.46000004    2.51999998
   21.22361183   -1.00000000    1.46000004    2.51999998
   21.22694588   -1.00000000    1.46000004    2.51999998
   21.23000145   -1.00000000    1.46000004    2.51999998
   21.23333359   -1.00000000    1.46000004    2.51999998
   21.23666763   -1.00000000    1.46000004    2.51999998
   21.23972321   -1.00000000    1.46000004    2.51999998
   21.24305534   -1.00000000    1.46000004    2.51999998
   21.24666786   -1.00000000    1.46000004    2.51999998
   21.24972153   -1.00000000    1.46000004    2.51999998
   21.25305557   -1.00000000    1.46000004    2.51999998
   21.26333427   -1.00000000    1.46000004    2.51999998
   21.26666641   -1.00000000    1.46000004    2.51999998
   21.27000046   -1.00000000    1.46000004    2.51999998
   21.27305603   -1.00000000    1.46000004    2.51999998
   21.27638817   -1.00000000    1.46000004    2.51999998
   21.28027725   -1.00000000    1.46000004    2.51999998
   21.28361130   -1.00000000    1.46000004    2.51999998
   21.28694344   -1.00000000    1.46000004    2.51999998
   21.28999901   -1.00000000    1.46000004    2.51999998
   21.29333305   -1.00000000    1.46000004    2.51999998
   21.29638863   -1.00000000    1.46000004    2.51999998
   21.30611038   -1.00000000    1.46000004    2.51999998
   21.30944443   -1.00000000    1.46000004    2.51999998
   21.31333351   -1.00000000    1.46000004    2.51999998
   21.31638718   -1.00000000    1.46000004    2.51999998
   21.31972313   -1.00000000    1.46000004    2.51999998
   21.32305717   -1.00000000    1.46000004    2.51999998
   21.32611275   -1.00000000    1.46000004    2.51999998
   21.32944489   -1.00000000    1.46000004    2.51999998
   21.33277893   -1.00000000    1.46000004    2.51999998
   21.33583450   -1.00000000    1.46000004    2.51999998
   21.33916664   -1.00000000    1.46000004    2.51999998
   21.34889030   -1.00000000    1.46000004    2.51999998
   21.35222244   -1.00000000    1.46000004    2.51999998
   21.35555649   -1.00000000    1.46000004    2.51999998
   21.35861206   -1.00000000    1.46000004    2.51999998
   21.36194420   -1.00000000    1.46000004    2.51999998
   21.36527824   -1.00000000    1.46000004    2.51999998
   21.36861038   -1.00000000    1.46000004    2.51999998
   21.37194443   -1.00000000    1.46000004    2.51999998
   21.37555504   -1.00000000    1.46000004    2.51999998
   21.37916756   -1.00000000    1.46000004    2.51999998
   21.38249969   -1.00000000    1.46000004    2.51999998
   21.39166641   -1.00000000    1.46000004    2.51999998
   21.39500046   -1.00000000    1.46000004    2.51999998
   21.39833260   -1.00000000    1.46000004    2.51999998
   21.40138817   -1.00000000    1.46000004    2.51999998
   21.40472221   -1.00000000    1.46000004    2.51999998
   21.40805435   -1.00000000    1.46000004    2.51999998
   21.41166687   -1.00000000    1.46000004    2.51999998
   21.41499901   -1.00000000    1.46000004    2.51999998
   21.41833305   -1.00000000    1.46000004    2.51999998
   21.42166519   -1.00000000    1.46000004    2.51999998
   21.42499924   -1.00000000    1.46000004    2.51999998
   21.43472099   -1.00000000    1.46000004    2.51999998
   21.43833160   -1.00000000    1.46000004    2.51999998
   21.44166565   -1.00000000    1.46000004    2.51999998
   21.44527626   -1.00000000    1.46000004    2.51999998
   21.44861031   -1.00000000    1.46000004    2.51999998
   21.45194435   -1.00000000    1.46000004    2.51999998
   21.45527840   -1.00000000    1.46000004    2.51999998
   21.45861244   -1.00000000    1.46000004    2.51999998
   21.46194458   -1.00000000    1.46000004    2.51999998
   21.46527863   -1.00000000    1.46000004    2.51999998
   21.46861076   -1.00000000    1.46000004    2.51999998
   21.47777748   -1.00000000    1.46000004    2.51999998
   21.48111153   -1.00000000    1.46000004    2.51999998
   21.48444557   -1.00000000    1.46000004    2.51999998
   21.48777771   -1.00000000    1.46000004    2.51999998
   21.49111176   -1.00000000    1.46000004    2.51999998
   21.49444389   -1.00000000    1.46000004    2.51999998
   21.49777794   -1.00000000    1.46000004    2.51999998
   21.50111198   -1.00000000    1.46000004    2.51999998
   21.50444412   -1.00000000    1.46000004    2.51999998
   21.50777817   -1.00000000    1.46000004    2.51999998
   21.51138878   -1.00000000    1.46000004    2.51999998
   21.52055550   -1.00000000    1.46000004    2.51999998
   21.52361107   -1.00000000    1.46000004    2.51999998
   21.52694511   -1.00000000    1.46000004    2.51999998
   21.54722214   -1.00000000    1.46000004    2.51999998
   21.55027771   -1.00000000    1.46000004    2.51999998
   21.55360985   -1.00000000    1.46000004    2.51999998
   21.56333351   -1.00000000    1.46000004    2.51999998
   21.56666756   -1.00000000    1.46000004    2.51999998
   21.57000160   -1.00000000    1.46000004    2.51999998
   21.57305717   -1.00000000    1.46000004    2.51999998
   21.57638931   -1.00000000    1.46000004    2.51999998
   21.58000183   -1.00000000    1.46000004    2.51999998
   21.58333397   -1.00000000    1.46000004    2.51999998
   21.58638954   -1.00000000    1.46000004    2.51999998
   21.58972359   -1.00000000    1.46000004    2.51999998
   21.59305573   -1.00000000    1.46000004    2.51999998
   21.59611130   -1.00000000    1.46000004    2.51999998
   21.60639000   -1.00000000    1.46000004    2.51999998
   21.60944557   -1.00000000    1.46000004    2.51999998
   21.61333466   -1.00000000    1.46000004    2.51999998
   21.61638832   -1.00000000    1.46000004    2.51999998
   21.61972237   -1.00000000    1.46000004    2.51999998
   21.62277794   -1.00000000    1.46000004    2.51999998
   21.62611198   -1.00000000    1.46000004    2.51999998
   21.62944412   -1.00000000    1.46000004    2.51999998
   21.63333321   -1.00000000    1.46000004    2.51999998
   21.63638878   -1.00000000    1.46000004    2.51999998
   21.63972282   -1.00000000    1.46000004    2.51999998
   21.65055466   -1.00000000    1.46000004    2.51999998
   21.65416718   -1.00000000    1.46000004    2.51999998
   21.65749931   -1.00000000    1.46000004    2.51999998
   21.66083336   -1.00000000    1.46000004    2.51999998
   21.66694450   -1.00000000    1.46000004    2.51999998
   21.67361069   -1.00000000    1.46000004    2.51999998
   21.68138885   -1.00000000    1.46000004    2.51999998
   21.69055557   -1.00000000    1.46000004    2.51999998
   21.69388771   -1.00000000    1.46000004    2.51999998
   21.69694328   -1.00000000    1.46000004    2.51999998
   21.70027924   -1.00000000    1.46000004    2.51999998
   21.70361137   -1.00000000    1.46000004    2.51999998
   21.70694542   -1.00000000    1.46000004    2.51999998
   21.71138954   -1.00000000    1.46000004    2.51999998
   21.71472359   -1.00000000    1.46000004    2.51999998
   21.71805573   -1.00000000    1.46000004    2.51999998
   21.72166634   -1.00000000    1.46000004    2.51999998
   21.73250008   -1.00000000    1.46000004    2.51999998
   21.73555565   -1.00000000    1.46000004    2.51999998
   21.73888969   -1.00000000    1.46000004    2.51999998
   21.74250031   -1.00000000    1.46000004    2.51999998
   21.74583435   -1.00000000    1.46000004    2.51999998
   21.74916649   -1.00000000    1.46000004    2.51999998
   21.75888824   -1.00000000    1.46000004    2.51999998
   21.76222229   -1.00000000    1.46000004    2.51999998
   21.76527786   -1.00000000    1.46000004    2.51999998
   21.76861000   -1.00000000    1.46000004    2.51999998
   21.77194405   -1.00000000    1.46000004    2.51999998
   21.78249931   -1.00000000    1.46000004    2.51999998
   21.78555489   -1.00000000    1.46000004    2.51999998
   21.78888893   -1.00000000    1.46000004    2.51999998
   21.79249954   -1.00000000    1.46000004    2.51999998
   21.79555511   -1.00000000    1.46000004    2.51999998
   21.79888916   -1.00000000    1.46000004    2.51999998
   21.80222130   -1.00000000    1.46000004    2.51999998
   21.80555534   -1.00000000    1.46000004    2.51999998
   21.80861092   -1.00000000    1.46000004    2.51999998
   21.81194305   -1.00000000    1.46000004    2.51999998
   21.81555557   -1.00000000    1.46000004    2.51999998
   21.82527924   -1.00000000    1.46000004    2.51999998
   21.83000183   -1.00000000    1.46000004    2.51999998
   21.83361244   -1.00000000    1.46000004    2.51999998
   21.83750153   -1.00000000    1.46000004    2.51999998
   21.84111214   -1.00000000    1.46000004    2.51999998
   21.84472275   -1.00000000    1.46000004    2.51999998
   21.84889030   -1.00000000    1.46000004    2.51999998
   21.85277748   -1.00000000    1.46000004    2.51999998
   21.85611153   -1.00000000    1.46000004    2.51999998
   21.85944557   -1.00000000    1.46000004    2.51999998
   21.86861038   -1.00000000    1.46000004    2.51999998
   21.87249947   -1.00000000    1.46000004    2.51999998
   21.87638855   -1.00000000    1.46000004    2.51999998
   21.87944412   -1.00000000    1.46000004    2.51999998
   21.88333321   -1.00000000    1.46000004    2.51999998
