    HOUR (UT)   FLARE FACTOR    SKY TESTER    SUN TESTER
   11.15666676   -1.00000000   -1.00000000   -1.00000000
   11.18972206  152.85699463    4.90999985    1.83000004
   11.19277763  158.51800537    4.90999985    1.83000004
   11.19611073  163.09899902    4.90999985    1.83000004
   11.19944477  150.28999329    4.90999985    1.83000004
   11.20249939  156.47599792    4.90999985    1.85000002
   11.20583344  166.01800537    4.90999985    1.85000002
   11.21000004  166.01800537    4.90999985    1.85000002
   11.21416664  152.19099426    4.90999985    1.85000002
   11.21722221  158.83000183    4.90999985    1.85000002
   11.22055531  154.00599670    4.90999985    1.85000002
   11.22277737  155.19000244    4.90999985    1.85000002
   11.22416592  156.79100037    4.90999985    1.85000002
   11.22749996  151.32499695    4.90999985    1.85000002
   11.23055553  162.05400085    4.90999985    1.86000001
   11.23388958  160.45300293    4.90999985    1.86000001
   11.23722267  158.17500305    4.90999985    1.86000001
   11.24027824  162.91799927    4.90999985    1.86000001
   11.24361134  143.04800415    4.90999985    1.86000001
   11.24666691  138.83099365    4.90999985    1.86000001
   11.25277805  138.83099365    4.13999987    1.88000000
   11.25694466  155.61099243    3.39000010    1.89999998
   11.26000023  150.24400330    2.91000009    1.88000000
   11.26333332  142.17999268    2.53999996    1.88000000
   11.26666641  147.89100647    2.26999998    1.89999998
   11.26972198  145.45100403    2.28999996    1.91999996
   11.27305508  157.09100342    2.48000002    1.89999998
   11.27638817  150.23699951    2.89000010    1.91999996
   11.27944374  143.22300720    3.50000000    1.91999996
   11.28277779  164.75700378    4.42999983    1.94000006
   11.28583336  153.03700256    4.90999985    1.94000006
   11.28916740  150.52200317    4.90999985    1.91999996
   11.28972244  157.80900574    4.90999985    1.91999996
   11.29555607  157.80900574    4.90999985    1.94000006
   11.29972267  139.75900269    4.90999985    1.94000006
   11.30305576  154.05200195    4.90999985    1.96000004
   11.30611134  159.93699646    4.90999985    1.96000004
   11.30944443  171.22599792    4.90999985    1.96000004
   11.31277752  151.43899536    4.90999985    1.96000004
   11.31583309  152.14999390    4.90999985    1.98000002
   11.31916618  145.31100464    4.90999985    2.00000000
   11.32222176  141.03500366    4.90999985    2.00000000
   11.32305527  168.25799561    4.90999985    2.00000000
   11.32611084  144.27400208    4.90999985    2.00000000
   11.32972240  137.97399902    4.90999985    2.01999998
   11.33277798  148.62600708    4.90999985    2.01999998
   11.33833313  148.62600708    4.90999985    2.00000000
   11.34249973  149.09100342    4.90999985    1.91999996
   11.34583282  206.29899597    4.90999985    1.88000000
   11.34916592  182.62500000    4.90999985    1.86000001
   11.35222244  202.17799377    4.90999985    1.85000002
   11.35555553  190.23599243    4.90999985    1.86000001
   11.35638905  188.03599548    4.90999985    1.89999998
   11.35916710  141.73599243    4.90999985    1.96000004
   11.36222267  129.85200500    4.90999985    2.00000000
   11.36555576  132.64500427    4.90999985    2.01999998
   11.36888885  147.30599976    4.90999985    2.03999996
   11.37194443  148.24499512    4.90999985    2.00000000
   11.37527752  160.91900635    4.90999985    1.94000006
   11.38138866  160.91900635    4.90999985    1.91999996
   11.38555527  132.97799683    4.90999985    1.98000002
   11.38861084  137.05599976    4.90999985    2.01999998
   11.38972187  134.86900330    4.90999985    2.03999996
   11.39277744  137.83299255    4.90999985    2.03999996
   11.39583302  144.77699280    4.90999985    2.03999996
   11.39916611  124.64299774    4.90999985    2.05999994
   11.40249920  136.33000183    4.90999985    2.05999994
   11.40555477  144.67199707    4.90999985    2.05999994
   11.40888882  140.28599548    4.90999985    2.07999992
   11.41222191  144.88099670    4.90999985    2.07999992
   11.41527748  148.07099915    4.90999985    2.07999992
   11.41861153  136.44599915    4.90999985    2.09999990
   11.42416668  136.44599915    4.90999985    2.09999990
   11.42833328  138.23300171    4.90999985    2.11999989
   11.43138885  144.88299561    4.90999985    2.11999989
   11.43472195  140.01100159    4.90999985    2.13000011
   11.43805599  141.24400330    4.90999985    2.15000010
   11.44111156  150.83599854    4.90999985    2.17000008
   11.44444466  180.73599243    4.90999985    2.15000010
   11.44777775  176.36999512    4.90999985    2.03999996
   11.45083332  137.75599670    4.90999985    1.75000000
   11.45416641   60.49539948    4.90999985    1.38000000
   11.45749950   -1.00000000    4.90999985    1.07000005
   11.46083355   -1.00000000    4.90999985    0.88000000
   11.47111034   -1.00000000    4.90999985    0.47999999
   11.47416592   -1.00000000    4.90999985    0.38000000
   11.47749996   -1.00000000    4.90999985    0.31999999
   11.48083305   -1.00000000    4.90999985    0.28000000
   11.48388958   -1.00000000    4.90999985    0.28000000
   11.48722267   -1.00000000    4.90999985    0.30000001
   11.49055576   -1.00000000    4.90999985    0.36000001
   11.49388885   -1.00000000    4.90999985    0.44000000
   11.49722290   -1.00000000    4.90999985    0.50000000
   11.50027752   -1.00000000    4.90999985    0.47999999
   11.50361156   -1.00000000    4.90999985    0.41999999
   11.51388931   -1.00000000    4.90999985    0.36000001
   11.51722240   -1.00000000    4.90999985    0.38000000
   11.52027798   -1.00000000    4.90999985    0.40000001
   11.52388859   -1.00000000    4.90999985    0.50000000
   11.52722168   -1.00000000    4.90999985    0.67000002
   11.53055573   -1.00000000    4.90999985    0.88000000
   11.53361130   -1.00000000    4.90999985    1.09000003
   11.53694534   -1.00000000    4.90999985    1.26999998
   11.54000092   -1.00000000    4.90999985    1.33000004
   11.54333401   -1.00000000    4.90999985    1.30999994
   11.54666710   -1.00000000    4.90999985    1.30999994
   11.55666733   -1.00000000    4.90999985    1.19000006
   11.56000042   -1.00000000    4.90999985    1.23000002
   11.56333351   -1.00000000    4.90999985    1.34000003
   11.56638908  134.72799683    4.90999985    1.55999994
   11.56972218  127.62000275    4.90999985    1.91999996
   11.57277775  130.98100281    4.90999985    2.19000006
   11.57611084  112.05300140    4.90999985    2.30999994
   11.57944393  130.31799316    4.90999985    2.28999996
   11.58249950  103.70400238    4.90999985    2.15000010
   11.58583260  100.15299988    4.90999985    1.76999998
   11.58916664  145.31300354    4.90999985    1.38000000
   11.58972168  157.68400574    4.90999985    1.38000000
   11.59555531  157.68400574    4.90999985    1.44000006
   11.59972191  133.83999634    4.90999985    1.75000000
   11.60277843  110.61599731    4.90999985    2.09999990
   11.60611153  122.24299622    4.90999985    2.23000002
   11.60944462  122.74299622    4.90999985    2.25000000
   11.61250019  116.44799805    4.90999985    2.23000002
   11.61583328  123.92500305    4.90999985    2.23000002
   11.61916637  123.96199799    4.90999985    2.23000002
   11.62222195  117.80500031    4.90999985    2.23000002
   11.62305546  123.65299988    4.90999985    2.23000002
   11.62583351  123.81700134    4.90999985    2.23000002
   11.62888908  115.23799896    4.90999985    2.23000002
   11.63222218  114.09200287    4.90999985    2.25000000
   11.63833332  114.09200287    4.90999985    2.25000000
   11.64249992  110.40599823    4.90999985    2.25000000
   11.64583302  130.63999939    4.90999985    2.26999998
   11.64888859  136.67399597    4.90999985    2.17000008
   11.65222168  134.82699585    4.90999985    1.96000004
   11.65555477  198.66400146    4.90999985    1.80999994
   11.65638828  182.82600403    4.90999985    1.75000000
   11.65916634   -1.00000000    4.90999985    1.63000000
   11.66222191   -1.00000000    4.90999985    1.53999996
   11.66555500   49.88259888    4.90999985    1.53999996
   11.66888905  121.53700256    4.90999985    1.66999996
   11.67194462  164.59599304    4.90999985    1.83000004
   11.67527771  138.26699829    4.90999985    2.05999994
   11.68138885  138.26699829    4.90999985    2.21000004
   11.68527794  163.64599609    4.90999985    2.15000010
   11.68861103  300.29598999    4.90999985    2.05999994
   11.69055557  269.16900635    4.90999985    2.00000000
   11.69194412  160.03700256    4.90999985    1.96000004
   11.69194412  163.64599609    4.90999985    2.15000010
   11.69222260  300.29598999    4.90999985    2.05999994
   11.69222260  198.66400146    4.90999985    1.80999994
   11.69222260   -1.00000000    4.90999985    1.63000000
   11.69250011   -1.00000000    4.90999985    1.53999996
   11.69250011   49.88259888    4.90999985    1.53999996
   11.69250011  121.53700256    4.90999985    1.66999996
   11.69277763  164.59599304    4.90999985    1.83000004
   11.69277763  138.26699829    4.90999985    2.05999994
   11.69388866  212.55299377    4.90999985    1.98000002
   11.69722271  299.26998901    4.90999985    2.00000000
   11.70027733  202.86900330    4.90999985    1.96000004
   11.70361137  200.53300476    4.90999985    1.83000004
   11.70666695   -1.00000000    4.90999985    1.58000004
   11.71666622   -1.00000000    4.90999985    0.79000002
   11.71999931   -1.00000000    4.90999985    0.80000001
   11.72333336   -1.00000000    4.90999985    1.03999996
   11.72666645   -1.00000000    4.90999985    1.25000000
   11.72999954   -1.00000000    4.90999985    1.19000006
   11.73305511   -1.00000000    4.90999985    1.19000006
   11.73638916   -1.00000000    4.90999985    1.11000001
   11.73972225   -1.00000000    4.90999985    1.00000000
   11.74277782   -1.00000000    4.90999985    0.98000002
   11.74611092   -1.00000000    4.90999985    0.95999998
   11.74944496   -1.00000000    4.90999985    0.92000002
   11.75972176   -1.00000000    4.90999985    0.89999998
   11.76277733   -1.00000000    4.90999985    0.83999997
   11.76611137   -1.00000000    4.90999985    0.88000000
   11.76944447   -1.00000000    4.90999985    1.00000000
   11.77250004   -1.00000000    4.90999985    1.19000006
   11.77583313  157.05299377    4.90999985    1.39999998
   11.77888870  104.07199860    4.90999985    1.58000004
   11.78222179  205.60099792    4.90999985    1.71000004
   11.78555584  377.13699341    4.90999985    1.76999998
   11.78750038  170.72000122    4.90999985    1.83000004
   11.78750038   -1.00000000    4.90999985    0.88000000
   11.78777790   -1.00000000    4.90999985    1.00000000
   11.78777790   -1.00000000    4.90999985    1.19000006
   11.78777790  157.05299377    4.90999985    1.39999998
   11.78805637  104.07199860    4.90999985    1.58000004
   11.78805637  205.60099792    4.90999985    1.71000004
   11.78805637  377.13699341    4.90999985    1.76999998
   11.78833389   -1.00000000    4.90999985    0.89999998
   11.78833389   -1.00000000    4.90999985    0.83999997
   11.79027843  224.00900269    4.90999985    1.83000004
   11.79361153  256.44699097    4.90999985    1.80999994
   11.79666710  116.85800171    4.90999985    1.85000002
   11.80000019  185.31399536    4.90999985    1.80999994
   11.80333328   -1.00000000    4.90999985    1.66999996
   11.80833340   -1.00000000    4.90999985    1.53999996
   11.81250000  100.78600311    4.90999985    1.76999998
   11.81555557   99.34339905    4.90999985    2.03999996
   11.81888866   93.80799866    4.90999985    2.26999998
   11.82138920  105.44300079    4.90999985    2.30999994
   11.82277775  140.23699951    4.90999985    2.28999996
   11.82583332  119.54000092    4.90999985    2.15000010
   11.82916641   87.13439941    4.90999985    1.96000004
   11.83222198  106.04199982    4.90999985    2.03999996
   11.83555508  102.79100037    4.90999985    2.26999998
   11.83888817  115.98400116    4.90999985    2.44000006
   11.84194374  119.26399994    4.90999985    2.46000004
   11.84527779  107.16899872    4.90999985    2.48000002
   11.85111141  107.16899872    4.90999985    2.44000006
   11.85527802  110.23100281    4.90999985    2.44000006
   11.85861111  121.42099762    4.90999985    2.44000006
   11.86194515  116.52100372    4.90999985    2.42000008
   11.86500072  112.55699921    4.90999985    2.44000006
   11.86833382  105.94999695    4.90999985    2.46000004
   11.87138939  106.93299866    4.90999985    2.46000004
   11.87472248  110.09100342    4.90999985    2.46000004
   11.87805557  109.84200287    4.90999985    2.46000004
   11.88111115  107.90599823    4.90999985    2.46000004
   11.88444424  113.83300018    4.90999985    2.46000004
   11.88777733  109.80000305    4.90999985    2.46000004
   11.88805580  109.32599640    4.90999985    2.44000006
   11.89388847  109.32599640    4.90999985    2.44000006
   11.89805508  113.75399780    4.90999985    2.44000006
   11.90138817  118.87799835    4.90999985    2.44000006
   11.90472221  112.86100006    4.90999985    2.46000004
   11.90777779  115.79799652    4.90999985    2.44000006
   11.91111088  113.71600342    4.90999985    2.44000006
   11.91416645  109.04000092    4.90999985    2.44000006
   11.91750050  113.58399963    4.90999985    2.42000008
   11.92083359  109.42400360    4.90999985    2.44000006
   11.92166710  114.91600037    4.90999985    2.44000006
   11.92444515  113.20999908    4.90999985    2.44000006
   11.92777824  109.38500214    4.90999985    2.44000006
   11.93083382  113.53099823    4.90999985    2.42000008
   11.93694496  113.53099823    4.90999985    2.42000008
   11.94111156  110.53800201    4.90999985    2.42000008
   11.94416714  110.84400177    4.90999985    2.42000008
   11.94750023  106.40599823    4.90999985    2.42000008
   11.95055580  106.12200165    4.88999987    2.40000010
   11.95388889  111.79499817    3.78999996    2.40000010
   11.95499992  109.56700134    3.41000009    2.40000010
   11.95749950  113.06300354    2.42000008    2.42000008
   11.96083355  109.20700073    1.69000006    2.42000008
   11.96388912  110.59600067    1.25000000    2.42000008
   11.96722221  110.30599976    1.39999998    2.40000010
   11.97055531  108.25000000    1.36000001    2.42000008
   11.97361088  103.81500244    1.26999998    2.40000010
   11.97972202  103.81500244    0.92000002    2.40000010
   11.98388958  115.37999725    0.88000000    2.42000008
   11.98694515  107.22399902    0.89999998    2.40000010
   11.98833370  109.65599823    0.89999998    2.40000010
   11.99055576  112.09799957    0.88000000    2.42000008
   11.99388885  116.00599670    0.86000001    2.42000008
   11.99694443  112.82599640    0.80000001    2.42000008
   12.00027752  114.96499634    0.76999998    2.42000008
   12.00361156  111.28600311    0.70999998    2.42000008
   12.00666714  106.34200287    0.69000000    2.42000008
   12.01000023  103.59100342    0.69000000    2.40000010
   12.01333332  108.94899750    0.64999998    2.42000008
   12.01638889  119.64900208    0.64999998    2.42000008
   12.02250004  119.64900208    0.67000002    2.40000010
   12.02666664  113.98300171    0.64999998    2.42000008
   12.02999973  117.43900299    0.64999998    2.42000008
   12.03305531  116.33200073    0.63000000    2.44000006
   12.03638935  117.19999695    0.63000000    2.42000008
   12.03972244  115.10399628    0.64999998    2.42000008
   12.04277802  120.10399628    0.63000000    2.42000008
   12.04611111  119.25099945    0.63000000    2.42000008
   12.04944515  105.14499664    0.64999998    2.42000008
   12.05249977  108.49900055    0.64999998    2.42000008
   12.05500031  108.56800079    0.64999998    2.42000008
   12.05611134  115.44999695    0.64999998    2.44000006
   12.05944443  119.01300049    0.67000002    2.42000008
   12.06527805  119.01300049    0.67000002    2.44000006
   12.06944466  118.19000244    0.67000002    2.44000006
   12.07277775  119.20800018    0.69000000    2.44000006
   12.07583332  119.71900177    0.67000002    2.44000006
   12.07916641  124.44100189    0.67000002    2.44000006
   12.08249950  120.75399780    0.67000002    2.42000008
   12.08555508  112.33300018    0.67000002    2.44000006
   12.08833313  116.99700165    0.67000002    2.44000006
   12.08916664  123.30699921    0.67000002    2.44000006
   12.09249973  117.18699646    0.67000002    2.46000004
   12.09555531  119.93499756    0.67000002    2.46000004
   12.09888840  121.09500122    0.67000002    2.44000006
   12.10222244  111.54699707    0.67000002    2.44000006
   12.10833359  111.54699707    0.67000002    2.44000006
   12.11250019  114.35399628    0.67000002    2.44000006
   12.11555576  113.60099792    0.67000002    2.44000006
   12.11888885  108.90599823    0.67000002    2.44000006
   12.12166691  113.52500153    0.67000002    2.46000004
   12.12250042  113.67800140    0.67000002    2.46000004
   12.12583351  119.83999634    0.67000002    2.46000004
   12.12916660  114.80200195    0.67000002    2.46000004
   12.13222218  119.01100159    0.67000002    2.46000004
   12.13555527  115.93599701    0.64999998    2.46000004
   12.13861084  115.39499664    0.67000002    2.46000004
   12.14194393  109.55599976    0.64999998    2.46000004
   12.14527798  111.58000183    0.63000000    2.46000004
   12.15111065  111.58000183    0.63000000    2.46000004
   12.15527725  100.03500366    0.61000001    2.46000004
   12.15833282  105.85800171    0.58999997    2.46000004
   12.16166592  106.66000366    0.61000001    2.46000004
   12.16499996  114.60900116    0.61000001    2.46000004
   12.16805553  107.47699738    0.58999997    2.46000004
   12.17138958  106.62400055    0.61000001    2.48000002
   12.17444515   98.53050232    0.58999997    2.46000004
   12.17777824  101.02999878    0.61000001    2.48000002
   12.18111134  107.04299927    0.58999997    2.48000002
   12.18416691  103.59799957    0.58999997    2.46000004
   12.18750000  103.14499664    0.56999999    2.48000002
   12.18833351  106.33300018    0.56999999    2.48000002
   12.21055508  106.33300018    0.55000001    2.48000002
   12.21444416  113.05699921    0.56999999    2.48000002
   12.21777725  115.01999664    0.56999999    2.48000002
   12.22111034  109.48300171    0.56999999    2.48000002
   12.22194386  111.95999908    0.56999999    2.48000002
   12.22444439  110.31999969    0.58999997    2.48000002
   12.22777748  116.06900024    0.56999999    2.48000002
   12.23111057  117.45099640    0.56999999    2.48000002
   12.23416710  109.77500153    0.58999997    2.48000002
   12.23750019  112.84999847    0.58999997    2.50000000
   12.24055576  120.00900269    0.58999997    2.48000002
   12.24388885  114.08599854    0.58999997    2.48000002
   12.24722290  112.09100342    0.58999997    2.48000002
   12.25305557  112.09100342    0.58999997    2.48000002
   12.25722218  114.65100098    0.61000001    2.48000002
   12.26055527  110.68000031    0.58999997    2.50000000
   12.26388931  116.55400085    0.58999997    2.48000002
   12.26694393  109.49299622    0.58999997    2.48000002
   12.27027798  114.43499756    0.58999997    2.50000000
   12.27333355  112.25800323    0.58999997    2.50000000
   12.27666664  108.68199921    0.56999999    2.50000000
   12.27999973  113.37999725    0.58999997    2.50000000
   12.28305531  114.49400330    0.56999999    2.50000000
   12.28638935  107.24700165    0.56999999    2.50000000
   12.28861141  111.02500153    0.56999999    2.50000000
   12.29000092  113.48000336    0.56999999    2.50000000
   12.29611111  113.48000336    0.56999999    2.50000000
   12.30000019  113.80500031    0.56999999    2.50000000
   12.30333328  112.06800079    0.56999999    2.50000000
   12.30666733  111.12799835    0.58999997    2.50000000
   12.30972195  116.03900146    0.56999999    2.51999998
   12.31305599  115.11699677    0.56999999    2.51999998
   12.31638908  113.76699829    0.58999997    2.51999998
   12.31944466  112.76200104    0.56999999    2.51999998
   12.32194424  123.13800049    0.56999999    2.50000000
   12.32305527  108.46499634    0.56999999    2.50000000
   12.32638836  115.40200043    0.56999999    2.51999998
   12.32972240  110.99700165    0.56999999    2.51999998
   12.33277798  115.27200317    0.56999999    2.51999998
   12.33888817  115.27200317    0.56999999    2.50000000
   12.34305477  109.01000214    0.58999997    2.51999998
   12.34611034  109.25700378    0.67000002    2.50000000
   12.34944439  114.34700012    0.79000002    2.51999998
   12.35277843  113.69300079    0.94000000    2.51999998
   12.35527802  109.33499908    1.11000001    2.50000000
   12.35638905  110.97000122    1.14999998    2.50000000
   12.35972214  108.02700043    1.48000002    2.50000000
   12.36277771  110.21199799    1.66999996    2.51999998
   12.36611176  107.08100128    1.76999998    2.50000000
   12.36944485  108.67600250    1.78999996    2.50000000
   12.37250042  107.57900238    1.76999998    2.50000000
   12.37583351  107.06199646    1.53999996    2.50000000
   12.38166714  107.06199646    1.28999996    2.51999998
   12.38583279  114.55699921    0.94000000    2.51999998
   12.38888836  112.98999786    0.92000002    2.53999996
   12.38944435  122.81800079    0.92000002    2.53999996
   12.39277744  110.31700134    0.73000002    2.53999996
   12.39583302  112.39399719    0.63000000    2.51999998
   12.39916611  112.89800262    0.61000001    2.53999996
   12.40249920  105.95500183    0.58999997    2.53999996
   12.40555477  111.05999756    0.56999999    2.51999998
   12.40888882  124.86900330    0.56999999    2.53999996
   12.41222191  109.57099915    0.55000001    2.53999996
   12.41527748  108.05699921    0.52999997    2.53999996
   12.41861153  103.08599854    0.51999998    2.53999996
   12.42444515  103.08599854    0.50000000    2.53999996
   12.42861176  111.55000305    0.50000000    2.53999996
   12.43194485  107.96600342    0.51999998    2.53999996
   12.43500042  110.75900269    0.51999998    2.53999996
   12.43833351  105.45800018    0.51999998    2.53999996
   12.44166660  112.98000336    0.50000000    2.53999996
   12.44472218  104.07599640    0.50000000    2.53999996
   12.44805527  104.92700195    0.50000000    2.53999996
   12.45138836  104.57700348    0.47999999    2.53999996
   12.45444393  109.56999969    0.50000000    2.53999996
   12.45555496  112.40899658    0.50000000    2.53999996
   12.45805550  110.62500000    0.47999999    2.53999996
   12.46138859  106.16300201    0.46000001    2.55999994
   12.46888828  106.16300201    0.47999999    2.53999996
   12.47333336  111.29299927    0.50000000    2.53999996
   12.47638798  110.14499664    0.50000000    2.53999996
   12.47972202  118.11599731    0.50000000    2.55999994
   12.48305511  116.77600098    0.50000000    2.53999996
   12.48611164  112.61699677    0.50000000    2.55999994
   12.48888874  110.54299927    0.51999998    2.55999994
   12.48972225  109.28099823    0.51999998    2.55999994
   12.49305534  110.62000275    0.51999998    2.55999994
   12.49611092  110.79499817    0.51999998    2.55999994
   12.49944496  115.19000244    0.51999998    2.55999994
   12.50277805  118.05799866    0.51999998    2.55999994
   12.50583363  116.51200104    0.52999997    2.53999996
   12.51027775  116.51200104    0.52999997    2.55999994
   12.51444435  113.61499786    0.55000001    2.55999994
   12.51749992  111.24299622    0.55000001    2.55999994
   12.52083302  108.23899841    0.52999997    2.55999994
   12.52222157  107.16500092    0.52999997    2.55999994
   12.52444458  106.90200043    0.52999997    2.55999994
   12.52777767  111.75900269    0.51999998    2.55999994
   12.53083324  110.46399689    0.51999998    2.55999994
   12.53416729  113.58999634    0.51999998    2.53999996
   12.53722286  114.41600037    0.51999998    2.55999994
   12.54055595  130.77499390    0.50000000    2.55999994
   12.54388905  114.47699738    0.50000000    2.57999992
   12.54694462  107.98400116    0.47999999    2.57999992
   12.55305576  107.98400116    0.46000001    2.55999994
   12.55722237  117.97499847    0.46000001    2.55999994
   12.56055546  105.75299835    0.46000001    2.57999992
   12.56361103  110.12100220    0.46000001    2.57999992
   12.56694412  114.80300140    0.46000001    2.57999992
   12.56999969  111.63200378    0.46000001    2.55999994
   12.57333374  112.15200043    0.46000001    2.55999994
   12.57666683  110.43900299    0.46000001    2.57999992
   12.57972240  117.16400146    0.46000001    2.57999992
   12.58305550  112.48899841    0.47999999    2.57999992
   12.58638859  109.56800079    0.46000001    2.57999992
   12.58888817  118.08999634    0.47999999    2.57999992
   12.59000015  118.41699982    0.47999999    2.57999992
   12.59583282  118.41699982    0.50000000    2.57999992
   12.60000038  107.59600067    0.47999999    2.57999992
   12.60333347  108.33499908    0.47999999    2.57999992
   12.60638905  112.87000275    0.47999999    2.57999992
   12.60972214  112.55200195    0.47999999    2.57999992
   12.61305618  117.43800354    0.47999999    2.59999990
   12.61611176  111.10099792    0.47999999    2.57999992
   12.61944485  110.90399933    0.47999999    2.57999992
   12.62222195  113.54399872    0.47999999    2.57999992
   12.62305546  116.73600006    0.47999999    2.57999992
   12.62638855  114.05300140    0.47999999    2.57999992
   12.62944412  113.25800323    0.47999999    2.57999992
   12.63277817  113.15699768    0.47999999    2.59999990
   12.63888836  113.15699768    0.47999999    2.57999992
   12.64277744  123.07900238    0.51999998    2.57999992
   12.64611053  110.82800293    0.50000000    2.57999992
   12.64944458  114.76399994    0.50000000    2.57999992
   12.65249920  115.86299896    0.51999998    2.57999992
   12.65555477  112.44000244    0.51999998    2.57999992
   12.65611076  110.07099915    0.51999998    2.57999992
   12.65944386  112.37599945    0.51999998    2.59999990
   12.66249943  110.29599762    0.58999997    2.59999990
   12.66583252  109.12699890    0.67000002    2.59999990
   12.66916656  107.00800323    0.89999998    2.59999990
   12.67222214  105.25599670    0.94000000    2.59999990
   12.67555618  105.58499908    0.94000000    2.59999990
   12.68166733  105.58499908    0.86000001    2.57999992
   12.68583298  108.90299988    0.83999997    2.57999992
   12.68888855  109.75299835    0.76999998    2.57999992
   12.68944454  113.07900238    0.61000001    2.59999990
   12.69277763  121.74400330    0.40000001    2.59999990
   12.69583321  119.09799957    0.38000000    2.59999990
   12.69916630  116.32800293    0.40000001    2.59999990
   12.70249939  106.46700287    0.40000001    2.61999989
   12.70555496  107.23699951    0.40000001    2.61999989
   12.70888901  115.94899750    0.46000001    2.61999989
   12.71194458  111.78399658    0.47999999    2.59999990
   12.71527767  110.05400085    0.50000000    2.59999990
   12.71861076  111.08899689    0.50000000    2.59999990
   12.72444439  111.08899689    0.47999999    2.59999990
   12.72861099  113.96099854    0.46000001    2.59999990
   12.73194408  117.22799683    0.50000000    2.59999990
   12.73500061  121.36900330    0.50000000    2.59999990
   12.73833370  109.69400024    0.51999998    2.61999989
   12.74138927  117.00700378    0.50000000    2.59999990
   12.74472237  114.40499878    0.50000000    2.61999989
   12.74805546  110.96700287    0.50000000    2.61999989
   12.75111103  117.16200256    0.55000001    2.61999989
   12.75444412  111.25199890    0.61000001    2.61999989
   12.75555515  110.09799957    0.61000001    2.61999989
   12.75805569  112.60099792    0.58999997    2.61999989
   12.76138878  113.59700012    0.58999997    2.61999989
   12.76722240  113.59700012    0.47999999    2.59999990
   12.77138901  118.26200104    0.47999999    2.59999990
   12.77472210  111.89700317    0.47999999    2.59999990
   12.77777767  113.01999664    0.47999999    2.61999989
   12.78111076  114.06400299    0.47999999    2.64000010
   12.78444481  113.66100311    0.51999998    2.61999989
   12.78750038  107.44699860    0.55000001    2.61999989
   12.78888893  107.12699890    0.55000001    2.61999989
   12.79111195  106.51300049    0.55000001    2.61999989
   12.79444504  106.83200073    0.64999998    2.64000010
   12.79750061  112.84200287    0.69000000    2.61999989
   12.80083370  110.53600311    0.83999997    2.61999989
   12.80416679  114.68399811    0.89999998    2.61999989
   12.81027794  114.68399811    2.21000004    2.59999990
   12.81416702  105.43099976    1.96000004    2.61999989
   12.81750011  104.55200195    1.96000004    2.61999989
   12.82083321  107.62599945    1.36000001    2.61999989
   12.82250023  112.58799744    0.92000002    2.61999989
   12.82444477  111.15399933    1.61000001    2.64000010
   12.82777786  113.58899689    2.11999989    2.61999989
   12.83083344  114.28700256    2.00000000    2.48000002
   12.83416653  108.97200012    2.07999992    2.51999998
   12.83722210  105.95200348    2.11999989    2.55999994
   12.84055519  111.82399750    0.81999999    2.61999989
   12.84388828  117.83399963    0.64999998    2.61999989
   12.84694386  111.56099701    0.63000000    2.64000010
   12.85305595  111.56099701    0.63000000    2.64000010
   12.85722256  111.43399811    0.51999998    2.64000010
   12.86027813  111.24400330    0.50000000    2.61999989
   12.86361122  112.02300262    0.50000000    2.61999989
   12.86694431  102.47599792    0.50000000    2.61999989
   12.86999989  105.36799622    0.52999997    2.61999989
   12.87333393  102.35800171    0.51999998    2.64000010
   12.87638855  107.32499695    0.52999997    2.64000010
   12.87972260  108.79199982    0.51999998    2.64000010
   12.88305569  104.18499756    0.56999999    2.64000010
   12.88611126  107.51300049    0.58999997    2.64000010
   12.88916683  107.31500244    0.56999999    2.64000010
   12.88972187  104.17299652    0.55000001    2.64000010
   12.89583302  104.17299652    0.56999999    2.64000010
   12.89999962  104.41400146    0.55000001    2.61999989
   12.90333271  106.00000000    0.55000001    2.64000010
   12.90638828  111.75199890    0.55000001    2.64000010
   12.90972137  103.18599701    0.47999999    2.64000010
   12.91277695  105.56600189    0.46000001    2.64000010
   12.91611099  108.26599884    0.47999999    2.64000010
   12.91944504  110.34799957    0.46000001    2.64000010
   12.92250061  104.91899872    0.47999999    2.64000010
   12.92305565  107.28399658    0.47999999    2.64000010
   12.92638874  105.61299896    0.46000001    2.64000010
   12.92944431  114.51100159    0.47999999    2.64000010
   12.93277836  111.82299805    0.47999999    2.64000010
   12.93861103  111.82299805    0.46000001    2.64000010
   12.94277763  106.29799652    0.50000000    2.64000010
   12.94611073  111.41899872    0.51999998    2.66000009
   12.94916630  105.65399933    0.50000000    2.64000010
   12.95249939  103.00900269    0.50000000    2.64000010
   12.95583344  103.86900330    0.47999999    2.64000010
   12.95638847  101.53700256    0.47999999    2.64000010
   12.95944405  110.61399841    0.67000002    2.64000010
   12.96277714  103.33899689    0.67000002    2.64000010
   12.96611118  104.73000336    0.70999998    2.64000010
   12.96916580  101.80200195    0.58999997    2.64000010
   12.97249985  105.66000366    0.46000001    2.64000010
   12.97555542  105.42099762    0.44000000    2.66000009
   12.98166656  105.42099762    0.38000000    2.66000009
   12.98555565  103.48999786    0.40000001    2.66000009
   12.98888874  109.64099884    0.41999999    2.64000010
   12.98972225   99.18659973    0.41999999    2.64000010
   12.99250031  106.40599823    0.41999999    2.66000009
   12.99583340  104.96900177    0.41999999    2.66000009
   12.99916649  112.72699738    0.41999999    2.66000009
   13.00222206  111.11399841    0.44000000    2.64000010
   13.00555515  105.83599854    0.44000000    2.64000010
   13.00861073  109.53099823    0.46000001    2.66000009
   13.01194477  109.41500092    0.44000000    2.66000009
   13.01527786  101.81199646    0.44000000    2.66000009
   13.01833344  110.18000031    0.46000001    2.67000008
   13.02444458  110.18000031    0.44000000    2.67000008
   13.02861118  108.54299927    0.44000000    2.67000008
   13.03166676  103.57099915    0.44000000    2.66000009
   13.03500080  101.93900299    0.44000000    2.66000009
   13.03833389  112.78299713    0.46000001    2.66000009
   13.04138947  104.20400238    0.46000001    2.66000009
   13.04472256  103.02999878    0.44000000    2.66000009
   13.04805565  104.87699890    0.41999999    2.66000009
   13.05111122  100.84600067    0.40000001    2.66000009
   13.05444431  100.01999664    0.40000001    2.67000008
   13.05638885  104.43399811    0.40000001    2.67000008
   13.05805588   99.58049774    0.38000000    2.66000009
   13.06138897  103.24199677    0.38000000    2.66000009
   13.06722260  103.24199677    0.36000001    2.66000009
   13.07138920  106.95899963    0.34000000    2.66000009
   13.07472229  104.69000244    0.34000000    2.66000009
   13.07777786  109.72799683    0.31999999    2.66000009
   13.08111095  106.51999664    0.34000000    2.67000008
   13.08416653  103.47799683    0.36000001    2.66000009
   13.08749962  107.16300201    0.36000001    2.67000008
   13.08972168  104.70400238    0.36000001    2.67000008
   13.09111118  103.51300049    0.36000001    2.67000008
   13.09444427  109.63899994    0.38000000    2.67000008
   13.09777737  104.98000336    0.36000001    2.67000008
   13.10083389  103.67400360    0.36000001    2.66000009
   13.10416698  105.65599823    0.38000000    2.67000008
   13.11000061  105.65599823    0.36000001    2.66000009
   13.11416721  100.66400146    0.40000001    2.67000008
   13.11750031  102.26100159    0.41999999    2.67000008
   13.12055588  102.17700195    0.40000001    2.66000009
   13.12305546   94.81780243    0.40000001    2.67000008
   13.12416649   99.31829834    0.38000000    2.67000008
   13.12750053  100.68000031    0.38000000    2.67000008
   13.13083363  102.65200043    0.38000000    2.67000008
   13.13388920  106.99900055    0.38000000    2.67000008
   13.13722229  109.22200012    0.36000001    2.67000008
   13.14027786  111.97499847    0.40000001    2.67000008
   13.14361095  110.80899811    0.47999999    2.67000008
   13.14694405  100.67800140    0.76999998    2.67000008
   13.15277767  100.67800140    1.03999996    2.66000009
   13.15694427  100.36399841    0.89999998    2.67000008
   13.16027737   97.73139954    0.81999999    2.67000008
   13.16361046  102.80699921    0.51999998    2.67000008
   13.16666698  102.48500061    0.44000000    2.67000008
   13.17000008  103.58499908    0.40000001    2.67000008
   13.17333412  104.51100159    0.40000001    2.67000008
   13.17638874  101.51799774    0.36000001    2.67000008
   13.17972279  105.27899933    0.38000000    2.67000008
   13.18277836  105.58300018    0.36000001    2.67000008
   13.18611145  100.75900269    0.36000001    2.67000008
   13.18944454  104.69699860    0.38000000    2.69000006
   13.19000053   96.80930328    0.38000000    2.67000008
   13.19583321   96.80930328    0.36000001    2.69000006
   13.19999981   99.17539978    0.34000000    2.69000006
   13.20305538  105.06900024    0.34000000    2.69000006
   13.20638847  101.59600067    0.40000001    2.67000008
   13.22388840   97.95520020    1.07000005    2.67000008
   13.22638798  101.36199951    1.38000000    2.67000008
   13.22972202  104.69300079    2.80999994    2.66000009
   13.23277760  104.95400238    4.28999996    2.64000010
   13.23888874  104.95400238    4.90999985    2.51999998
   13.24305534  105.41000366    4.90999985    2.59999990
   13.24611092  100.50299835    3.76999998    2.64000010
   13.24944496   98.72219849    2.09999990    2.67000008
   13.25249958   95.52770233    0.94000000    2.66000009
   13.25583363   99.64710236    0.75000000    2.69000006
   13.25722218  101.84899902    0.73000002    2.67000008
   13.25972176  100.74600220    1.30999994    2.69000006
   13.26277733   99.08709717    2.50000000    2.64000010
   13.26611137  107.40200043    2.91000009    2.64000010
   13.26916599  104.66899872    2.09999990    2.64000010
   13.27250004  107.63400269    1.86000001    2.66000009
   13.27583313  102.52300262    1.86000001    2.66000009
   13.28166676  102.52300262    0.56999999    2.69000006
   13.28583336   99.84420013    0.52999997    2.69000006
   13.28888893   98.53089905    0.44000000    2.69000006
   13.29055595  101.94000244    0.44000000    2.67000008
   13.29277802   98.36940002    0.44000000    2.67000008
   13.29583359   98.10489655    0.50000000    2.69000006
   13.29916668  102.46199799    0.81999999    2.66000009
   13.30222225  100.19499969    0.89999998    2.67000008
   13.30555534  103.63200378    0.95999998    2.67000008
   13.30888939  104.38600159    0.64999998    2.69000006
   13.31222248  102.76300049    0.50000000    2.69000006
   13.31527805  102.10900116    0.50000000    2.69000006
   13.31861115  105.71700287    0.50000000    2.69000006
   13.32444477  105.71700287    0.47999999    2.69000006
   13.32861137  100.71700287    0.52999997    2.69000006
   13.33194447   97.57559967    0.51999998    2.69000006
   13.33500004  110.50099945    0.52999997    2.69000006
   13.33833313  101.99199677    0.61000001    2.69000006
   13.34166622  102.64099884    0.58999997    2.69000006
   13.34472179   99.35610199    0.47999999    2.69000006
   13.34805489  100.32700348    0.40000001    2.69000006
   13.35111141  104.03299713    0.41999999    2.69000006
   13.35444450  100.85399628    0.50000000    2.69000006
   13.35722256  105.24700165    0.51999998    2.69000006
   13.35833359  103.00800323    0.58999997    2.69000006
   13.36138916  106.24900055    0.61000001    2.69000006
   13.36722279  106.24900055    0.55000001    2.69000006
   13.37138939   97.92310333    0.55000001    2.69000006
   13.37472248  101.52600098    0.52999997    2.69000006
   13.37805557  100.41600037    0.50000000    2.71000004
   13.38111115   99.42050171    0.56999999    2.69000006
   13.38444424   96.45950317    0.80000001    2.71000004
   13.38749981  105.28199768    0.80000001    2.71000004
   13.39055538  105.46900177    0.92000002    2.69000006
   13.39138889  112.23600006    0.92000002    2.69000006
   13.39444447  109.25499725    1.75000000    2.69000006
   13.39777756  116.11900330    4.90999985    2.51999998
   13.40083313  102.58899689    4.90999985    2.51999998
   13.40416622  100.07900238    4.26999998    2.64000010
   13.41027737  100.07900238    1.09000003    2.71000004
   13.41444397  111.63099670    2.21000004    2.64000010
   13.41750050  104.51000214    2.07999992    2.66000009
   13.42083359  104.16100311    1.89999998    2.66000009
   13.42388916   98.12239838    1.58000004    2.69000006
   13.42444515   99.69419861    1.58000004    2.69000006
   13.42750072  102.19400024    0.89999998    2.69000006
   13.43083382   97.24259949    2.40000010    2.69000006
   13.43388939  104.33399963    4.88999987    2.51999998
   13.43722248  101.69499969    3.82999992    2.66000009
   13.44055557   97.69380188    1.63000000    2.69000006
   13.44361115  101.87500000    1.89999998    2.66000009
   13.44694424  104.01699829    2.17000008    2.51999998
   13.45305538  104.01699829    1.21000004    2.69000006
   13.45722198   98.52089691    1.00000000    2.69000006
   13.45777798   98.20040131    0.98000002    2.69000006
   13.46083355  101.03600311    0.76999998    2.69000006
   13.46416664  102.38200378    0.63000000    2.69000006
   13.46749973   98.09670258    0.46000001    2.69000006
   13.47055531  100.19300079    0.46000001    2.69000006
   13.47388840   99.62580109    0.92000002    2.71000004
   13.47722149   96.45089722    0.88000000    2.69000006
   13.48027706   96.83300018    0.50000000    2.71000004
   13.48361111   94.25769806    0.50000000    2.71000004
   13.48666668  101.84999847    0.36000001    2.71000004
   13.49000072  100.06500244    0.36000001    2.69000006
   13.49055576   96.99559784    0.36000001    2.69000006
   13.49583340   96.99559784    0.44000000    2.71000004
   13.50000000   96.08039856    0.61000001    2.71000004
   13.50333309  107.56400299    0.88000000    2.71000004
   13.50638866  100.36599731    1.11000001    2.67000008
   13.50972176  104.36599731    1.25000000    2.69000006
   13.51277733  102.76100159    1.39999998    2.69000006
   13.51611137  100.04499817    0.83999997    2.69000006
   13.51944447   98.71600342    0.75000000    2.69000006
   13.52250004  106.77999878    0.75000000    2.71000004
   13.52388859  100.02500153    0.75000000    2.71000004
   13.52638817   99.11789703    0.75000000    2.71000004
   13.52944374  103.32199860    0.75000000    2.71000004
   13.53277779  101.18000031    1.14999998    2.69000006
   13.53861141  101.18000031    1.34000003    2.71000004
   13.54277802  106.48999786    1.64999998    2.69000006
   13.54611111  119.51100159    1.55999994    2.71000004
   13.54916668  106.28500366    2.03999996    2.69000006
   13.55249977   99.54540253    1.96000004    2.69000006
   13.55583382  101.74800110    1.46000004    2.71000004
   13.55722237  104.42700195    1.33000004    2.71000004
   13.55944443  103.66500092    1.16999996    2.71000004
   13.56250000  104.09100342    1.16999996    2.71000004
   13.56583309  104.24700165    1.39999998    2.69000006
   13.56916618  102.15100098    1.55999994    2.69000006
   13.57222176   99.52249908    1.46000004    2.71000004
   13.57555580  102.00000000    0.56999999    2.73000002
   13.58166695  102.00000000    0.46000001    2.71000004
   13.58583260  100.82900238    0.38000000    2.73000002
   13.58888817   96.67500305    0.34000000    2.73000002
   13.59055519  107.44400024    0.36000001    2.73000002
   13.59277725  101.70600128    0.36000001    2.73000002
   13.59583282  101.20999908    1.03999996    2.73000002
   13.59916592   97.31430054    4.90999985    2.57999992
   13.60249996  103.62599945    4.90999985    2.46000004
   13.60555553  101.40200043    4.53999996    2.69000006
   13.60888958  101.93900299    1.61000001    2.73000002
   13.61222267  103.71399689    1.61000001    2.71000004
   13.61527824  103.56600189    1.48000002    2.71000004
   13.61861134  101.37899780    1.38000000    2.71000004
   13.62444496  101.37899780    4.90999985    2.73000002
   13.62861156  103.89700317    4.90999985    2.64000010
   13.63166714  103.65799713    4.88999987    2.69000006
   13.63500023  100.18900299    1.69000006    2.71000004
   13.63805580   95.34799957    2.48000002    2.73000002
   13.64138889   98.10359955    4.01999998    2.57999992
   13.64472198  123.46900177    4.90999985    2.59999990
   13.64777756  108.67099762    4.90999985    2.61999989
   13.65111065   99.99230194    2.34999990    2.71000004
   13.65444374   98.91600037    1.01999998    2.71000004
   13.65722179  100.83699799    0.83999997    2.71000004
   13.65805531   99.59870148    0.76999998    2.73000002
   13.66111088   99.90119934    0.95999998    2.73000002
   13.66722298   99.90119934    2.26999998    2.73000002
   13.67138958  110.20099640    3.41000009    2.69000006
   13.67444515   98.86730194    1.85000002    2.71000004
   13.67777824  108.87899780    1.94000006    2.69000006
   13.68111134  105.99299622    1.71000004    2.71000004
   13.68416691  102.68199921    0.89999998    2.69000006
   13.68750000  102.32199860    0.64999998    2.73000002
   13.69055557   99.93419647    0.63000000    2.75000000
   13.69111156   98.64990234    0.63000000    2.75000000
   13.69416714  105.44699860    1.38000000    2.73000002
   13.69750023   97.11789703    1.78999996    2.67000008
   13.70083332  100.96499634    2.00000000    2.71000004
   13.70388889  102.35600281    1.91999996    2.71000004
   13.71000004  102.35600281    1.30999994    2.71000004
   13.71416664   94.88860321    1.01999998    2.73000002
   13.71749973   99.85019684    1.00000000    2.73000002
   13.72055531  102.09500122    0.98000002    2.73000002
   13.72388840  102.91100311    0.50000000    2.75000000
   13.72444439   99.90029907    0.50000000    2.73000002
   13.72749996   97.68399811    0.50000000    2.75000000
   13.73083305  102.58799744    1.86000001    2.66000009
   13.73416710   94.32630157    1.83000004    2.66000009
   13.73722267   98.71790314    1.83000004    2.66000009
   13.74055576   98.74620056    1.83000004    2.67000008
   13.74361134  103.22200012    0.61000001    2.73000002
   13.74694443   99.88500214    1.01999998    2.73000002
   13.75305557   99.88500214    0.61000001    2.73000002
   13.75694466  107.60399628    0.36000001    2.75000000
   13.75749969  107.96399689    0.36000001    2.75000000
   13.76083374  103.32599640    0.38000000    2.75000000
   13.76416683  100.57599640    0.44000000    2.75000000
   13.76722240  108.16600037    0.76999998    2.73000002
   13.77055550  101.07599640    1.96000004    2.71000004
   13.77361107  100.73899841    2.42000008    2.69000006
   13.77694416  103.07900238    3.25000000    2.67000008
   13.78027725  105.70999908    3.00000000    2.69000006
   13.78333378   99.66850281    2.19000006    2.71000004
   13.78666687  106.12300110    1.58000004    2.73000002
   13.79000092  101.06700134    1.85000002    2.71000004
   13.79083347  100.56199646    1.91999996    2.71000004
   13.79583359  100.56199646    1.71000004    2.71000004
   13.80000019  108.88800049    0.89999998    2.73000002
   13.80305576  100.60600281    0.83999997    2.73000002
   13.80638885   95.75229645    0.86000001    2.73000002
   13.80944443  107.08200073    1.33000004    2.71000004
   13.81277752  106.67400360    1.26999998    2.71000004
   13.81611156   98.02290344    1.21000004    2.73000002
   13.81944466   97.08350372    0.67000002    2.73000002
   13.82250023  101.82399750    0.67000002    2.75000000
   13.82416630  101.19100189    0.69000000    2.73000002
   13.82638836   97.21199799    0.69000000    2.73000002
   13.82944393  106.01699829    0.67000002    2.73000002
   13.83277798  104.38500214    0.67000002    2.73000002
   13.83861065  104.38500214    0.63000000    2.75000000
   13.84277725   96.77259827    0.58999997    2.73000002
   13.84611034   96.98390198    0.51999998    2.75000000
   13.84916592   94.16010284    0.51999998    2.75000000
   13.85249996   94.34259796    0.56999999    2.75000000
   13.85555553   99.34960175    0.81999999    2.73000002
   13.85750008   98.28790283    0.81999999    2.73000002
   13.85916710   97.87689972    0.76999998    2.73000002
   13.86250019   88.02790070    0.73000002    2.73000002
   13.86555576   98.92520142    0.73000002    2.73000002
   13.86888885   95.11750031    0.52999997    2.75000000
   13.87194443  103.84999847    0.52999997    2.73000002
   13.87527752   95.87799835    2.32999992    2.71000004
   13.88138866   95.87799835    2.59999990    2.71000004
   13.88555527   95.73909760    2.57999992    2.73000002
   13.88888836  101.86900330    3.64000010    2.67000008
   13.89083290  101.07399750    2.86999989    2.69000006
   13.89249992   99.93190002    2.55999994    2.69000006
   13.89583302   97.53769684    2.78999996    2.71000004
   13.89888859   99.58840179    3.48000002    2.67000008
   13.90222168   97.78019714    1.80999994    2.73000002
   13.90555477  103.09400177    0.81999999    2.75000000
   13.90861034  101.07900238    1.01999998    2.75000000
   13.91194439  104.51200104    2.34999990    2.75000000
   13.91499996  114.50700378    4.90999985    2.61999989
   13.91833401  104.42500305    4.90999985    2.64000010
   13.92444515  104.42500305    4.90999985    2.40000010
   13.92833328  101.45600128    4.38999987    2.71000004
   13.93166733   97.34670258    2.44000006    2.71000004
   13.93500042  103.18699646    1.98000002    2.75000000
   13.93805599  108.44999695    4.90999985    2.64000010
   13.94138908  110.63300323    4.90999985    2.64000010
   13.94444466  101.23899841    4.55999994    2.66000009
   13.94777775  101.50900269    3.99000001    2.61999989
   13.95111084   96.36370087    2.66000009    2.71000004
   13.95416641   99.22090149    1.39999998    2.73000002
   13.95749950   95.42919922    1.88000000    2.71000004
   13.95944405   98.29940033    2.36999989    2.73000002
   13.96111107  102.30000305    2.36999989    2.73000002
   13.96722221  102.30000305    2.82999992    2.75000000
   13.97138882   96.63839722    1.98000002    2.73000002
   13.97444439  107.93199921    2.19000006    2.75000000
   13.97777748   97.01149750    3.97000003    2.67000008
   13.98083305  106.05400085    3.16000009    2.69000006
   13.98416710   91.53369904    2.28999996    2.73000002
   13.98750019   89.46759796    2.28999996    2.73000002
   13.99055576   89.51029968    4.90999985    2.57999992
   13.99277782  107.44100189    4.90999985    2.55999994
   13.99416733  102.80500031    4.11999989    2.71000004
   13.99750042  100.28099823    4.05999994    2.76999998
   14.00083351  110.93800354    4.90999985    2.57999992
   14.00388908   97.97979736    4.90999985    2.55999994
   14.01000023   97.97979736    1.85000002    2.73000002
   14.01416683  102.27500153    1.64999998    2.73000002
   14.01722240  102.35299683    2.36999989    2.69000006
   14.02055550   97.32309723    3.20000005    2.73000002
   14.02388859  104.43699646    4.90999985    2.64000010
   14.02611065   92.11309814    4.90999985    2.61999989
   14.02750015  109.84600067    4.90999985    2.59999990
   14.03083324  105.13899994    4.90999985    2.59999990
   14.03388977  108.87799835    4.90999985    2.59999990
   14.03722286  111.27100372    4.90999985    2.25000000
   14.04055595   98.17350006    4.90999985    2.69000006
   14.04361153  101.72100067    4.90999985    2.75000000
   14.04694462  111.67800140    4.90999985    2.53999996
   14.05277824  111.67800140    4.90999985    2.57999992
   14.05694485   94.31980133    4.26999998    2.71000004
   14.05944443   97.45709991    4.26999998    2.71000004
   14.06055546   94.86309814    3.18000007    2.69000006
   14.06388950  102.41400146    0.76999998    2.75000000
   14.06694412  102.49199677    3.91000009    2.59999990
   14.07027817   99.48950195    4.90999985    2.69000006
   14.07361126   99.23339844    4.88999987    2.73000002
   14.07666683  101.03500366    4.90999985    2.66000009
   14.07999992  103.68099976    4.90999985    2.67000008
   14.08305550  100.13500214    4.34999990    2.67000008
   14.08638859   99.61900330    2.51999998    2.75000000
   14.08972168   97.65280151    3.66000009    2.69000006
   14.09555531   97.65280151    3.99000001    2.71000004
   14.09972191  107.48500061    1.66999996    2.75000000
   14.10305595  105.21800232    1.25000000    2.75000000
   14.10638905  105.72899628    0.80000001    2.75000000
   14.10944462   99.78759766    0.76999998    2.75000000
   14.11277771  102.21299744    0.94000000    2.75000000
   14.11583328  106.53399658    0.94000000    2.75000000
   14.11916637   98.53939819    1.41999996    2.75000000
   14.12250042  110.25900269    3.55999994    2.69000006
   14.12555599  107.52899933    3.23000002    2.71000004
   14.12666702  105.39099884    2.76999998    2.73000002
   14.12916660  108.37400055    0.73000002    2.76999998
   14.13249969  106.80799866    0.55000001    2.75000000
   14.13861084  106.80799866    0.58999997    2.75000000
   14.14277744  102.88400269    1.05999994    2.75000000
   14.14583302  103.18099976    1.36000001    2.75000000
   14.14916611  104.12699890    2.23000002    2.73000002
   14.15249920   97.92320251    3.93000007    2.73000002
   14.15555477   99.95619965    4.05999994    2.64000010
   14.15888882   92.27749634    3.51999998    2.73000002
   14.15999985  106.49400330    3.76999998    2.69000006
   14.26027775   -1.00000000   -1.00000000   -1.00000000
   14.39777756   -1.00000000   -1.00000000   -1.00000000
   14.50083351   -1.00000000   -1.00000000   -1.00000000
   14.58083344   80.07839966    4.90999985    2.01999998
   14.58388901  143.22900391    4.90999985    2.00000000
   14.58722210   79.20079803    4.90999985    2.13000011
   14.59027767   90.80319977    4.90999985    1.96000004
   14.59361076  118.21600342    4.90999985    2.17000008
   14.59694386  113.93800354    4.90999985    2.40000010
   14.60111141  113.93800354    4.90999985    2.17000008
   14.60500050  286.27499390    4.90999985    1.85000002
   14.60833359  110.13899994    4.90999985    2.50000000
   14.61166668  103.35399628    4.90999985    2.55999994
   14.61416721  279.95901489    4.90999985    2.59999990
   14.61527824   -1.00000000    4.90999985    2.00000000
   14.61861134   -1.00000000    4.90999985    0.95999998
   14.62166691   -1.00000000    4.90999985    0.95999998
   14.62500000  128.60600281    4.90999985    1.80999994
   14.62833309  245.93200684    4.90999985    2.66000009
   14.63138866  149.09100342    4.90999985    2.03999996
   14.63472176  108.18599701    4.90999985    2.66000009
   14.63805580   -1.00000000    4.90999985    2.05999994
   14.64388847   -1.00000000    4.90999985    1.55999994
   14.64805508   -1.00000000    4.90999985    1.89999998
   14.65111065  158.75500488    4.90999985    1.91999996
   14.65444374  230.18200684    4.90999985    2.32999992
   14.65777779  173.46299744    4.90999985    2.00000000
   14.66083336  134.85200500    4.90999985    1.91999996
   14.66416645  130.58200073    4.90999985    2.11999989
   14.66722298  308.77700806    4.90999985    2.23000002
   14.66944504  230.18200684    4.90999985    2.32999992
   14.66944504  173.46299744    4.90999985    2.00000000
   14.66944504  134.85200500    4.90999985    1.91999996
   14.66972256  130.58200073    4.90999985    2.11999989
   14.66972256  308.77700806    4.90999985    2.23000002
   14.66972256  108.18599701    4.90999985    2.66000009
   14.67000008   -1.00000000    4.90999985    2.05999994
   14.67000008   -1.00000000    4.90999985    1.89999998
   14.67000008  158.75500488    4.90999985    1.91999996
   14.67222214  183.10899353    4.90999985    1.61000001
   14.67527771  320.45401001    4.90999985    2.39000010
   14.67750072  141.21200562    4.90999985    1.94000006
   14.67750072  183.10899353    4.90999985    1.61000001
   14.67750072  320.45401001    4.90999985    2.39000010
   14.67944431   72.04370117    4.90999985    2.26999998
   14.68277836  128.39399719    4.90999985    2.57999992
   14.68611145   -1.00000000    4.90999985    2.34999990
   14.68916702   -1.00000000    4.90999985    1.89999998
   14.69250011   -1.00000000    4.90999985    1.16999996
   14.70222187   -1.00000000    4.90999985    0.92000002
   14.70555496   -1.00000000    4.90999985    1.66999996
   14.70861053   -1.00000000    4.90999985    1.01999998
   14.71222210  214.88299561    4.90999985    1.86000001
   14.71527767  126.17900085    4.90999985    2.15000010
   14.71861076  124.79199982    4.90999985    2.61999989
   14.72194386  160.15199280    4.90999985    2.48000002
   14.72499943  131.59500122    4.90999985    2.40000010
   14.72833252  115.63099670    4.90999985    2.82999992
   14.73138809  274.71099854    4.90999985    2.30999994
   14.73472214   84.23320007    4.90999985    2.59999990
   14.74111176   84.23320007    4.90999985    2.34999990
   14.74527836  111.08699799    4.90999985    2.78999996
   14.74833393   -1.00000000    4.90999985    2.15000010
   14.75166702  111.72899628    4.90999985    1.80999994
   14.75472260  126.99099731    4.90999985    2.71000004
   14.75805569  127.60199738    4.90999985    2.69000006
   14.76138878  239.50000000    4.90999985    2.67000008
   14.76444435  112.14600372    4.90999985    2.46000004
   14.76777744  116.04100037    4.90999985    2.80999994
   14.77111053  139.85000610    4.90999985    2.64000010
   14.77416611  118.58699799    4.90999985    2.73000002
   14.77750015  164.79299927    4.90999985    2.71000004
   14.77805519  174.30400085    4.90999985    2.71000004
   14.78388977  174.30400085    4.90999985    2.66000009
   14.78805637  115.12300110    4.90999985    2.66000009
   14.79111195  115.20400238    4.90999985    2.66000009
   14.79444504  126.87599945    4.90999985    2.61999989
   14.79777813  114.05400085    4.90999985    2.51999998
   14.80083370  322.07101440    4.90999985    2.67000008
   14.80305576   23.57019997    4.90999985    2.13000011
   14.80305576  115.12300110    4.90999985    2.66000009
   14.80305576  115.20400238    4.90999985    2.66000009
   14.80333328  126.87599945    4.90999985    2.61999989
   14.80333328  114.05400085    4.90999985    2.51999998
   14.80333328  322.07101440    4.90999985    2.67000008
   14.80361176  116.04100037    4.90999985    2.80999994
   14.80361176  139.85000610    4.90999985    2.64000010
   14.80361176  118.58699799    4.90999985    2.73000002
   14.80388927  164.79299927    4.90999985    2.71000004
   14.80583382  159.27400208    4.90999985    2.07999992
   14.80888939  136.34899902    4.90999985    2.30999994
   14.81222248  111.74199677    4.90999985    2.13000011
   14.81555557  108.59799957    4.90999985    2.76999998
   14.81861115  109.54900360    4.90999985    2.73000002
   14.82388878  109.54900360    4.90999985    2.40000010
   14.82777786   97.75019836    4.90999985    2.82999992
   14.83111095  112.58999634    4.90999985    2.82999992
   14.83444405  124.85700226    4.90999985    2.82999992
   14.83694458  123.24400330    4.90999985    2.64000010
   14.83805561  274.24700928    4.90999985    2.69000006
   14.84138870  163.77000427    4.90999985    1.14999998
   14.84444427  141.55900574    4.90999985    2.61999989
   14.84777737  115.78199768    4.90999985    2.44000006
   14.85111141  118.74299622    4.90999985    2.75000000
   14.85416698  170.64199829    4.90999985    2.75000000
   14.85750008  128.79100037    4.90999985    2.53999996
   14.86083412  150.93400574    4.90999985    2.15000010
   14.86666679  150.93400574    4.90999985    2.40000010
   14.87083340   -1.00000000    4.90999985    0.94000000
   14.87388897  130.78500366    4.90999985    0.73000002
   14.87722206  162.22900391    4.90999985    2.51999998
   14.88055611  191.12199402    4.90999985    1.86000001
   14.88361073  104.72200012    4.90999985    2.34999990
   14.88694477  106.37200165    4.90999985    2.78999996
   14.89000034  124.36699677    4.90999985    2.39000010
   14.89333344  120.65000153    4.90999985    2.86999989
   14.89666653  115.99400330    4.90999985    2.71000004
   14.89972210   -1.00000000    4.90999985    2.40000010
   14.90305519  124.40399933    4.90999985    1.39999998
   14.90361118  154.49499512    4.90999985    1.63000000
   14.90944386  154.49499512    4.90999985    2.15000010
   14.91361046   -1.00000000    4.90999985    1.66999996
   14.91694450   -1.00000000    4.90999985    0.95999998
   14.92000008  408.82501221    4.90999985    1.28999996
   14.92222214  210.38499451    4.90999985    2.23000002
   14.92222214   -1.00000000    4.90999985    1.66999996
   14.92222214   -1.00000000    4.90999985    0.95999998
   14.92250061  408.82501221    4.90999985    1.28999996
   14.92250061  106.37200165    4.90999985    2.78999996
   14.92250061  124.36699677    4.90999985    2.39000010
   14.92277813  120.65000153    4.90999985    2.86999989
   14.92277813  115.99400330    4.90999985    2.71000004
   14.92277813   -1.00000000    4.90999985    2.40000010
   14.92305565  124.40399933    4.90999985    1.39999998
   14.92500019  125.22000122    4.90999985    2.67000008
   14.92805576  137.43600464    4.90999985    1.76999998
   14.93138885   -1.00000000    4.90999985    1.61000001
   14.93472195   -1.00000000    4.90999985    1.50000000
   14.93777752   -1.00000000    4.90999985    1.26999998
   14.94277763   -1.00000000    4.90999985    1.11000001
   14.94694424  197.10099792    4.90999985    1.78999996
   14.95027733  206.01199341    4.90999985    2.21000004
   14.95361137  167.35499573    4.90999985    2.30999994
   14.95722198   -1.00000000    4.90999985    1.41999996
   14.96027756   -1.00000000    4.90999985    1.26999998
   14.96361065   -1.00000000    4.90999985    0.80000001
   14.96694374   -1.00000000    4.90999985    0.67000002
   14.96999931   -1.00000000    4.90999985    1.00000000
   14.97333336   -1.00000000    4.90999985    1.05999994
   14.97638798   -1.00000000    4.90999985    1.03999996
   14.97972202   -1.00000000    4.90999985    1.41999996
   14.98972225   -1.00000000    4.90999985    1.30999994
   14.99305534  160.01300049    4.90999985    1.71000004
   14.99638939  103.91699982    4.90999985    2.53999996
   14.99944496   -1.00000000    4.90999985    2.15000010
   15.00277805   -1.00000000    4.90999985    1.36000001
   15.00583363   -1.00000000    4.90999985    1.61000001
   15.00916672   -1.00000000    4.90999985    0.69000000
   15.01249981   -1.00000000    4.90999985    1.03999996
   15.01555538   -1.00000000    4.90999985    0.92000002
   15.01888847   -1.00000000    4.90999985    1.58000004
   15.02222157  212.80299377    4.90999985    1.11000001
   15.02250004   49.54600143    4.90999985    1.53999996
   15.02861118   49.54600143    4.90999985    1.85000002
   15.03277779   -1.00000000    4.90999985    1.25000000
   15.03583336   -1.00000000    4.90999985    1.51999998
   15.03916740   71.69049835    4.90999985    1.85000002
   15.04250050  241.96299744    4.90999985    2.71000004
   15.04555607   -1.00000000    4.90999985    1.96000004
   15.04888916   -1.00000000    4.90999985    1.25000000
   15.05222225   -1.00000000    4.90999985    0.89999998
   15.05527782   -1.00000000    4.90999985    0.92000002
   15.05888939  146.65400696    4.90999985    1.71000004
   15.06194496   -1.00000000    4.90999985    2.03999996
   15.06527805   -1.00000000    4.90999985    0.86000001
   15.07138920   -1.00000000    4.90999985    1.36000001
   15.07555580   -1.00000000    4.90999985    1.01999998
   15.07888889  114.69000244    4.90999985    1.30999994
   15.08194447   -1.00000000    4.90999985    1.78999996
   15.08527756   23.57019997    4.90999985    1.01999998
   15.08861065   -1.00000000    4.90999985    2.32999992
   15.09194374   -1.00000000    4.90999985    1.01999998
   15.09527779   -1.00000000    4.90999985    1.73000002
   15.09833336   -1.00000000    4.90999985    2.26999998
   15.10166740   -1.00000000    4.90999985    1.75000000
   15.10472298   -1.00000000    4.90999985    1.46000004
   15.10805607   -1.00000000    4.90999985    0.89999998
   15.11416721   -1.00000000    4.90999985    1.21000004
   15.11833382   -1.00000000    4.90999985    1.46000004
   15.12166691   -1.00000000    4.90999985    1.48000002
   15.12527752   -1.00000000    4.90999985    1.73000002
   15.12833309   -1.00000000    4.90999985    1.85000002
   15.13166714   -1.00000000    4.90999985    0.81999999
   15.13500023   -1.00000000    4.90999985    0.31999999
   15.13805580   -1.00000000    4.90999985    0.75000000
   15.14138889   -1.00000000    4.90999985    1.44000006
   15.14472198   -1.00000000    4.90999985    0.61000001
   15.14777756   -1.00000000    4.90999985    0.89999998
   15.15111065   -1.00000000    4.90999985    1.28999996
   15.16111088   -1.00000000    4.90999985    0.80000001
   15.16444397   -1.00000000    4.90999985    0.88000000
   15.16777802   -1.00000000    4.90999985    0.63000000
   15.17083359   -1.00000000    4.90999985    0.61000001
   15.17416668   -1.00000000    4.90999985    1.46000004
   15.17750072   -1.00000000    4.90999985    1.78999996
   15.18055630   -1.00000000    4.90999985    1.89999998
   15.18388939   -1.00000000    4.90999985    1.19000006
   15.18694496   -1.00000000    4.90999985    1.23000002
   15.19055557   -1.00000000    4.90999985    0.95999998
   15.19361115   -1.00000000    4.90999985    0.75000000
   15.20416641   -1.00000000    4.90999985    0.63000000
   15.20777798   -1.00000000    4.90999985    1.03999996
   15.21111107   -1.00000000    4.90999985    0.69000000
   15.21444416   -1.00000000    4.90999985    1.23000002
   15.21749973   -1.00000000    4.90999985    1.23000002
   15.22083282   -1.00000000    4.90999985    0.92000002
   15.22444439   -1.00000000    4.90999985    0.61000001
   15.22777748   -1.00000000    4.90999985    0.69000000
   15.23083305   -1.00000000    4.90999985    0.98000002
   15.23416710   -1.00000000    4.90999985    0.69000000
   15.23722267  213.13600159    4.90999985    0.98000002
   15.24694443   -1.00000000    4.90999985    0.92000002
   15.25000000   -1.00000000    4.90999985    1.25000000
   15.25333309   -1.00000000    4.90999985    0.73000002
   15.25694466   -1.00000000    4.90999985    0.75000000
   15.26027775   -1.00000000    4.90999985    1.26999998
   15.26333332   -1.00000000    4.90999985    1.73000002
   15.26666641   -1.00000000    4.90999985    0.70999998
   15.26972198   -1.00000000    4.90999985    1.07000005
   15.27305508  208.86199951    4.90999985    1.05999994
   15.27638817   -1.00000000    4.90999985    1.28999996
   15.27944374   -1.00000000    4.90999985    1.30999994
   15.28972244   -1.00000000    4.90999985    1.01999998
   15.29305553   -1.00000000    4.90999985    1.13000000
   17.67222214   -1.00000000   -1.00000000   -1.00000000
