    HOUR (UT)   FLARE FACTOR    SKY TESTER    SUN TESTER
   14.74944496   -1.00000000   -1.00000000   -1.00000000
   14.78722286   80.07630157    0.00000000    0.00000000
   14.79027843   81.25740051    0.00000000    0.00000000
   14.79361153   80.87729645    0.00000000    0.00000000
   14.79694462   78.00489807    0.00000000    0.00000000
   14.80000019   77.93470001    0.00000000    0.00000000
   14.80333328   78.23690033    0.00000000    0.00000000
   14.80749989   78.23690033    0.00000000    0.00000000
   14.81166649   79.52619934    0.00000000    0.00000000
   14.81472206   83.92569733    4.90999985    2.86999989
   14.81805515   80.10379791    4.90999985    2.86999989
   14.82055569   85.05290222    4.90999985    2.86999989
   14.82166672   78.19560242    4.90999985    2.86999989
   14.82499981   77.95469666    4.90999985    2.86999989
   14.82833290   81.76950073    4.90999985    2.86999989
   14.83138847   78.07099915    4.90999985    2.86999989
   14.83472157   84.64170074    4.90999985    2.86999989
   14.83777714   78.35289764    4.90999985    2.86999989
   14.84194374   78.35289764    4.90999985    2.86999989
   14.84611034   81.43900299    4.90999985    2.86999989
   14.84944439   79.29219818    4.90999985    2.86999989
   14.85277843   78.70510101    4.90999985    2.86999989
   14.85388947   79.71900177    4.90999985    2.86999989
   14.85638905   81.71219635    4.90999985    2.86999989
   14.85944462   75.86569977    4.90999985    2.86999989
   14.86277771   78.23390198    4.90999985    2.86999989
   14.86583328   78.35350037    4.90999985    2.86999989
   14.86916637   79.31130219    4.90999985    2.86999989
   14.87250042   82.25800323    4.90999985    2.86999989
   14.87666702   82.25800323    4.90999985    2.86999989
   14.88055611   83.15519714    4.90999985    2.86999989
   14.88388920   83.15460205    4.90999985    2.86999989
   14.88722229   81.31250000    4.90999985    2.86999989
   14.88749981   86.07009888    4.90999985    2.86999989
   14.89083290   80.45850372    4.90999985    2.86999989
   14.89416695   82.88359833    4.90999985    2.86999989
   14.89722252   78.52999878    4.90999985    2.86999989
   14.90055561   81.33429718    4.90999985    2.86999989
   14.90388870   80.87370300    4.90999985    2.86999989
   14.90694427   81.43399811    4.90999985    2.86999989
   14.91111088   81.43399811    4.90999985    2.86999989
   14.91527748   82.41539764    4.90999985    2.86999989
   14.91861153   79.00579834    4.90999985    2.86999989
   14.92055607   78.66580200    4.90999985    2.86999989
   14.92222214   81.66100311    4.90999985    2.86999989
   14.92527771   76.17680359    4.90999985    2.86999989
   14.92861176   82.13610077    4.90999985    2.86999989
   14.93166733   81.83450317    4.90999985    2.86999989
   14.93500042   83.49870300    4.90999985    2.86999989
   14.93833351   77.29260254    4.90999985    2.86999989
   14.94138908   80.74289703    4.90999985    2.86999989
   14.94555569   80.74289703    4.90999985    2.86999989
   14.94972229   79.83730316    4.90999985    2.86999989
   14.95305538   79.30460358    4.90999985    2.86999989
   14.95388889   80.22489929    4.90999985    2.86999989
   14.95666695   78.94640350    4.90999985    2.86999989
   14.95972157   79.14009857    4.90999985    2.86999989
   14.96305561   79.31230164    4.90999985    2.86999989
   14.96611118   79.66829681    4.90999985    2.86999989
   14.96944427   79.50090027    4.90999985    2.86999989
   14.97277737   79.50969696    4.90999985    2.86999989
   14.97583294   77.52570343    4.90999985    2.86999989
   14.98027706   77.52570343    4.90999985    2.86999989
   14.98444462   76.97550201    4.90999985    2.86999989
   14.98722267   80.79370117    4.90999985    2.86999989
   14.98805618   78.55770111    4.90999985    2.86999989
   14.99111176   75.76830292    4.90999985    2.86999989
   14.99444485   76.14040375    4.90999985    2.86999989
   14.99750042   78.97270203    4.90999985    2.86999989
   15.00083351   81.49949646    4.90999985    2.86999989
   15.00416660   80.74050140    4.90999985    2.86999989
   15.00722218   78.86479950    4.90999985    2.86999989
   15.01055527   76.63480377    4.90999985    2.86999989
   15.01472187   76.63480377    4.90999985    2.86999989
   15.01888847   83.27559662    4.90999985    2.86999989
   15.02055550   85.99400330    4.90999985    2.86999989
   15.02250004   82.59549713    4.90999985    2.86999989
   15.02555561   83.46320343    4.90999985    2.86999989
   15.02888870   81.37180328    4.90999985    2.86999989
   15.03194427   80.56520081    4.90999985    2.86999989
   15.03527832   80.19789886    4.90999985    2.86999989
   15.03861141   80.56710052    4.90999985    2.86999989
   15.04166698   79.06529999    4.90999985    2.86999989
   15.04500008   78.95200348    4.90999985    2.86999989
   15.04916668   78.95200348    4.90999985    2.86999989
   15.05333328   82.09269714    4.90999985    2.86999989
   15.05388927   80.35320282    4.90999985    2.86999989
   15.05694485   80.97339630    4.90999985    2.86999989
   15.06000042   84.18450165    4.90999985    2.86999989
   15.06333351   84.76760101    4.90999985    2.86999989
   15.06666660   86.21540070    4.90999985    2.86999989
   15.06972218   83.00129700    4.90999985    2.86999989
   15.07305527   82.02899933    4.90999985    2.86999989
   15.07611084   79.23149872    4.90999985    2.86999989
   15.07944393   76.88770294    4.90999985    2.86999989
   15.08361053   76.88770294    4.90999985    2.86999989
   15.08777714   83.24610138    4.90999985    2.86999989
   15.09111118   85.45390320    4.90999985    2.86999989
   15.09444427   86.25499725    4.90999985    2.86999989
   15.09749985   84.33940125    4.90999985    2.86999989
   15.10083389   80.81289673    4.90999985    2.86999989
   15.10416698   79.35810089    4.90999985    2.86999989
   15.10722256   81.97119904    4.90999985    2.86999989
   15.11055565   80.47380066    4.90999985    2.86999989
   15.11361122   80.49929810    4.90999985    2.86999989
   15.11833382   80.49929810    4.90999985    2.86999989
   15.12250042   75.40470123    4.90999985    2.86999989
   15.12555599   90.89140320    4.90999985    2.86999989
   15.12888908   86.71230316    4.90999985    2.86999989
   15.13194466   80.77739716    4.90999985    2.86999989
   15.13527775   83.22930145    4.90999985    2.86999989
   15.13861084   86.04869843    4.90999985    2.86999989
   15.14166641   79.67310333    4.90999985    2.86999989
   15.14499950   79.73429871    4.90999985    2.86999989
   15.14833355   82.10780334    4.90999985    2.86999989
   15.15277767   82.10780334    4.90999985    2.86999989
   15.15694427   80.26699829    4.90999985    2.86999989
   15.15999985   80.47640228    4.90999985    2.86999989
   15.16333294   77.06580353    4.90999985    2.86999989
   15.16666698   80.41970062    4.90999985    2.86999989
   15.16972256   84.46649933    4.90999985    2.86999989
   15.17305565   81.70860291    4.90999985    2.86999989
   15.17638874   80.46700287    4.90999985    2.86999989
   15.17944431   81.96620178    4.90999985    2.86999989
   15.18277836   80.62110138    4.90999985    2.86999989
   15.18722248   80.62110138    4.90999985    2.86999989
   15.19138908   80.24710083    4.90999985    2.86999989
   15.19472218   76.36569977    4.90999985    2.86999989
   15.19777775   84.14839935    4.90999985    2.86999989
   15.20111084   84.93769836    4.90999985    2.86999989
   15.20444393   85.27110291    4.90999985    2.86999989
   15.20749950   80.75250244    4.90999985    2.86999989
   15.21083355   79.02059937    4.90999985    2.86999989
   15.21388912   82.71839905    4.90999985    2.86999989
   15.21722221   78.97750092    4.90999985    2.86999989
   15.22166634   78.97750092    4.90999985    2.86999989
   15.22583294   83.68699646    4.90999985    2.86999989
   15.22916603   81.85700226    4.90999985    2.86999989
   15.23249912   78.22619629    4.90999985    2.86999989
   15.23555565   76.46360016    4.90999985    2.86999989
   15.23888874   84.35369873    4.90999985    2.86999989
   15.24194431   78.68920135    4.90999985    2.86999989
   15.24527836   77.54389954    4.90999985    2.86999989
   15.24861145   76.62779999    4.90999985    2.86999989
   15.25166702   76.50800323    4.90999985    2.86999989
   15.25611115   76.50800323    4.90999985    2.86999989
   15.26027775   79.30979919    4.90999985    2.86999989
   15.26361084   80.06549835    4.90999985    2.86999989
   15.26694393   81.56340027    4.90999985    2.86999989
   15.26999950   80.26270294    4.90999985    2.86999989
   15.27333355   78.14109802    4.90999985    2.86999989
   15.27666664   80.74510193    4.90999985    2.86999989
   15.27972221   84.10430145    4.90999985    2.86999989
   15.28305531   80.25949860    4.90999985    2.86999989
   15.28638935   79.37249756    4.90999985    2.86999989
   15.29083347   79.37249756    4.90999985    2.86999989
   15.29500008   78.14089966    4.90999985    2.86999989
   15.29805565   79.90550232    4.90999985    2.86999989
   15.30138874   82.65619659    4.90999985    2.86999989
   15.30472279   81.46019745    4.90999985    2.86999989
   15.30777836   79.58809662    4.90999985    2.86999989
   15.31111145   80.84760284    4.90999985    2.86999989
   15.31416702   93.24369812    4.90999985    2.86999989
   15.31750011   80.03250122    4.90999985    2.86999989
   15.32083321   76.97689819    4.90999985    2.86999989
   15.32527733   76.97689819    4.90999985    2.86999989
   15.32944393   76.25920105    4.90999985    2.86999989
   15.33249950   77.59210205    4.90999985    2.86999989
   15.33583260   77.36910248    4.90999985    2.86999989
   15.33916664   81.16790009    4.90999985    2.86999989
   15.34222221   82.32559967    4.90999985    2.86999989
   15.34555531   79.93579865    4.90999985    2.86999989
   15.34888840   78.46360016    4.90999985    2.86999989
   15.35194492   79.78209686    4.90999985    2.86999989
   15.35527802   81.73120117    4.90999985    2.86999989
   15.35972214   81.73120117    4.90999985    2.86999989
   15.36388969   77.83480072    4.90999985    2.86999989
   15.36722279   79.35600281    4.90999985    2.86999989
   15.37027836   75.50420380    4.90999985    2.86999989
   15.37361145   76.51889801    4.90999985    2.86999989
   15.37694454   75.24340057    4.90999985    2.86999989
   15.38000011   77.28369904    4.90999985    2.86999989
   15.38333321   77.75599670    4.90999985    2.86999989
   15.38638878   79.09570313    4.90999985    2.86999989
   15.38972187   85.24680328    4.90999985    2.86999989
   15.39416695   85.24680328    4.90999985    2.86999989
   15.39833355   82.52140045    4.90999985    2.86999989
   15.40166664   90.09970093    4.90999985    2.86999989
   15.40499973   84.15119934    4.90999985    2.86999989
   15.40805531   80.76570129    4.90999985    2.86999989
   15.41138840   77.67060089    4.90999985    2.86999989
   15.41472149   81.53630066    4.90999985    2.86999989
   15.41777802   82.51670074    4.90999985    2.86999989
   15.42111111   83.86380005    4.90999985    2.86999989
   15.42416668   74.08570099    4.90999985    2.86999989
   15.42888927   74.08570099    4.90999985    2.86999989
   15.43305588   90.06109619    4.90999985    2.86999989
   15.43611145   78.06939697    4.90999985    2.86999989
   15.43944454   81.73229980    4.90999985    2.86999989
   15.44250011   82.26159668    4.90999985    2.86999989
   15.44583321   77.83989716    4.90999985    2.86999989
   15.44916630   76.63120270    4.90999985    2.86999989
   15.45222187   79.66909790    4.90999985    2.86999989
   15.45555496   75.54910278    4.90999985    2.86999989
   15.45888901   79.12560272    4.90999985    2.86999989
   15.46333313   79.12560272    4.90999985    2.86999989
   15.46749973   79.33920288    4.90999985    2.86999989
   15.47055531   77.25969696    4.90999985    2.86999989
   15.47388840   75.79360199    4.90999985    2.86999989
   15.47722149   83.60369873    4.90999985    2.86999989
   15.48027706   78.39790344    4.90999985    2.86999989
   15.48361111   85.52469635    4.90999985    2.86999989
   15.48694515   84.63849640    4.90999985    2.86999989
   15.49000072   83.70780182    4.90999985    2.86999989
   15.49333382   77.46320343    4.90999985    2.86999989
   15.49777794   77.46320343    4.90999985    2.86999989
   15.50194454   79.77500153    4.90999985    2.86999989
   15.50527763   78.52629852    4.90999985    2.86999989
   15.50833321   82.20140076    4.90999985    2.86999989
   15.51166630   79.93139648    4.90999985    2.86999989
   15.51472187   88.08360291    4.90999985    2.86999989
   15.51805496   78.12449646    4.90999985    2.86999989
   15.52138901   81.17099762    4.90999985    2.86999989
   15.52444458   80.00700378    4.90999985    2.86999989
   15.52777767   85.64240265    4.90999985    2.86999989
   15.53222179   85.64240265    4.90999985    2.86999989
   15.53638935   80.87879944    4.90999985    2.86999989
   15.53972244   74.95069885    4.90999985    2.86999989
   15.54277802   75.69499969    4.90999985    2.86999989
   15.54611111   82.57969666    4.90999985    2.86999989
   15.54944515   77.83630371    4.90999985    2.86999989
   15.55249977   78.98190308    4.90999985    2.86999989
   15.55583382   80.58119965    4.90999985    2.86999989
   15.55916691   76.87480164    4.90999985    2.86999989
   15.56222248   77.20369720    4.90999985    2.86999989
   15.56694412   77.20369720    4.90999985    2.86999989
   15.57083321   85.29070282    4.90999985    2.86999989
   15.57416630   78.45480347    4.90999985    2.86999989
   15.57750034   81.75189972    4.90999985    2.86999989
   15.58055592   97.06849670    4.90999985    2.86999989
   15.58388901   75.74459839    4.90999985    2.86999989
   15.58722210   76.29350281    4.90999985    2.86999989
   15.59027767   78.74829865    4.90999985    2.86999989
   15.59361076   -1.00000000    4.90999985    2.86999989
   15.59666634   -1.00000000    4.90999985    2.86999989
   15.60527802   -1.00000000    4.90999985    2.86999989
   15.60861111   -1.00000000    4.90999985    2.86999989
   15.61194515   -1.00000000    4.90999985    2.86999989
   15.61500072   -1.00000000    4.90999985    2.86999989
   15.61833382   -1.00000000    4.90999985    2.86999989
   15.62138939   -1.00000000    4.90999985    2.86999989
   15.62472248   -1.00000000    4.90999985    2.86999989
   15.62805557   -1.00000000    4.90999985    2.86999989
   15.63111115   -1.00000000    4.90999985    2.86999989
   15.64000034   -1.00000000    4.90999985    2.86999989
   15.64305496   -1.00000000    4.90999985    2.86999989
   15.64638901   -1.00000000    4.90999985    2.86999989
   15.64944458   -1.00000000    4.90999985    2.86999989
   15.65277767   -1.00000000    4.90999985    2.86999989
   15.65611076   -1.00000000    4.90999985    2.86999989
   15.65916634   -1.00000000    4.90999985    2.86999989
   15.66249943   -1.00000000    4.90999985    2.86999989
   15.66555500   -1.00000000    4.90999985    2.86999989
   15.67444515   -1.00000000    4.90999985    2.86999989
   15.67750072   -1.00000000    4.90999985    2.86999989
   15.68083382   -1.00000000    4.90999985    2.86999989
   15.68416691   -1.00000000    4.90999985    2.86999989
   15.68722248   -1.00000000    4.90999985    2.86999989
   15.69055557   -1.00000000    4.90999985    2.86999989
   15.69361115   -1.00000000    4.90999985    2.86999989
   15.69694424   -1.00000000    4.90999985    2.86999989
   15.70027733   -1.00000000    4.90999985    2.86999989
   15.70888901   -1.00000000    4.90999985    2.86999989
   15.71222210   -1.00000000    4.90999985    2.86999989
   15.71527767   -1.00000000    4.90999985    2.86999989
   15.71861076   -1.00000000    4.90999985    2.86999989
   15.72194386   -1.00000000    4.90999985    2.86999989
   15.72499943   -1.00000000    4.90999985    2.86999989
   15.72833252   -1.00000000    4.90999985    2.86999989
   15.73138809   -1.00000000    4.90999985    2.86999989
   15.73472214   -1.00000000    4.90999985    2.86999989
   15.74333382   -1.00000000    4.90999985    2.86999989
   15.74666691   -1.00000000    4.90999985    2.86999989
   15.75000000   -1.00000000    4.90999985    2.86999989
   15.75305557   -1.00000000    4.90999985    2.86999989
   15.75638866   -1.00000000    4.90999985    2.86999989
   15.75944424   -1.00000000    4.90999985    2.86999989
   15.76277733   -1.00000000    4.90999985    2.86999989
   15.76611137   -1.00000000    4.90999985    2.86999989
   15.76916599   -1.00000000    4.90999985    2.86999989
   15.77777767   -1.00000000    4.90999985    2.86999989
   15.78111076   -1.00000000    4.90999985    2.86999989
   15.78444481   -1.00000000    4.90999985    2.86999989
   15.78750038   -1.00000000    4.90999985    2.86999989
   15.81250000   -1.00000000    4.90999985    2.86999989
   15.81583309   -1.00000000    4.90999985    2.86999989
   15.81916618   -1.00000000    4.90999985    2.86999989
   15.82222176   -1.00000000    4.90999985    2.86999989
   15.82555580   -1.00000000    4.90999985    2.86999989
   15.82888889   -1.00000000    4.90999985    2.86999989
   15.83194447   -1.00000000    4.90999985    2.86999989
   15.83527756   -1.00000000    4.90999985    2.86999989
   15.83861065   -1.00000000    4.90999985    2.86999989
   15.84694386   -1.00000000    4.90999985    2.86999989
   15.85000038   -1.00000000    4.90999985    2.86999989
   15.85333347   -1.00000000    4.90999985    2.86999989
   15.85666752   -1.00000000    4.90999985    2.86999989
   15.85972214   -1.00000000    4.90999985    2.86999989
   15.86305618   -1.00000000    4.90999985    2.86999989
   15.86638927   -1.00000000    4.90999985    2.86999989
   15.86944485   -1.00000000    4.90999985    2.86999989
   15.87277794   -1.00000000    4.90999985    2.86999989
   15.88138866   -1.00000000    4.90999985    2.86999989
   15.88472176   -1.00000000    4.90999985    2.86999989
   15.88777733   -1.00000000    4.90999985    2.86999989
   15.89111137   -1.00000000    4.90999985    2.86999989
   15.89444447   -1.00000000    4.90999985    2.86999989
   15.89750004   -1.00000000    4.90999985    2.86999989
   15.90083313   -1.00000000    4.90999985    2.86999989
   15.90416622   -1.00000000    4.90999985    2.86999989
   15.90722179   -1.00000000    4.90999985    2.86999989
   15.91583252   -1.00000000    4.90999985    2.86999989
   15.91916656   -1.00000000    4.90999985    2.86999989
   15.92250061   -1.00000000    4.90999985    2.86999989
   15.92555618   -1.00000000    4.90999985    2.86999989
   15.92888927   -1.00000000    4.90999985    2.86999989
   15.93194485   -1.00000000    4.90999985    2.86999989
   15.93527794   -1.00000000    4.90999985    2.86999989
   15.93861103   -1.00000000    4.90999985    2.86999989
   15.94166660   -1.00000000    4.90999985    2.86999989
   15.95055580   -1.00000000    4.90999985    2.86999989
   15.95361137   -1.00000000    4.90999985    2.86999989
   15.95694447   -1.00000000    4.90999985    2.86999989
   15.96000004   -1.00000000    4.90999985    2.86999989
   15.96333313   -1.00000000    4.90999985    2.86999989
   15.96666622   -1.00000000    4.90999985    2.86999989
   15.96972179   -1.00000000    4.90999985    2.86999989
   15.97305489   -1.00000000    4.90999985    2.86999989
   15.97638798   -1.00000000    4.90999985    2.86999989
   15.98500061   -1.00000000    4.90999985    2.86999989
   15.98805618   -1.00000000    4.90999985    2.86999989
   15.99138927   -1.00000000    4.90999985    2.86999989
   15.99472237   -1.00000000    4.90999985    2.86999989
   15.99777794   -1.00000000    4.90999985    2.86999989
   16.00111198   -1.00000000    4.90999985    2.86999989
   16.00444412   -1.00000000    4.90999985    2.86999989
   16.00749969   -1.00000000    4.90999985    2.86999989
   16.01083374   -1.00000000    4.90999985    2.86999989
   16.01944351   -1.00000000    4.90999985    2.86999989
   16.02277756   -1.00000000    4.90999985    2.86999989
   16.02583313   -1.00000000    4.90999985    2.86999989
   16.02916718   -1.00000000    4.90999985    2.86999989
   16.03249931   -1.00000000    4.90999985    2.86999989
   16.03555489   -1.00000000    4.90999985    2.86999989
   16.03888893   -1.00000000    4.90999985    2.86999989
   16.04194450   -1.00000000    4.90999985    2.86999989
   16.04527664   -1.00000000    4.90999985    2.86999989
   16.05388832   -1.00000000    4.90999985    2.86999989
   16.05722237   -1.00000000    4.90999985    2.86999989
   16.06055450   -1.00000000    4.90999985    2.86999989
   16.06361008   -1.00000000    4.90999985    2.86999989
   16.06694603   -1.00000000    4.90999985    2.86999989
   16.07000160   -1.00000000    4.90999985    2.86999989
   16.07333374   -1.00000000    4.90999985    2.86999989
   16.07666779   -1.00000000    4.90999985    2.86999989
   16.07972336   -1.00000000    4.90999985    2.86999989
   16.08833313   -1.00000000    4.90999985    2.86999989
   16.09166718   -1.00000000    4.90999985    2.86999989
   16.09500122   -1.00000000    4.90999985    2.86999989
   16.09805679   -1.00000000    4.90999985    2.86999989
   16.10138893   -1.00000000    4.90999985    2.86999989
   16.10472298   -1.00000000    4.90999985    2.86999989
   16.10777855   -1.00000000    4.90999985    2.86999989
   16.11111069   -1.00000000    4.90999985    2.86999989
   16.11444473   -1.00000000    4.90999985    2.86999989
   16.12305641   -1.00000000    4.90999985    2.86999989
   16.12611198   -1.00000000    4.90999985    2.86999989
   16.12944412   -1.00000000    4.90999985    2.86999989
   16.13277817   -1.00000000    4.90999985    2.86999989
   16.13583374   -1.00000000    4.90999985    2.86999989
   16.13916588   -1.00000000    4.90999985    2.86999989
   16.14249992   -1.00000000    4.90999985    2.86999989
   16.14555550   -1.00000000    4.90999985    2.86999989
   16.14888954   -1.00000000    4.90999985    2.86999989
   16.15749931   -1.00000000    4.90999985    2.86999989
   16.16083336   -1.00000000    4.90999985    2.86999989
   16.16388893   -1.00000000    4.90999985    2.86999989
   16.16722107   -1.00000000    4.90999985    2.86999989
   16.17027664   -1.00000000    4.90999985    2.86999989
   16.17361069   -1.00000000    4.90999985    2.86999989
   16.17694473   -1.00000000    4.90999985    2.86999989
   16.18000031   -1.00000000    4.90999985    2.86999989
   16.18333244   -1.00000000    4.90999985    2.86999989
   16.19194412   -1.00000000    4.90999985    2.86999989
   16.19527626   -1.00000000    4.90999985    2.86999989
   16.19833183   -1.00000000    4.90999985    2.86999989
   16.20166779   -1.00000000    4.90999985    2.86999989
   16.20499992   -1.00000000    4.90999985    2.86999989
   16.20805550   -1.00000000    4.90999985    2.86999989
   16.21138954   -1.00000000    4.90999985    2.86999989
   16.21472359   -1.00000000    4.90999985    2.86999989
   16.21777916   -1.00000000    4.90999985    2.86999989
   16.22638893   -1.00000000    4.90999985    2.86999989
   16.22972298   -1.00000000    4.90999985    2.86999989
   16.23305511   -1.00000000    4.90999985    2.86999989
   16.23611069   -1.00000000    4.90999985    2.86999989
   16.23944473   -1.00000000    4.90999985    2.86999989
   16.24250031   -1.00000000    4.90999985    2.86999989
   16.24583435   -1.00000000    4.90999985    2.86999989
   16.24916649   -1.00000000    4.90999985    2.86999989
   16.25222206   -1.00000000    4.90999985    2.86999989
   16.26111031   -1.00000000    4.90999985    2.86999989
   16.26416588   -1.00000000    4.90999985    2.86999989
   16.26749992   -1.00000000    4.90999985    2.86999989
   16.27055550   -1.00000000    4.90999985    2.86999989
   16.27388954   -1.00000000    4.90999985    2.86999989
   16.27722168   -1.00000000    4.90999985    2.86999989
   16.28027725   -1.00000000    4.90999985    2.86999989
   16.28361130   -1.00000000    4.90999985    2.86999989
   16.28694344   -1.00000000    4.90999985    2.86999989
   16.29555511   -1.00000000    4.90999985    2.86999989
   16.29861069   -1.00000000    4.90999985    2.86999989
   16.30194283   -1.00000000    4.90999985    2.86999989
   16.30527687   -1.00000000    4.90999985    2.86999989
   16.30833244   -1.00000000    4.90999985    2.86999989
   16.31166649   -1.00000000    4.90999985    2.86999989
   16.31499863   -1.00000000    4.90999985    2.86999989
   16.31805611   -1.00000000    4.90999985    2.86999989
   16.32139015   -1.00000000    4.90999985    2.86999989
   16.33000183   -1.00000000    4.90999985    2.86999989
   16.33333397   -1.00000000    4.90999985    2.86999989
   16.33638954   -1.00000000    4.90999985    2.86999989
   16.33972359   -1.00000000    4.90999985    2.86999989
   16.34305573   -1.00000000    4.90999985    2.86999989
   16.34611130   -1.00000000    4.90999985    2.86999989
   16.34944534   -1.00000000    4.90999985    2.86999989
   16.35250092   -1.00000000    4.90999985    2.86999989
   16.35583305   -1.00000000    4.90999985    2.86999989
   16.36444473   -1.00000000    4.90999985    2.86999989
   16.36777878   -1.00000000    4.90999985    2.86999989
   16.37083435   -1.00000000    4.90999985    2.86999989
   16.37416649   -1.00000000    4.90999985    2.86999989
   16.37750053   -1.00000000    4.90999985    2.86999989
   16.38055611   -1.00000000    4.90999985    2.86999989
   16.38388824   -1.00000000    4.90999985    2.86999989
   16.38722229   -1.00000000    4.90999985    2.86999989
   16.39027786   -1.00000000    4.90999985    2.86999989
   16.39916611   -1.00000000    4.90999985    2.86999989
   16.40222168   -1.00000000    4.90999985    2.86999989
   16.40555573   -1.00000000    4.90999985    2.86999989
   16.40861130   -1.00000000    4.90999985    2.86999989
   16.41194344   -1.00000000    4.90999985    2.86999989
   16.41527748   -1.00000000    4.90999985    2.86999989
   16.41833305   -1.00000000    4.90999985    2.86999989
   16.42166519   -1.00000000    4.90999985    2.86999989
   16.42472076   -1.00000000    4.90999985    2.86999989
   16.43361092   -1.00000000    4.90999985    2.86999989
   16.43666649   -1.00000000    4.90999985    2.86999989
   16.43999863   -1.00000000    4.90999985    2.86999989
   16.44333267   -1.00000000    4.90999985    2.86999989
   16.44638824   -1.00000000    4.90999985    2.86999989
   16.44972038   -1.00000000    4.90999985    2.86999989
   16.45277786   -1.00000000    4.90999985    2.86999989
   16.45611191   -1.00000000    4.90999985    2.86999989
   16.45944595   -1.00000000    4.90999985    2.86999989
   16.46805573   -1.00000000    4.90999985    2.86999989
   16.47138977   -1.00000000    4.90999985    2.86999989
   16.47444534   -1.00000000    4.90999985    2.86999989
   16.47777748   -1.00000000    4.90999985    2.86999989
   16.48083305   -1.00000000    4.90999985    2.86999989
   16.48416710   -1.00000000    4.90999985    2.86999989
   16.48750114   -1.00000000    4.90999985    2.86999989
   16.49055672   -1.00000000    4.90999985    2.86999989
   16.49388885   -1.00000000    4.90999985    2.86999989
   16.50250053   -1.00000000    4.90999985    2.86999989
   16.50583267   -1.00000000    4.90999985    2.86999989
   16.50888824   -1.00000000    4.90999985    2.86999989
   16.51222229   -1.00000000    4.90999985    2.86999989
   16.51555634   -1.00000000    4.90999985    2.86999989
   16.51861000   -1.00000000    4.90999985    2.86999989
   16.52194405   -1.00000000    4.90999985    2.86999989
   16.52527809   -1.00000000    4.90999985    2.86999989
   16.52833366   -1.00000000    4.90999985    2.86999989
   16.53694344   -1.00000000    4.90999985    2.86999989
   16.54027748   -1.00000000    4.90999985    2.86999989
   16.54361153   -1.00000000    4.90999985    2.86999989
   16.54666710   -1.00000000    4.90999985    2.86999989
   16.54999924   -1.00000000    4.90999985    2.86999989
   16.55333328   -1.00000000    4.90999985    2.86999989
   16.55638885   -1.00000000    4.90999985    2.86999989
   16.55972099   -1.00000000    4.90999985    2.86999989
   16.56277657   -1.00000000    4.90999985    2.86999989
   16.57166672   -1.00000000    4.90999985    2.86999989
   16.57472229   -1.00000000    4.90999985    2.86999989
   16.57805634   -1.00000000    4.90999985    2.86999989
   16.58111191   -1.00000000    4.90999985    2.86999989
   16.58444595   -1.00000000    4.90999985    2.86999989
   16.58777809   -1.00000000    4.90999985    2.86999989
   16.59083366   -1.00000000    4.90999985    2.86999989
   16.59416771   -1.00000000    4.90999985    2.86999989
   16.59749985   -1.00000000    4.90999985    2.86999989
   16.60611153   -1.00000000    4.90999985    2.86999989
   16.60916710   -1.00000000    4.90999985    2.86999989
   16.61250114   -1.00000000    4.90999985    2.86999989
   16.61583328   -1.00000000    4.90999985    2.86999989
   16.61888885   -1.00000000    4.90999985    2.86999989
   16.62222290   -1.00000000    4.90999985    2.86999989
   16.62555504   -1.00000000    4.90999985    2.86999989
   16.62861061   -1.00000000    4.90999985    2.86999989
   16.63194466   -1.00000000    4.90999985    2.86999989
   16.64055634   -1.00000000    4.90999985    2.86999989
   16.64388847   -1.00000000    4.90999985    2.86999989
   16.64694405   -1.00000000    4.90999985    2.86999989
   16.65027809   -1.00000000    4.90999985    2.86999989
   16.65361023   -1.00000000    4.90999985    2.86999989
   16.65666580   -1.00000000    4.90999985    2.86999989
   16.65999985   -1.00000000    4.90999985    2.86999989
   16.66305542   -1.00000000    4.90999985    2.86999989
   16.66638756   -1.00000000    4.90999985    2.86999989
   16.67499924   -1.00000000    4.90999985    2.86999989
   16.67833328   -1.00000000    4.90999985    2.86999989
   16.68166542   -1.00000000    4.90999985    2.86999989
   16.68472099   -1.00000000    4.90999985    2.86999989
   16.68805504   -1.00000000    4.90999985    2.86999989
   16.69111061   -1.00000000    4.90999985    2.86999989
   16.69444275   -1.00000000    4.90999985    2.86999989
   16.69777679   -1.00000000    4.90999985    2.86999989
   16.70083427   -1.00000000    4.90999985    2.86999989
   16.70972252   -1.00000000    4.90999985    2.86999989
   16.71277809   -1.00000000    4.90999985    2.86999989
   16.71611214   -1.00000000    4.90999985    2.86999989
   16.71916771   -1.00000000    4.90999985    2.86999989
   16.72249985   -1.00000000    4.90999985    2.86999989
   16.72583389   -1.00000000    4.90999985    2.86999989
   16.72888947   -1.00000000    4.90999985    2.86999989
   16.73222351   -1.00000000    4.90999985    2.86999989
   16.73555565   -1.00000000    4.90999985    2.86999989
   16.74416733   -1.00000000    4.90999985    2.86999989
   16.74722290   -1.00000000    4.90999985    2.86999989
   16.75055504   -1.00000000    4.90999985    2.86999989
   16.75388908   -1.00000000    4.90999985    2.86999989
   16.75694466   -1.00000000    4.90999985    2.86999989
   16.76027870   -1.00000000    4.90999985    2.86999989
   16.76333427   -1.00000000    4.90999985    2.86999989
   16.76666641   -1.00000000    4.90999985    2.86999989
   16.77000046   -1.00000000    4.90999985    2.86999989
   16.77861023   -1.00000000    4.90999985    2.86999989
   16.78194427   -1.00000000    4.90999985    2.86999989
   16.78499985   -1.00000000    4.90999985    2.86999989
   16.78833199   -1.00000000    4.90999985    2.86999989
   16.79166603   -1.00000000    4.90999985    2.86999989
   16.79472160   -1.00000000    4.90999985    2.86999989
   16.79805565   -1.00000000    4.90999985    2.86999989
   16.80111122   -1.00000000    4.90999985    2.86999989
   16.80444336   -1.00000000    4.90999985    2.86999989
   16.82916832   -1.00000000    4.90999985    2.86999989
   16.83250046   -1.00000000    4.90999985    2.86999989
   16.83555603   -1.00000000    4.90999985    2.86999989
   16.83889008   -1.00000000    4.90999985    2.86999989
   16.84194565   -1.00000000    4.90999985    2.86999989
   16.84527779   -1.00000000    4.90999985    2.86999989
   16.84861183   -1.00000000    4.90999985    2.86999989
   16.85166740   -1.00000000    4.90999985    2.86999989
   16.85499954   -1.00000000    4.90999985    2.86999989
   16.86361122   -1.00000000    4.90999985    2.86999989
   16.86666679   -1.00000000    4.90999985    2.86999989
   16.87000084   -1.00000000    4.90999985    2.86999989
   16.87333298   -1.00000000    4.90999985    2.86999989
   16.87638855   -1.00000000    4.90999985    2.86999989
   16.87972260   -1.00000000    4.90999985    2.86999989
   16.88305473   -1.00000000    4.90999985    2.86999989
   16.88611031   -1.00000000    4.90999985    2.86999989
   16.88944435   -1.00000000    4.90999985    2.86999989
   16.89805603   -1.00000000    4.90999985    2.86999989
   16.90138817   -1.00000000    4.90999985    2.86999989
   16.90444374   -1.00000000    4.90999985    2.86999989
   16.90777779   -1.00000000    4.90999985    2.86999989
   16.91083336   -1.00000000    4.90999985    2.86999989
   16.91416550   -1.00000000    4.90999985    2.86999989
   16.91749954   -1.00000000    4.90999985    2.86999989
   16.92055511   -1.00000000    4.90999985    2.86999989
   16.92388916   -1.00000000    4.90999985    2.86999989
   16.93249893   -1.00000000    4.90999985    2.86999989
   16.93583298   -1.00000000    4.90999985    2.86999989
   16.93888855   -1.00000000    4.90999985    2.86999989
   16.94222069   -1.00000000    4.90999985    2.86999989
   16.94555473   -1.00000000    4.90999985    2.86999989
   16.94861031   -1.00000000    4.90999985    2.86999989
   16.95194435   -1.00000000    4.90999985    2.86999989
   16.95527840   -1.00000000    4.90999985    2.86999989
   16.95833397   -1.00000000    4.90999985    2.86999989
   16.96722221   -1.00000000    4.90999985    2.86999989
   16.97027779   -1.00000000    4.90999985    2.86999989
   16.97361183   -1.00000000    4.90999985    2.86999989
   16.97666740   -1.00000000    4.90999985    2.86999989
   16.98000145   -1.00000000    4.90999985    2.86999989
   16.98333359   -1.00000000    4.90999985    2.86999989
   16.98638916   -1.00000000    4.90999985    2.86999989
   16.98972321   -1.00000000    4.90999985    2.86999989
   16.99305534   -1.00000000    4.90999985    2.86999989
   17.00166702   -1.00000000    4.90999985    2.86999989
   17.00472260   -1.00000000    4.90999985    2.86999989
   17.00805473   -1.00000000    4.90999985    2.86999989
   17.01138878   -1.00000000    4.90999985    2.86999989
   17.01444435   -1.00000000    4.90999985    2.86999989
   17.01777840   -1.00000000    4.90999985    2.86999989
   17.02083397   -1.00000000    4.90999985    2.86999989
   17.02416611   -1.00000000    4.90999985    2.86999989
   17.02750015   -1.00000000    4.90999985    2.86999989
   17.03610992   -1.00000000    4.90999985    2.86999989
   17.03944397   -1.00000000    4.90999985    2.86999989
   17.04249954   -1.00000000    4.90999985    2.86999989
   17.04583359   -1.00000000    4.90999985    2.86999989
   17.04888916   -1.00000000    4.90999985    2.86999989
   17.05222130   -1.00000000    4.90999985    2.86999989
   17.05555534   -1.00000000    4.90999985    2.86999989
   17.05861092   -1.00000000    4.90999985    2.86999989
   17.06194305   -1.00000000    4.90999985    2.86999989
   17.07055664   -1.00000000    4.90999985    2.86999989
   17.07389069   -1.00000000    4.90999985    2.86999989
   17.07694626   -1.00000000    4.90999985    2.86999989
   17.08027840   -1.00000000    4.90999985    2.86999989
   17.08361244   -1.00000000    4.90999985    2.86999989
   17.08666801   -1.00000000    4.90999985    2.86999989
   17.09000015   -1.00000000    4.90999985    2.86999989
   17.09333420   -1.00000000    4.90999985    2.86999989
   17.09638977   -1.00000000    4.90999985    2.86999989
   17.10499954   -1.00000000    4.90999985    2.86999989
   17.10833359   -1.00000000    4.90999985    2.86999989
   17.11166763   -1.00000000    4.90999985    2.86999989
   17.11472321   -1.00000000    4.90999985    2.86999989
   17.11805534   -1.00000000    4.90999985    2.86999989
   17.12111092   -1.00000000    4.90999985    2.86999989
   17.12444496   -1.00000000    4.90999985    2.86999989
   17.12777710   -1.00000000    4.90999985    2.86999989
   17.13083267   -1.00000000    4.90999985    2.86999989
   17.13972282   -1.00000000    4.90999985    2.86999989
   17.14277840   -1.00000000    4.90999985    2.86999989
   17.14611053   -1.00000000    4.90999985    2.86999989
   17.14944458   -1.00000000    4.90999985    2.86999989
   17.15250015   -1.00000000    4.90999985    2.86999989
   17.15583229   -1.00000000    4.90999985    2.86999989
   17.15888786   -1.00000000    4.90999985    2.86999989
   17.16222191   -1.00000000    4.90999985    2.86999989
   17.16555595   -1.00000000    4.90999985    2.86999989
   17.17416573   -1.00000000    4.90999985    2.86999989
   17.17722130   -1.00000000    4.90999985    2.86999989
   17.18055534   -1.00000000    4.90999985    2.86999989
   17.18388748   -1.00000000    4.90999985    2.86999989
   17.18694305   -1.00000000    4.90999985    2.86999989
   17.19027710   -1.00000000    4.90999985    2.86999989
   17.19361115   -1.00000000    4.90999985    2.86999989
   17.19666672   -1.00000000    4.90999985    2.86999989
   17.20000076   -1.00000000    4.90999985    2.86999989
   17.20861244   -1.00000000    4.90999985    2.86999989
   17.21194458   -1.00000000    4.90999985    2.86999989
   17.21500015   -1.00000000    4.90999985    2.86999989
   17.21833420   -1.00000000    4.90999985    2.86999989
   17.22166634   -1.00000000    4.90999985    2.86999989
   17.22472191   -1.00000000    4.90999985    2.86999989
   17.22805595   -1.00000000    4.90999985    2.86999989
   17.23111153   -1.00000000    4.90999985    2.86999989
   17.23444557   -1.00000000    4.90999985    2.86999989
   17.24305534   -1.00000000    4.90999985    2.86999989
   17.24638939   -1.00000000    4.90999985    2.86999989
   17.24972153   -1.00000000    4.90999985    2.86999989
   17.25277710   -1.00000000    4.90999985    2.86999989
   17.25611115   -1.00000000    4.90999985    2.86999989
   17.25916672   -1.00000000    4.90999985    2.86999989
   17.26250076   -1.00000000    4.90999985    2.86999989
   17.26583290   -1.00000000    4.90999985    2.86999989
   17.26888847   -1.00000000    4.90999985    2.86999989
   17.27750015   -1.00000000    4.90999985    2.86999989
   17.28083229   -1.00000000    4.90999985    2.86999989
   17.28416634   -1.00000000    4.90999985    2.86999989
   17.28722191   -1.00000000    4.90999985    2.86999989
   17.29055595   -1.00000000    4.90999985    2.86999989
   17.29388809   -1.00000000    4.90999985    2.86999989
   17.29694366   -1.00000000    4.90999985    2.86999989
   17.30027771   -1.00000000    4.90999985    2.86999989
   17.30360985   -1.00000000    4.90999985    2.86999989
   17.31222153   -1.00000000    4.90999985    2.86999989
   17.31527710   -1.00000000    4.90999985    2.86999989
   17.31861115   -1.00000000    4.90999985    2.86999989
   17.32194519   -1.00000000    4.90999985    2.86999989
   17.32500076   -1.00000000    4.90999985    2.86999989
   17.32833481   -1.00000000    4.90999985    2.86999989
   17.33139038   -1.00000000    4.90999985    2.86999989
   17.33472252   -1.00000000    4.90999985    2.86999989
   17.33805656   -1.00000000    4.90999985    2.86999989
   17.34666824   -1.00000000    4.90999985    2.86999989
   17.35000038   -1.00000000    4.90999985    2.86999989
   17.35305595   -1.00000000    4.90999985    2.86999989
   17.35639000   -1.00000000    4.90999985    2.86999989
   17.35944557   -1.00000000    4.90999985    2.86999989
   17.36277771   -1.00000000    4.90999985    2.86999989
   17.36611176   -1.00000000    4.90999985    2.86999989
   17.36916733   -1.00000000    4.90999985    2.86999989
   17.37249947   -1.00000000    4.90999985    2.86999989
   17.38111115   -1.00000000    4.90999985    2.86999989
   17.38444519   -1.00000000    4.90999985    2.86999989
   17.38750076   -1.00000000    4.90999985    2.86999989
   17.39083290   -1.00000000    4.90999985    2.86999989
   17.39416695   -1.00000000    4.90999985    2.86999989
   17.39722252   -1.00000000    4.90999985    2.86999989
   17.40055466   -1.00000000    4.90999985    2.86999989
   17.40388870   -1.00000000    4.90999985    2.86999989
   17.40694427   -1.00000000    4.90999985    2.86999989
   17.41555595   -1.00000000    4.90999985    2.86999989
   17.41888809   -1.00000000    4.90999985    2.86999989
   17.42222214   -1.00000000    4.90999985    2.86999989
   17.42527771   -1.00000000    4.90999985    2.86999989
   17.42860985   -1.00000000    4.90999985    2.86999989
   17.43194389   -1.00000000    4.90999985    2.86999989
   17.43499947   -1.00000000    4.90999985    2.86999989
   17.43833160   -1.00000000    4.90999985    2.86999989
   17.44138718   -1.00000000    4.90999985    2.86999989
   17.45027924   -1.00000000    4.90999985    2.86999989
   17.45333481   -1.00000000    4.90999985    2.86999989
   17.45666695   -1.00000000    4.90999985    2.86999989
   17.46000099   -1.00000000    4.90999985    2.86999989
   17.46305656   -1.00000000    4.90999985    2.86999989
   17.46638870   -1.00000000    4.90999985    2.86999989
   17.46944427   -1.00000000    4.90999985    2.86999989
   17.47277832   -1.00000000    4.90999985    2.86999989
   17.47611237   -1.00000000    4.90999985    2.86999989
   17.48472214   -1.00000000    4.90999985    2.86999989
   17.48777771   -1.00000000    4.90999985    2.86999989
   17.49111176   -1.00000000    4.90999985    2.86999989
   17.49444389   -1.00000000    4.90999985    2.86999989
   17.49749947   -1.00000000    4.90999985    2.86999989
   17.50083351   -1.00000000    4.90999985    2.86999989
   17.50416756   -1.00000000    4.90999985    2.86999989
   17.50722313   -1.00000000    4.90999985    2.86999989
   17.51055527   -1.00000000    4.90999985    2.86999989
   17.51916695   -1.00000000    4.90999985    2.86999989
   17.52249908   -1.00000000    4.90999985    2.86999989
   17.52555466   -1.00000000    4.90999985    2.86999989
   17.52888870   -1.00000000    4.90999985    2.86999989
   17.53222275   -1.00000000    4.90999985    2.86999989
   17.53527641   -1.00000000    4.90999985    2.86999989
   17.53861046   -1.00000000    4.90999985    2.86999989
   17.54194450   -1.00000000    4.90999985    2.86999989
   17.54500008   -1.00000000    4.90999985    2.86999989
   17.55360985   -1.00000000    4.90999985    2.86999989
   17.55694389   -1.00000000    4.90999985    2.86999989
   17.56027794   -1.00000000    4.90999985    2.86999989
   17.56333351   -1.00000000    4.90999985    2.86999989
   17.56666756   -1.00000000    4.90999985    2.86999989
   17.57000160   -1.00000000    4.90999985    2.86999989
   17.57305717   -1.00000000    4.90999985    2.86999989
   17.57638931   -1.00000000    4.90999985    2.86999989
   17.57944489   -1.00000000    4.90999985    2.86999989
   17.58833313   -1.00000000    4.90999985    2.86999989
   17.59138870   -1.00000000    4.90999985    2.86999989
   17.59472275   -1.00000000    4.90999985    2.86999989
   17.59777832   -1.00000000    4.90999985    2.86999989
   17.60111237   -1.00000000    4.90999985    2.86999989
   17.60444450   -1.00000000    4.90999985    2.86999989
   17.60750008   -1.00000000    4.90999985    2.86999989
   17.61083412   -1.00000000    4.90999985    2.86999989
   17.61416626   -1.00000000    4.90999985    2.86999989
   17.62277794   -1.00000000    4.90999985    2.86999989
   17.62583351   -1.00000000    4.90999985    2.86999989
   17.62916756   -1.00000000    4.90999985    2.86999989
   17.63249969   -1.00000000    4.90999985    2.86999989
   17.63555527   -1.00000000    4.90999985    2.86999989
   17.63888931   -1.00000000    4.90999985    2.86999989
   17.64222145   -1.00000000    4.90999985    2.86999989
   17.64527702   -1.00000000    4.90999985    2.86999989
   17.64861107   -1.00000000    4.90999985    2.86999989
   17.65722275   -1.00000000    4.90999985    2.86999989
   17.66055489   -1.00000000    4.90999985    2.86999989
   17.66361046   -1.00000000    4.90999985    2.86999989
   17.66694450   -1.00000000    4.90999985    2.86999989
   17.67027664   -1.00000000    4.90999985    2.86999989
   17.67333221   -1.00000000    4.90999985    2.86999989
   17.67666626   -1.00000000    4.90999985    2.86999989
   17.67972183   79.80030060    4.90999985    2.86999989
   17.68305397   -1.00000000    4.90999985    2.86999989
   17.69166565  189.74899292    4.90999985    2.86999989
   17.69499969   71.13600159    4.90999985    2.86999989
   17.69805527   75.43720245    4.90999985    2.86999989
   17.70138931   81.24099731    4.90999985    2.86999989
   17.70472336   93.21759796    4.90999985    2.86999989
   17.70777893   79.55549622    4.90999985    2.86999989
   17.71111107   77.29759979    4.90999985    2.86999989
   17.71444511   83.99349976    4.90999985    2.86999989
   17.71750069   83.24120331    4.90999985    2.86999989
   17.72222328   83.24120331    4.90999985    2.86999989
   17.72638893   77.22090149    4.90999985    2.86999989
   17.72944450   76.61229706    4.90999985    2.86999989
   17.73277855   84.68049622    4.90999985    2.86999989
   17.73611069   77.74739838    4.90999985    2.86999989
   17.73916626   82.31980133    4.90999985    2.86999989
   17.74250031   81.38970184    4.90999985    2.86999989
   17.74583435   80.34320068    4.90999985    2.86999989
   17.74888992   80.65769958    4.90999985    2.86999989
   17.75222206   82.83630371    4.90999985    2.86999989
   17.75666618   82.83630371    4.90999985    2.86999989
   17.76083374   85.08719635    4.90999985    2.86999989
   17.76416588   77.47370148    4.90999985    2.86999989
   17.76722145   80.70719910    4.90999985    2.86999989
   17.77055550   85.09369659    4.90999985    2.86999989
   17.77361107   84.39669800    4.90999985    2.86999989
   17.77694511   77.14929962    4.90999985    2.86999989
   17.78027725   79.17369843    4.90999985    2.86999989
   17.78361130   79.53880310    4.90999985    2.86999989
   17.78694344   79.82720184    4.90999985    2.86999989
   17.79111099   79.82720184    4.90999985    2.86999989
   17.79527664   77.57009888    4.90999985    2.86999989
   17.79861069   80.12200165    4.90999985    2.86999989
   17.80166626   77.91929626    4.90999985    2.86999989
   17.80499840   81.82080078    4.90999985    2.86999989
   17.80833244   88.11129761    4.90999985    2.86999989
   17.81166649   82.28350067    4.90999985    2.86999989
   17.81472206   80.24340057    4.90999985    2.86999989
   17.81805611   84.62909698    4.90999985    2.86999989
   17.82111168   81.52709961    4.90999985    2.86999989
   17.84222221   81.52709961    4.90999985    2.86999989
   17.84638977   85.67330170    4.90999985    2.86999989
   17.84944534   83.83769989    4.90999985    2.86999989
   17.85277748   82.94110107    4.90999985    2.86999989
   17.85583305   81.50119781    4.90999985    2.86999989
   17.85916710   85.38130188    4.90999985    2.86999989
   17.86250114   82.34239960    4.90999985    2.86999989
   17.86555672   87.13909912    4.90999985    2.86999989
   17.86888885   84.28659821    4.90999985    2.86999989
   17.87222290   76.18949890    4.90999985    2.86999989
   17.87666702   76.18949890    4.90999985    2.86999989
   17.88055611   86.04109955    4.90999985    2.86999989
   17.88388824   86.48300171    4.90999985    2.86999989
   17.88722229   87.14679718    4.90999985    2.86999989
   17.89027786   99.89730072    4.90999985    2.86999989
   17.89361191   99.27369690    4.90999985    2.86999989
   17.89694405   86.15419769    4.90999985    2.86999989
   17.89999962   88.28630066    4.90999985    2.86999989
   17.90333366   95.91200256    4.90999985    2.86999989
   17.90638924   83.86209869    4.90999985    2.86999989
   17.91110992   83.86209869    4.90999985    2.86999989
   17.91527748   86.83599854    4.90999985    2.86999989
   17.91833305   87.85540009    4.90999985    2.86999989
   17.92166519   81.71659851    4.90999985    2.86999989
   17.92472076   85.33159637    4.90999985    2.86999989
   17.92805481   82.41570282    4.90999985    2.86999989
   17.93138885   83.17610168    4.90999985    2.86999989
   17.93444443   87.91339874    4.90999985    2.86999989
   17.93777657   81.27529907    4.90999985    2.86999989
   17.94111061   82.50689697    4.90999985    2.86999989
   17.94555473   82.50689697    4.90999985    2.86999989
   17.94972038   84.03980255    4.90999985    2.86999989
   17.95277786   91.05210114    4.90999985    2.86999989
   17.95611191   89.75520325    4.90999985    2.86999989
   17.95944595   80.08660126    4.90999985    2.86999989
   17.96250153   90.17199707    4.90999985    2.86999989
   17.96583366   78.99179840    4.90999985    2.86999989
   17.96916771   84.73819733    4.90999985    2.86999989
   17.97222328   82.95580292    4.90999985    2.86999989
   17.97555542   87.05030060    4.90999985    2.86999989
   17.98000145   87.05030060    4.90999985    2.86999989
   17.98416710   98.44589996    4.90999985    2.86999989
   17.98750114   88.10030365    4.90999985    2.86999989
   17.99055672   88.54989624    4.90999985    2.86999989
   17.99388885   83.70420074    4.90999985    2.86999989
   17.99722290   86.72820282    4.90999985    2.86999989
   18.00027847   96.40470123    4.90999985    2.86999989
   18.00361061   85.66380310    4.90999985    2.86999989
   18.00666618   98.45379639    4.90999985    2.86999989
   18.01000023   93.88040161    4.90999985    2.86999989
   18.01444435   93.88040161    4.90999985    2.86999989
   18.01861000   85.03079987    4.90999985    2.86999989
   18.02194405   90.32250214    4.90999985    2.86999989
   18.02527809  100.45200348    4.90999985    2.86999989
   18.02833366   92.78980255    4.90999985    2.86999989
   18.03166580   86.39880371    4.90999985    2.86999989
   18.03472137   87.41760254    4.90999985    2.86999989
   18.03805542   91.64089966    4.90999985    2.86999989
   18.04138756   90.51390076    4.90999985    2.86999989
   18.04444313  101.92199707    4.90999985    2.86999989
   18.04916573  101.92199707    4.90999985    2.86999989
   18.05333328   93.39070129    4.90999985    2.86999989
   18.05666542   86.89209747    4.90999985    2.86999989
   18.05999947   92.88549805    4.90999985    2.86999989
   18.06305504   94.29219818    4.90999985    2.86999989
   18.06638718   81.18430328    4.90999985    2.86999989
   18.06944466   89.74960327    4.90999985    2.86999989
   18.07277870   90.73750305    4.90999985    2.86999989
   18.07611275   86.15850067    4.90999985    2.86999989
   18.07916832   77.44409943    4.90999985    2.86999989
   18.08361244   77.44409943    4.90999985    2.86999989
   18.08777809   83.44329834    4.90999985    2.86999989
   18.09083366   85.55819702    4.90999985    2.86999989
   18.09416771   77.77359772    4.90999985    2.86999989
   18.09749985   91.08270264    4.90999985    2.86999989
   18.10055542   83.82479858    4.90999985    2.86999989
   18.10388947   78.65830231    4.90999985    2.86999989
   18.10722351   97.47579956    4.90999985    2.86999989
   18.11027908   87.73329926    4.90999985    2.86999989
   18.11361122   84.69290161    4.90999985    2.86999989
   18.11805534   84.69290161    4.90999985    2.86999989
   18.12222290   95.09069824    4.90999985    2.86999989
   18.12555504   84.56770325    4.90999985    2.86999989
   18.12861061   89.37629700    4.90999985    2.86999989
   18.13194466   82.59829712    4.90999985    2.86999989
   18.13527679   84.88700104    4.90999985    2.86999989
   18.13833237   90.20189667    4.90999985    2.86999989
   18.14166641   88.25659943    4.90999985    2.86999989
   18.14500046   89.31809998    4.90999985    2.86999989
   18.14833260   89.32640076    4.90999985    2.86999989
   18.15250015   89.32640076    4.90999985    2.86999989
   18.15666580   92.91770172    4.90999985    2.86999989
   18.15999985   83.13960266    4.90999985    2.86999989
   18.16305542   87.07219696    4.90999985    2.86999989
   18.16638756   84.75859833    4.90999985    2.86999989
   18.16972160   88.87100220    4.90999985    2.86999989
   18.17277718   87.06349945    4.90999985    2.86999989
   18.17611122   87.62039948    4.90999985    2.86999989
   18.17944336   90.87030029    4.90999985    2.86999989
   18.18249893   80.77200317    4.90999985    2.86999989
   18.18722153   80.77200317    4.90999985    2.86999989
   18.19111061   77.43710327    4.90999985    2.86999989
   18.19444275   86.85639954    4.90999985    2.86999989
   18.19777679   79.91049957    4.90999985    2.86999989
   18.20083427   75.56390381    4.90999985    2.86999989
   18.20416832   82.64150238    4.90999985    2.86999989
   18.20750046   88.19059753    4.90999985    2.86999989
   18.21055603   76.66410065    4.90999985    2.86999989
   18.21389008   83.78199768    4.90999985    2.86999989
   18.21694565   78.76730347    4.90999985    2.86999989
   18.22166634   78.76730347    4.90999985    2.86999989
   18.22583389   87.62259674    4.90999985    2.86999989
   18.22888947   83.83509827    4.90999985    2.86999989
   18.23222351   81.37899780    4.90999985    2.86999989
   18.23555565   78.08779907    4.90999985    2.86999989
   18.23861122   76.93589783    4.90999985    2.86999989
   18.24194527   75.32820129    4.90999985    2.86999989
   18.24527740   78.15699768    4.90999985    2.86999989
   18.24833298   88.46230316    4.90999985    2.86999989
   18.25166702   92.85679626    4.90999985    2.86999989
   18.25611115   92.85679626    4.90999985    2.86999989
   18.26027870   91.14859772    4.90999985    2.86999989
   18.26361084   82.03440094    4.90999985    2.86999989
   18.26666641   81.67939758    4.90999985    2.86999989
   18.27000046   84.92690277    4.90999985    2.86999989
   18.27305603   85.89579773    4.90999985    2.86999989
   18.27638817   82.00810242    4.90999985    2.86999989
   18.27972221   87.20680237    4.90999985    2.86999989
   18.28277779   89.81580353    4.90999985    2.86999989
   18.28610992   84.82389832    4.90999985    2.86999989
   18.29055595   84.82389832    4.90999985    2.86999989
   18.29472160   81.74720001    4.90999985    2.86999989
   18.29805565   94.71880341    4.90999985    2.86999989
   18.30111122   96.02670288    4.90999985    2.86999989
   18.30444336   97.52100372    4.90999985    2.86999989
   18.30777740   91.10590363    4.90999985    2.86999989
   18.31083298   91.85269928    4.90999985    2.86999989
   18.31416512   87.59320068    4.90999985    2.86999989
   18.31722260   90.91040039    4.90999985    2.86999989
   18.32055664   87.39520264    4.90999985    2.86999989
   18.32500076   87.39520264    4.90999985    2.86999989
   18.32916832   90.72350311    4.90999985    2.86999989
   18.33250046   92.36209869    4.90999985    2.86999989
   18.33583450   82.32340240    4.90999985    2.86999989
   18.33889008   77.51660156    4.90999985    2.86999989
   18.34222221   78.69640350    4.90999985    2.86999989
   18.34555626   81.26020050    4.90999985    2.86999989
   18.34861183   80.29180145    4.90999985    2.86999989
   18.35194397   81.62560272    4.90999985    2.86999989
   18.35499954   89.14099884    4.90999985    2.86999989
   18.35972214   89.14099884    4.90999985    2.86999989
   18.36388969   85.94419861    4.90999985    2.86999989
   18.36694527   86.89669800    4.90999985    2.86999989
   18.37027740   87.70919800    4.90999985    2.86999989
   18.37361145   80.20240021    4.90999985    2.86999989
   18.37666702   85.67019653    4.90999985    2.86999989
   18.38000107   81.32240295    4.90999985    2.86999989
   18.38333321   81.28929901    4.90999985    2.86999989
   18.38638878   78.46309662    4.90999985    2.86999989
   18.38972282   84.54440308    4.90999985    2.86999989
   18.39416695   84.54440308    4.90999985    2.86999989
   18.39833260   83.55339813    4.90999985    2.86999989
   18.40138817   81.67469788    4.90999985    2.86999989
   18.40472221   91.51909637    4.90999985    2.86999989
   18.40805435   84.11540222    4.90999985    2.86999989
   18.41110992   79.40599823    4.90999985    2.86999989
   18.41444397   80.57730103    4.90999985    2.86999989
   18.41777802   80.30979919    4.90999985    2.86999989
   18.42083359   88.55909729    4.90999985    2.86999989
   18.42416573   92.66940308    4.90999985    2.86999989
   18.42860985   92.66940308    4.90999985    2.86999989
   18.43277740   83.63269806    4.90999985    2.86999989
   18.43610954   81.86309814    4.90999985    2.86999989
   18.43916512   81.30220032    4.90999985    2.86999989
   18.44249916   77.55310059    4.90999985    2.86999989
   18.44583321   79.93959808    4.90999985    2.86999989
   18.44888878   87.51809692    4.90999985    2.86999989
   18.45222282   77.30359650    4.90999985    2.86999989
   18.45527840   77.32540131    4.90999985    2.86999989
   18.45861244   80.59100342    4.90999985    2.86999989
   18.46305656   80.59100342    4.90999985    2.86999989
   18.46722221   79.92160034    4.90999985    2.86999989
   18.47055626   72.86959839    4.90999985    2.86999989
   18.47361183   76.31400299    4.90999985    2.86999989
   18.47694588   74.95369720    4.90999985    2.86999989
   18.48027802   76.49600220    4.90999985    2.86999989
   18.48333359   76.35600281    4.90999985    2.86999989
   18.48666763   84.01300049    4.90999985    2.86999989
   18.48999977   82.43160248    4.90999985    2.86999989
   18.49305534   79.29450226    4.90999985    2.86999989
   18.49777794   79.29450226    4.90999985    2.86999989
   18.50166702   85.53379822    4.90999985    2.86999989
   18.50499916   87.23470306    4.90999985    2.86999989
   18.50833321   85.80580139    4.90999985    2.86999989
   18.51138878   76.19740295    4.90999985    2.86999989
   18.51472282   77.22029877    4.90999985    2.86999989
   18.51805496   79.26529694    4.90999985    2.86999989
   18.52111053   78.83830261    4.90999985    2.86999989
   18.52444458   81.00050354    4.90999985    2.86999989
   18.52750015   80.35639954    4.90999985    2.86999989
   18.53222275   80.35639954    4.90999985    2.86999989
   18.53638840   89.08190155    4.90999985    2.86999989
   18.53944397   79.53839874    4.90999985    2.86999989
   18.54277802   85.56179810    4.90999985    2.86999989
   18.54611015   80.46839905    4.90999985    2.86999989
   18.54916573   80.63929749    4.90999985    2.86999989
   18.55249977   81.48819733    4.90999985    2.86999989
   18.55583191   81.62930298    4.90999985    2.86999989
   18.55888748   87.68229675    4.90999985    2.86999989
   18.56222153   79.56629944    4.90999985    2.86999989
   18.56666756   79.56629944    4.90999985    2.86999989
   18.57083511   87.44249725    4.90999985    2.86999989
   18.57416725   78.40190125    4.90999985    2.86999989
   18.57722282   82.13990021    4.90999985    2.86999989
   18.58055687   76.96140289    4.90999985    2.86999989
   18.58361244   81.56120300    4.90999985    2.86999989
   18.58694458   78.80590057    4.90999985    2.86999989
   18.59027863   88.28549957    4.90999985    2.86999989
   18.59333420   87.11080170    4.90999985    2.86999989
   18.59666824   88.83170319    4.90999985    2.86999989
   18.60111237   88.83170319    4.90999985    2.86999989
   18.60527802   84.49060059    4.90999985    2.86999989
   18.60861206   77.10189819    4.90999985    2.86999989
   18.61166763   86.86589813    4.90999985    2.86999989
   18.61499977   90.33419800    4.90999985    2.86999989
   18.61833382   79.72789764    4.90999985    2.86999989
   18.62138939   86.46700287    4.90999985    2.86999989
   18.62472153   82.45909882    4.90999985    2.86999989
   18.62805557   81.88800049    4.90999985    2.86999989
   18.63111115   90.35119629    4.90999985    2.86999989
   18.63555527   90.35119629    4.90999985    2.86999989
   18.63972282   81.33519745    4.90999985    2.86999989
   18.64305496   85.50270081    4.90999985    2.86999989
   18.64638901   79.48130035    4.90999985    2.86999989
   18.64944458   82.70320129    4.90999985    2.86999989
   18.65277672   87.38500214    4.90999985    2.86999989
   18.65583229   77.91100311    4.90999985    2.86999989
   18.65916634   83.14839935    4.90999985    2.86999989
   18.66250038   78.70159912    4.90999985    2.86999989
   18.66555595   78.84110260    4.90999985    2.86999989
   18.67027664   78.84110260    4.90999985    2.86999989
   18.67444420   73.62390137    4.90999985    2.86999989
   18.67749977   71.49230194    4.90999985    2.86999989
   18.68083191   72.69229889    4.90999985    2.86999989
   18.68388748   82.21299744    4.90999985    2.86999989
   18.68722153   82.38749695    4.90999985    2.86999989
   18.69055557   82.11250305    4.90999985    2.86999989
   18.69361115   84.98139954    4.90999985    2.86999989
   18.69694328   91.96320343    4.90999985    2.86999989
   18.70027924   85.16089630    4.90999985    2.86999989
   18.70472336   85.16089630    4.90999985    2.86999989
   18.70888901   82.71749878    4.90999985    2.86999989
   18.71194458   76.09919739    4.90999985    2.86999989
   18.71527863   88.77149963    4.90999985    2.86999989
   18.71861076   80.28739929    4.90999985    2.86999989
   18.72166634   84.47280121    4.90999985    2.86999989
   18.72500038   77.38909912    4.90999985    2.86999989
   18.72833443   76.09600067    4.90999985    2.86999989
   18.73139000   78.66380310    4.90999985    2.86999989
   18.73472214   82.22059631    4.90999985    2.86999989
   18.73916626   82.22059631    4.90999985    2.86999989
   18.74333382   77.46379852    4.90999985    2.86999989
   18.74666786   82.80619812    4.90999985    2.86999989
   18.74972153   72.97879791    4.90999985    2.86999989
   18.75305557   75.51689911    4.90999985    2.86999989
   18.75638962   78.62729645    4.90999985    2.86999989
   18.75944519   80.83860016    4.90999985    2.86999989
   18.76277733   73.83339691    4.90999985    2.86999989
   18.76611137   74.33679962    4.90999985    2.86999989
   18.76916695   79.40319824    4.90999985    2.86999989
   18.77361107   79.40319824    4.90999985    2.86999989
   18.77777672   75.30259705    4.90999985    2.86999989
   18.78111076   76.57039642    4.90999985    2.86999989
   18.78444481   78.91639709    4.90999985    2.86999989
   18.78750038   76.85949707    4.90999985    2.86999989
   18.79083252   73.05180359    4.90999985    2.86999989
   18.79388809   76.02290344    4.90999985    2.86999989
   18.79722214   80.76699829    4.90999985    2.86999989
   18.80055428   81.85679626    4.90999985    2.86999989
   18.80360985   75.30319977    4.90999985    2.86999989
   18.80833244   75.30319977    4.90999985    2.86999989
   18.81250000   78.07900238    4.90999985    2.86999989
   18.81555557   79.06169891    4.90999985    2.86999989
   18.81888962   80.82399750    4.90999985    2.86999989
   18.82194519   77.23660278    4.90999985    2.86999989
   18.82527924   77.66770172    4.90999985    2.86999989
   18.82861137   74.67060089    4.90999985    2.86999989
   18.83166695   81.30979919    4.90999985    2.86999989
   18.83500099   92.51270294    4.90999985    2.86999989
   18.83833313   87.46880341    4.90999985    2.86999989
   18.85888863   87.46880341    4.90999985    2.86999989
   18.86305618   76.87310028    4.90999985    2.86999989
   18.86638832   81.01119995    4.90999985    2.86999989
   18.86944389   80.42690277    4.90999985    2.86999989
   18.87277794   78.55889893    4.90999985    2.86999989
   18.87611198   87.12030029    4.90999985    2.86999989
   18.87916756   77.63849640    4.90999985    2.86999989
   18.88249969   78.80889893    4.90999985    2.86999989
   18.88555527   79.44940186    4.90999985    2.86999989
   18.88888931   84.73359680    4.90999985    2.86999989
   18.89333344   84.73359680    4.90999985    2.86999989
   18.89749908   80.16349792    4.90999985    2.86999989
   18.90055466   76.47560120    4.90999985    2.86999989
   18.90388870   80.67030334    4.90999985    2.86999989
   18.90722275   81.32409668    4.90999985    2.86999989
   18.91027832   73.21410370    4.90999985    2.86999989
   18.91361046   82.92919922    4.90999985    2.86999989
   18.91694450   86.87719727    4.90999985    2.86999989
   18.92000008   84.80120087    4.90999985    2.86999989
   18.92333221   93.79139709    4.90999985    2.86999989
   18.92777634   93.79139709    4.90999985    2.86999989
   18.93194389   89.30729675    4.90999985    2.86999989
   18.93527603   83.54969788    4.90999985    2.86999989
   18.93833160   84.47820282    4.90999985    2.86999989
   18.94166565   85.31980133    4.90999985    2.86999989
   18.94499969   83.39099884    4.90999985    2.86999989
   18.94805527   84.44709778    4.90999985    2.86999989
   18.95138931   84.03359985    4.90999985    2.86999989
   18.95472336   82.21130371    4.90999985    2.86999989
   18.95777893   82.57540131    4.90999985    2.86999989
   18.96222305   82.57540131    4.90999985    2.86999989
   18.96638870   81.97080231    4.90999985    2.86999989
   18.96972275   81.50879669    4.90999985    2.86999989
   18.97305679   84.18689728    4.90999985    2.86999989
   18.97611237   76.07150269    4.90999985    2.86999989
   18.97944450   78.69560242    4.90999985    2.86999989
   18.98250008   76.26909637    4.90999985    2.86999989
   18.98583412   79.00499725    4.90999985    2.86999989
   18.98916626   80.13099670    4.90999985    2.86999989
   18.99222183   94.01519775    4.90999985    2.86999989
   18.99694443   94.01519775    4.90999985    2.86999989
   19.00111198   86.24629974    4.90999985    2.86999989
   19.00416756   81.43199921    4.90999985    2.86999989
   19.00749969   78.36750031    4.90999985    2.86999989
   19.01055527   78.17230225    4.90999985    2.86999989
   19.01388931   79.10209656    4.90999985    2.86999989
   19.01722145   78.80999756    4.90999985    2.86999989
   19.02027702   78.60739899    4.90999985    2.86999989
   19.02361107   76.40740204    4.90999985    2.86999989
   19.02694511   75.69380188    4.90999985    2.86999989
   19.03138924   75.69380188    4.90999985    2.86999989
   19.03555489   74.47219849    4.90999985    2.86999989
   19.03861046   89.55740356    4.90999985    2.86999989
   19.04194450   90.51370239    4.90999985    2.86999989
   19.04527664  101.71399689    4.90999985    2.86999989
   19.04833221   90.98639679    4.90999985    2.86999989
   19.05166626   86.00260162    4.90999985    2.86999989
   19.05499840  102.49800110    4.90999985    2.86999989
   19.05805397   89.39880371    4.90999985    2.86999989
   19.06138802   94.13059998    4.90999985    2.86999989
   19.06583214   94.13059998    4.90999985    2.86999989
   19.07000160   83.68170166    4.90999985    2.86999989
   19.07333374   76.87879944    4.90999985    2.86999989
   19.07638931   90.83660126    4.90999985    2.86999989
   19.07972336   76.23370361    4.90999985    2.86999989
   19.08305550   76.38520050    4.90999985    2.86999989
   19.08611107   89.14520264    4.90999985    2.86999989
   19.08944511   78.86530304    4.90999985    2.86999989
   19.09250069   77.26869965    4.90999985    2.86999989
   19.09583473   78.91400146    4.90999985    2.86999989
   19.10027885   78.91400146    4.90999985    2.86999989
   19.10444450   79.84870148    4.90999985    2.86999989
   19.10777855   76.52459717    4.90999985    2.86999989
   19.11083412   77.73359680    4.90999985    2.86999989
   19.11416626   77.90270233    4.90999985    2.86999989
   19.11750031   76.40489960    4.90999985    2.86999989
   19.12055588   75.81890106    4.90999985    2.86999989
   19.12388992   74.66770172    4.90999985    2.86999989
   19.12722206   75.81030273    4.90999985    2.86999989
   19.13027763   78.08070374    4.90999985    2.86999989
   19.13500023   78.08070374    4.90999985    2.86999989
   19.13888931   77.71299744    4.90999985    2.86999989
   19.14222145   79.28880310    4.90999985    2.86999989
   19.14555550   81.16850281    4.90999985    2.86999989
   19.14861107   76.63269806    4.90999985    2.86999989
   19.15194321   77.56390381    4.90999985    2.86999989
   19.15527725   82.41649628    4.90999985    2.86999989
   19.15833282   78.35759735    4.90999985    2.86999989
   19.16166687   76.85340118    4.90999985    2.86999989
   19.16472244   75.36640167    4.90999985    2.86999989
   19.16944313   75.36640167    4.90999985    2.86999989
   19.17361069   86.69989777    4.90999985    2.86999989
   19.17666626   82.76779938    4.90999985    2.86999989
   19.18000031   81.11650085    4.90999985    2.86999989
   19.18333244   88.08290100    4.90999985    2.86999989
   19.18638802   85.21260071    4.90999985    2.86999989
   19.18972206   83.98030090    4.90999985    2.86999989
   19.19305420   79.24939728    4.90999985    2.86999989
   19.19610977   87.91919708    4.90999985    2.86999989
   19.19944382   79.25720215    4.90999985    2.86999989
   19.20388985   79.25720215    4.90999985    2.86999989
   19.20805550   81.69680023    4.90999985    2.86999989
   19.21138954   87.94709778    4.90999985    2.86999989
   19.21444511   81.11710358    4.90999985    2.86999989
   19.21777916   81.76490021    4.90999985    2.86999989
   19.22083473   87.47750092    4.90999985    2.86999989
   19.22416687   84.58899689    4.90999985    2.86999989
   19.22750092   81.31739807    4.90999985    2.86999989
   19.23055649   84.11209869    4.90999985    2.86999989
   19.23388863   79.20140076    4.90999985    2.86999989
   19.23833275   79.20140076    4.90999985    2.86999989
   19.24250031   82.49530029    4.90999985    2.86999989
   19.24583435   77.23739624    4.90999985    2.86999989
   19.24888992   74.06800079    4.90999985    2.86999989
   19.25222206   76.31089783    4.90999985    2.86999989
   19.25555611   78.98249817    4.90999985    2.86999989
   19.25861168   73.79450226    4.90999985    2.86999989
   19.26194382   79.58049774    4.90999985    2.86999989
   19.26527786   77.33319855    4.90999985    2.86999989
   19.26833344   77.29350281    4.90999985    2.86999989
   19.27277756   77.29350281    4.90999985    2.86999989
   19.27694511   76.76770020    4.90999985    2.86999989
   19.28027725   78.83589935    4.90999985    2.86999989
   19.28361130   77.38639832    4.90999985    2.86999989
   19.28666687   78.84980011    4.90999985    2.86999989
   19.28999901   78.58840179    4.90999985    2.86999989
   19.29305458   79.11160278    4.90999985    2.86999989
   19.29638863   84.00559998    4.90999985    2.86999989
   19.29972076   77.82830048    4.90999985    2.86999989
   19.30277634   78.42900085    4.90999985    2.86999989
   19.30749893   78.42900085    4.90999985    2.86999989
   19.31166649   79.26020050    4.90999985    2.86999989
   19.31472206   78.58609772    4.90999985    2.86999989
   19.31805611   78.19390106    4.90999985    2.86999989
   19.32111168   80.58830261    4.90999985    2.86999989
   19.32444572   75.38619995    4.90999985    2.86999989
   19.32777786   78.71320343    4.90999985    2.86999989
   19.33083344   79.20459747    4.90999985    2.86999989
   19.33416748   80.45410156    4.90999985    2.86999989
   19.33750153   77.98139954    4.90999985    2.86999989
   19.34194565   77.98139954    4.90999985    2.86999989
   19.34611130   84.41970062    4.90999985    2.86999989
   19.34916687   78.09020233    4.90999985    2.86999989
   19.35250092   82.68789673    4.90999985    2.86999989
   19.35583305   83.39730072    4.90999985    2.86999989
   19.35888863   80.98320007    4.90999985    2.86999989
   19.36222267   81.05120087    4.90999985    2.86999989
   19.36555672   81.22409821    4.90999985    2.86999989
   19.36861038   78.17410278    4.90999985    2.86999989
   19.37194443   83.31829834    4.90999985    2.86999989
   19.37638855   83.31829834    4.90999985    2.86999989
   19.38055611   78.31670380    4.90999985    2.86999989
   19.38388824   81.09190369    4.90999985    2.86999989
   19.38694382   80.88569641    4.90999985    2.86999989
   19.39027786   77.99620056    4.90999985    2.86999989
   19.39361191   85.74389648    4.90999985    2.86999989
   19.39666748   84.64459991    4.90999985    2.86999989
   19.39999962   77.39980316    4.90999985    2.86999989
   19.40305519   80.70639801    4.90999985    2.86999989
   19.40638924   78.67800140    4.90999985    2.86999989
   19.41083336   78.67800140    4.90999985    2.86999989
   19.41499901   77.67990112    4.90999985    2.86999989
   19.41833305   75.20539856    4.90999985    2.86999989
   19.42166519   76.47599792    4.90999985    2.86999989
   19.42472076   78.59079742    4.90999985    2.86999989
   19.42805481   77.41580200    4.90999985    2.86999989
   19.43111038   74.99009705    4.90999985    2.86999989
   19.43444443   74.76899719    4.90999985    2.86999989
   19.43777657   77.21050262    4.90999985    2.86999989
   19.44083214   81.68550110    4.90999985    2.86999989
   19.44555473   81.68550110    4.90999985    2.86999989
   19.44944382   77.10510254    4.90999985    2.86999989
   19.45277786   76.63690186    4.90999985    2.86999989
   19.45611191   78.26989746    4.90999985    2.86999989
   19.45916748   83.83740234    4.90999985    2.86999989
   19.46250153   77.79029846    4.90999985    2.86999989
   19.46583366   73.78479767    4.90999985    2.86999989
   19.46888924   82.47460175    4.90999985    2.86999989
   19.47222328   80.56739807    4.90999985    2.86999989
   19.47555542   79.56300354    4.90999985    2.86999989
   19.48000145   79.56300354    4.90999985    2.86999989
   19.48416710   79.11959839    4.90999985    2.86999989
   19.48722267   77.81749725    4.90999985    2.86999989
   19.49055672   77.32900238    4.90999985    2.86999989
   19.49388885   78.59940338    4.90999985    2.86999989
   19.49694443   76.90850067    4.90999985    2.86999989
   19.50027847   75.72450256    4.90999985    2.86999989
   19.50361061   76.41840363    4.90999985    2.86999989
   19.50666618   79.33350372    4.90999985    2.86999989
   19.51000023   82.01399994    4.90999985    2.86999989
   19.51444435   82.01399994    4.90999985    2.86999989
   19.51861000   80.93250275    4.90999985    2.86999989
   19.52194405   80.28589630    4.90999985    2.86999989
   19.52499962   78.67400360    4.90999985    2.86999989
   19.52833366   79.45429993    4.90999985    2.86999989
   19.53166580   75.04090118    4.90999985    2.86999989
   19.53499985   73.35130310    4.90999985    2.86999989
   19.53805542   81.52030182    4.90999985    2.86999989
   19.54138756   78.17240143    4.90999985    2.86999989
   19.54472160   87.14939880    4.90999985    2.86999989
   19.54888916   87.14939880    4.90999985    2.86999989
   19.55305481   83.35759735    4.90999985    2.86999989
   19.55638885   83.33059692    4.90999985    2.86999989
   19.55944443   77.29810333    4.90999985    2.86999989
   19.56277657   81.70999908    4.90999985    2.86999989
   19.56611061   83.07430267    4.90999985    2.86999989
   19.56916809   82.09339905    4.90999985    2.86999989
   19.57250023   80.28949738    4.90999985    2.86999989
   19.57583427   78.14080048    4.90999985    2.86999989
   19.57888985   80.01629639    4.90999985    2.86999989
   19.58361244   80.01629639    4.90999985    2.86999989
   19.58750153   82.64379883    4.90999985    2.86999989
   19.59083366   80.59429932    4.90999985    2.86999989
   19.59416771   78.63320160    4.90999985    2.86999989
   19.59722328   79.25579834    4.90999985    2.86999989
   19.60055542   78.64199829    4.90999985    2.86999989
   19.60388947   85.12059784    4.90999985    2.86999989
   19.60694504   81.16529846    4.90999985    2.86999989
   19.61027908   77.97450256    4.90999985    2.86999989
   19.61333466   78.67549896    4.90999985    2.86999989
   19.61805534   78.67549896    4.90999985    2.86999989
   19.62222290   76.56950378    4.90999985    2.86999989
   19.62527847   76.66600037    4.90999985    2.86999989
   19.62861061   80.38990021    4.90999985    2.86999989
   19.63194466   80.86979675    4.90999985    2.86999989
   19.63500023   83.50769806    4.90999985    2.86999989
   19.63833237   80.44599915    4.90999985    2.86999989
   19.64138794   79.32579803    4.90999985    2.86999989
   19.64472198   75.11779785    4.90999985    2.86999989
   19.64805603   76.20909882    4.90999985    2.86999989
   19.65250015   76.20909882    4.90999985    2.86999989
   19.65666580   79.24720001    4.90999985    2.86999989
   19.65972137   88.46269989    4.90999985    2.86999989
   19.66305542   79.76879883    4.90999985    2.86999989
   19.66638756   84.35970306    4.90999985    2.86999989
   19.66944313   80.65090179    4.90999985    2.86999989
   19.67277718   82.77459717    4.90999985    2.86999989
   19.67611122   77.48979950    4.90999985    2.86999989
   19.67916679   75.79530334    4.90999985    2.86999989
   19.68249893   80.08460236    4.90999985    2.86999989
   19.68694305   80.08460236    4.90999985    2.86999989
   19.69111061   78.58319855    4.90999985    2.86999989
   19.69444275   79.17590332    4.90999985    2.86999989
   19.69749832   80.05249786    4.90999985    2.86999989
   19.70083427   76.83719635    4.90999985    2.86999989
   19.70416832   82.50839996    4.90999985    2.86999989
   19.70722389   78.20709991    4.90999985    2.86999989
   19.71055603   76.57039642    4.90999985    2.86999989
   19.71389008   78.77420044    4.90999985    2.86999989
   19.71694565   79.55319977    4.90999985    2.86999989
   19.72138977   79.55319977    4.90999985    2.86999989
   19.72555542   77.54460144    4.90999985    2.86999989
   19.72888947   80.84860229    4.90999985    2.86999989
   19.73222351   77.41159821    4.90999985    2.86999989
   19.73527718   78.00689697    4.90999985    2.86999989
   19.73861122   79.58370209    4.90999985    2.86999989
   19.74194527   78.19740295    4.90999985    2.86999989
   19.74500084   82.91690063    4.90999985    2.86999989
   19.74833298   76.40769958    4.90999985    2.86999989
   19.75166702   78.58390045    4.90999985    2.86999989
   19.75611115   78.58390045    4.90999985    2.86999989
   19.76027870   79.71600342    4.90999985    2.86999989
   19.76333427   79.71410370    4.90999985    2.86999989
   19.76666641   80.10679626    4.90999985    2.86999989
   19.76972198   82.63169861    4.90999985    2.86999989
   19.77305603   84.82009888    4.90999985    2.86999989
   19.77638817   84.58930206    4.90999985    2.86999989
   19.77944374   82.96959686    4.90999985    2.86999989
   19.78277779   85.01039886    4.90999985    2.86999989
   19.78610992   78.68589783    4.90999985    2.86999989
   19.79055595   78.68589783    4.90999985    2.86999989
   19.79472160   76.80819702    4.90999985    2.86999989
   19.79777718   86.07270050    4.90999985    2.86999989
   19.80111122   80.30940247    4.90999985    2.86999989
   19.80444336   83.59100342    4.90999985    2.86999989
   19.80749893   90.54319763    4.90999985    2.86999989
   19.81083298   83.92549896    4.90999985    2.86999989
   19.81416512   86.69049835    4.90999985    2.86999989
   19.81722260   84.96630096    4.90999985    2.86999989
   19.82055664   86.61830139    4.90999985    2.86999989
   19.82500076   86.61830139    4.90999985    2.86999989
   19.82916832   78.51560211    4.90999985    2.86999989
   19.83250046   81.37319946    4.90999985    2.86999989
   19.83555603   84.44730377    4.90999985    2.86999989
   19.83889008   89.50530243    4.90999985    2.86999989
   19.84222221   85.85510254    4.90999985    2.86999989
   19.84527779   79.86900330    4.90999985    2.86999989
   19.84861183   87.98059845    4.90999985    2.86999989
   19.85166740   88.16699982    4.90999985    2.86999989
   19.85499954   83.78179932    4.90999985    2.86999989
   19.87555504   83.78179932    4.90999985    2.86999989
   19.87972260   90.23429871    4.90999985    2.86999989
   19.88305473   81.81040192    4.90999985    2.86999989
   19.88638878   79.70970154    4.90999985    2.86999989
   19.88944435   81.85260010    4.90999985    2.86999989
   19.89277840   77.86389923    4.90999985    2.86999989
   19.89611053   84.59649658    4.90999985    2.86999989
   19.89916611   92.82479858    4.90999985    2.86999989
   19.90250015   93.32900238    4.90999985    2.86999989
   19.90555573   79.18280029    4.90999985    2.86999989
   19.90999985   79.18280029    4.90999985    2.86999989
   19.91416550   84.27799988    4.90999985    2.86999989
   19.91749954   90.04039764    4.90999985    2.86999989
   19.92055511   82.63600159    4.90999985    2.86999989
   19.92388916   80.81379700    4.90999985    2.86999989
   19.92722130   93.51059723    4.90999985    2.86999989
   19.93027687   78.68260193    4.90999985    2.86999989
   19.93361092   78.93759918    4.90999985    2.86999989
   19.93694305   81.60970306    4.90999985    2.86999989
   19.93999863   86.05429840    4.90999985    2.86999989
   19.94444275   86.05429840    4.90999985    2.86999989
   19.94861031   80.26779938    4.90999985    2.86999989
   19.95194435   76.30549622    4.90999985    2.86999989
   19.95527840   79.56240082    4.90999985    2.86999989
   19.95833397   78.01719666    4.90999985    2.86999989
   19.96166801   78.77629852    4.90999985    2.86999989
   19.96472359   80.19029999    4.90999985    2.86999989
   19.96805573   80.19319916    4.90999985    2.86999989
   19.97138977   74.07289886    4.90999985    2.86999989
   19.97444534   74.83969879    4.90999985    2.86999989
   19.97916794   74.83969879    4.90999985    2.86999989
   19.98333359   80.76069641    4.90999985    2.86999989
   19.98638916   78.37940216    4.90999985    2.86999989
   19.98972321   79.13089752    4.90999985    2.86999989
   19.99305534   82.51909637    4.90999985    2.86999989
   19.99611092   79.13379669    4.90999985    2.86999989
   19.99944496   78.71520233    4.90999985    2.86999989
   20.00250053   80.54450226    4.90999985    2.86999989
   20.00583267   79.01879883    4.90999985    2.86999989
   20.00916672   81.01709747    4.90999985    2.86999989
   20.01361084   81.01709747    4.90999985    2.86999989
   20.01777840   80.74500275    4.90999985    2.86999989
   20.02083397   83.47290039    4.90999985    2.86999989
   20.02416611   80.72119904    4.90999985    2.86999989
   20.02750015   82.93859863    4.90999985    2.86999989
   20.03055573   98.87599945    4.90999985    2.86999989
   20.03388786   81.80010223    4.90999985    2.86999989
   20.03722191   94.53739929    4.90999985    2.86999989
   20.04027748   78.08270264    4.90999985    2.86999989
   20.04361153   88.15979767    4.90999985    2.86999989
   20.04805565   88.15979767    4.90999985    2.86999989
   20.05222130   84.75060272    4.90999985    2.86999989
   20.05555534   88.09079742    4.90999985    2.86999989
   20.05888748   82.97619629    4.90999985    2.86999989
   20.06194305   82.27420044    4.90999985    2.86999989
   20.06527710   89.35620117    4.90999985    2.86999989
   20.06833458   80.13169861    4.90999985    2.86999989
   20.07166672   93.78220367    4.90999985    2.86999989
   20.07500076   97.73339844    4.90999985    2.86999989
   20.07805634   89.81240082    4.90999985    2.86999989
   20.08250046   89.81240082    4.90999985    2.86999989
   20.08666801   85.76229858    4.90999985    2.86999989
   20.09000015   97.21970367    4.90999985    2.86999989
   20.09333420   96.11229706    4.90999985    2.86999989
   20.09638977   96.76319885    4.90999985    2.86999989
   20.09972191   93.60019684    4.90999985    2.86999989
   20.10277748   81.71679688    4.90999985    2.86999989
   20.10611153   93.53639984    4.90999985    2.86999989
   20.10944557   86.97750092    4.90999985    2.86999989
   20.11250114   78.67009735    4.90999985    2.86999989
   20.11722183   78.67009735    4.90999985    2.86999989
   20.12111092   87.41850281    4.90999985    2.86999989
   20.12444496   82.76470184    4.90999985    2.86999989
   20.12777710   87.29979706    4.90999985    2.86999989
   20.13083267   85.73359680    4.90999985    2.86999989
   20.13416672   85.21510315    4.90999985    2.86999989
   20.13750076   92.40799713    4.90999985    2.86999989
   20.14055634   86.44149780    4.90999985    2.86999989
   20.14388847   82.39550018    4.90999985    2.86999989
   20.14694405   81.55249786    4.90999985    2.86999989
   20.15166664   81.55249786    4.90999985    2.86999989
   20.15583229   89.73310089    4.90999985    2.86999989
   20.15888786   85.94789886    4.90999985    2.86999989
   20.16222191   78.38200378    4.90999985    2.86999989
   20.16555595   84.34480286    4.90999985    2.86999989
   20.16860962   80.09719849    4.90999985    2.86999989
   20.17194366   80.10600281    4.90999985    2.86999989
   20.17499924   75.88439941    4.90999985    2.86999989
   20.17833328   83.75090027    4.90999985    2.86999989
   20.18166542   78.85839844    4.90999985    2.86999989
   20.18610954   78.85839844    4.90999985    2.86999989
   20.19027710   80.89739990    4.90999985    2.86999989
   20.19361115   79.30860138    4.90999985    2.86999989
   20.19666672   79.24389648    4.90999985    2.86999989
   20.20000076   81.73000336    4.90999985    2.86999989
   20.20333481   80.39700317    4.90999985    2.86999989
   20.20639038   82.18720245    4.90999985    2.86999989
   20.20972252   80.86759949    4.90999985    2.86999989
   20.21277809   84.51589966    4.90999985    2.86999989
   20.21611214   77.11060333    4.90999985    2.86999989
   20.22055626   77.11060333    4.90999985    2.86999989
   20.22472191   81.56849670    4.90999985    2.86999989
   20.22805595   77.76709747    4.90999985    2.86999989
   20.23111153   84.06629944    4.90999985    2.86999989
   20.23444557   89.57409668    4.90999985    2.86999989
   20.23777771   89.01850128    4.90999985    2.86999989
   20.24083328   83.57039642    4.90999985    2.86999989
   20.24416733   82.65740204    4.90999985    2.86999989
   20.24749947   80.51200104    4.90999985    2.86999989
   20.25055504   82.37139893    4.90999985    2.86999989
   20.25499916   82.37139893    4.90999985    2.86999989
   20.25916672   81.81400299    4.90999985    2.86999989
   20.26250076   79.11329651    4.90999985    2.86999989
   20.26583290   80.40660095    4.90999985    2.86999989
   20.26888847   77.56629944    4.90999985    2.86999989
   20.27222252   74.64060211    4.90999985    2.86999989
   20.27527809   78.44689941    4.90999985    2.86999989
   20.27861023   78.95189667    4.90999985    2.86999989
   20.28194427   82.19730377    4.90999985    2.86999989
   20.28527641   76.53500366    4.90999985    2.86999989
   20.28972244   76.53500366    4.90999985    2.86999989
   20.29388809   78.72959900    4.90999985    2.86999989
   20.29694366   76.05390167    4.90999985    2.86999989
   20.30027771   83.82039642    4.90999985    2.86999989
   20.30333328   81.17579651    4.90999985    2.86999989
   20.30666542   76.97509766    4.90999985    2.86999989
   20.30999947   78.70320129    4.90999985    2.86999989
   20.31305504   83.66809845    4.90999985    2.86999989
   20.31638718   81.76419830    4.90999985    2.86999989
   20.31972313   88.54019928    4.90999985    2.86999989
   20.32416725   88.54019928    4.90999985    2.86999989
   20.32833481   85.42269897    4.90999985    2.86999989
   20.33139038   82.89019775    4.90999985    2.86999989
   20.33472252   84.30879974    4.90999985    2.86999989
   20.33805656   83.25720215    4.90999985    2.86999989
   20.34111214   87.93049622    4.90999985    2.86999989
   20.34444427   85.98500061    4.90999985    2.86999989
   20.34777832   88.33470154    4.90999985    2.86999989
   20.35083389   74.61239624    4.90999985    2.86999989
   20.35416794   82.69629669    4.90999985    2.86999989
   20.35861206   82.69629669    4.90999985    2.86999989
   20.36277771   81.08350372    4.90999985    2.86999989
   20.36611176   87.64029694    4.90999985    2.86999989
   20.36916733   78.78050232    4.90999985    2.86999989
   20.37249947   82.35289764    4.90999985    2.86999989
   20.37583351   86.54470062    4.90999985    2.86999989
   20.37888908   87.97789764    4.90999985    2.86999989
   20.38222313   98.53029633    4.90999985    2.86999989
   20.38527679   95.16249847    4.90999985    2.86999989
   20.38861084   83.60630035    4.90999985    2.86999989
   20.39305496   83.60630035    4.90999985    2.86999989
   20.39722252   79.71230316    4.90999985    2.86999989
   20.40055466   88.08789825    4.90999985    2.86999989
   20.40388870   83.25749969    4.90999985    2.86999989
   20.40694427   78.66000366    4.90999985    2.86999989
   20.41027832   91.19110107    4.90999985    2.86999989
   20.41333389   98.54129791    4.90999985    2.86999989
   20.41666603   85.17120361    4.90999985    2.86999989
   20.42000008   98.19419861    4.90999985    2.86999989
   20.42305565   79.12500000    4.90999985    2.86999989
   20.42777634   79.12500000    4.90999985    2.86999989
   20.43166542   87.21369934    4.90999985    2.86999989
   20.43499947   85.26770020    4.90999985    2.86999989
   20.43833160   86.44830322    4.90999985    2.86999989
   20.44138718   83.37699890    4.90999985    2.86999989
   20.44472122   95.58840179    4.90999985    2.86999989
   20.44805527   85.71250153    4.90999985    2.86999989
   20.45111275   83.86599731    4.90999985    2.86999989
   20.45444489   79.41010284    4.90999985    2.86999989
   20.45750046   88.87270355    4.90999985    2.86999989
   20.46222305   88.87270355    4.90999985    2.86999989
   20.46638870   79.17220306    4.90999985    2.86999989
   20.46944427   79.25029755    4.90999985    2.86999989
   20.47277832   78.85800171    4.90999985    2.86999989
   20.47583389   79.26999664    4.90999985    2.86999989
   20.47916794   76.99790192    4.90999985    2.86999989
   20.48250008   81.44930267    4.90999985    2.86999989
   20.48555565   77.54799652    4.90999985    2.86999989
   20.48888969   80.37709808    4.90999985    2.86999989
   20.49222183   82.91970062    4.90999985    2.86999989
   20.49666786   82.91970062    4.90999985    2.86999989
   20.50083351   77.30979919    4.90999985    2.86999989
   20.50388908   73.69840240    4.90999985    2.86999989
   20.50722313   81.01660156    4.90999985    2.86999989
   20.51055527   78.20149994    4.90999985    2.86999989
   20.51361084   78.02040100    4.90999985    2.86999989
   20.51694489   79.62960052    4.90999985    2.86999989
   20.52027702   79.09889984    4.90999985    2.86999989
   20.52333260   77.48919678    4.90999985    2.86999989
   20.52666664   80.19629669    4.90999985    2.86999989
   20.53111076   80.19629669    4.90999985    2.86999989
   20.53527641   79.74349976    4.90999985    2.86999989
   20.53861046   80.72550201    4.90999985    2.86999989
   20.54166603   79.86579895    4.90999985    2.86999989
   20.54500008   80.40519714    4.90999985    2.86999989
   20.54833221   79.05020142    4.90999985    2.86999989
   20.55138779   79.87290192    4.90999985    2.86999989
   20.55472183   83.05490112    4.90999985    2.86999989
   20.55777740   86.13909912    4.90999985    2.86999989
   20.56110954   88.12779999    4.90999985    2.86999989
   20.56555557   88.12779999    4.90999985    2.86999989
   20.56972313   92.85720062    4.90999985    2.86999989
   20.57305717   81.48470306    4.90999985    2.86999989
   20.57638931   80.10150146    4.90999985    2.86999989
   20.57944489   87.01699829    4.90999985    2.86999989
   20.58277893   84.50749969    4.90999985    2.86999989
   20.58583450   79.89550018    4.90999985    2.86999989
   20.58916664   80.81469727    4.90999985    2.86999989
   20.59250069   82.43160248    4.90999985    2.86999989
   20.59555626   80.99649811    4.90999985    2.86999989
   20.60027885   80.99649811    4.90999985    2.86999989
   20.60444450   82.43669891    4.90999985    2.86999989
   20.60750008   91.04979706    4.90999985    2.86999989
   20.61083412   81.17220306    4.90999985    2.86999989
   20.61388969   81.34410095    4.90999985    2.86999989
   20.61722183   82.37169647    4.90999985    2.86999989
   20.62055588   84.15059662    4.90999985    2.86999989
   20.62361145   80.78009796    4.90999985    2.86999989
   20.62694550   82.84649658    4.90999985    2.86999989
   20.63027763   80.33260345    4.90999985    2.86999989
   20.63472176   80.33260345    4.90999985    2.86999989
   20.63888931   82.43029785    4.90999985    2.86999989
   20.64194489   89.77030182    4.90999985    2.86999989
   20.64527702   88.85919952    4.90999985    2.86999989
   20.64861107   79.88420105    4.90999985    2.86999989
   20.65166664   82.27729797    4.90999985    2.86999989
   20.65499878   87.38379669    4.90999985    2.86999989
   20.65833282   94.90689850    4.90999985    2.86999989
   20.66138840   83.91089630    4.90999985    2.86999989
   20.66472244   79.35260010    4.90999985    2.86999989
   20.66916656   79.35260010    4.90999985    2.86999989
   20.67333221   82.64890289    4.90999985    2.86999989
   20.67666626   84.82479858    4.90999985    2.86999989
   20.67972183   88.28189850    4.90999985    2.86999989
   20.68305397   89.04930115    4.90999985    2.86999989
   20.68610954   85.85970306    4.90999985    2.86999989
   20.68944359   82.74140167    4.90999985    2.86999989
   20.69277763   85.84349823    4.90999985    2.86999989
   20.69583321   83.79199982    4.90999985    2.86999989
   20.69916534   87.54750061    4.90999985    2.86999989
   20.70361137   87.54750061    4.90999985    2.86999989
   20.70777893   86.37840271    4.90999985    2.86999989
   20.71111107   89.95999908    4.90999985    2.86999989
   20.71416664   85.38990021    4.90999985    2.86999989
   20.71750069   91.61920166    4.90999985    2.86999989
   20.72083473   87.63140106    4.90999985    2.86999989
   20.72389030   81.13619995    4.90999985    2.86999989
   20.72722244   88.87550354    4.90999985    2.86999989
   20.73055649   86.38569641    4.90999985    2.86999989
   20.73361206   84.89060211    4.90999985    2.86999989
   20.73833275   84.89060211    4.90999985    2.86999989
   20.74222183   79.30429840    4.90999985    2.86999989
   20.74555588   94.39230347    4.90999985    2.86999989
   20.74888992   88.49960327    4.90999985    2.86999989
   20.75194359   84.93810272    4.90999985    2.86999989
   20.75527763   83.70770264    4.90999985    2.86999989
   20.75861168   94.67130280    4.90999985    2.86999989
   20.76166725   85.05750275    4.90999985    2.86999989
   20.76499939   82.20179749    4.90999985    2.86999989
   20.76833344   92.44490051    4.90999985    2.86999989
   20.77277756   92.44490051    4.90999985    2.86999989
   20.77694511   82.97779846    4.90999985    2.86999989
   20.78000069   83.82769775    4.90999985    2.86999989
   20.78333282   84.31719971    4.90999985    2.86999989
   20.78666687   85.21869659    4.90999985    2.86999989
   20.78972244   90.28810120    4.90999985    2.86999989
   20.79305458   85.16860199    4.90999985    2.86999989
   20.79638863   94.21330261    4.90999985    2.86999989
   20.79944420   87.04450226    4.90999985    2.86999989
   20.80277634   85.14630127    4.90999985    2.86999989
   20.80722237   85.14630127    4.90999985    2.86999989
   20.81138802   85.17649841    4.90999985    2.86999989
   20.81472206   83.02069855    4.90999985    2.86999989
   20.81777954   82.72290039    4.90999985    2.86999989
   20.82111168   88.12920380    4.90999985    2.86999989
   20.82444572   84.22949982    4.90999985    2.86999989
   20.82750130   86.70690155    4.90999985    2.86999989
   20.83083344   83.20339966    4.90999985    2.86999989
   20.83388901   84.08049774    4.90999985    2.86999989
   20.83722305   89.60079956    4.90999985    2.86999989
   20.84166718   89.60079956    4.90999985    2.86999989
   20.84583473   81.65019989    4.90999985    2.86999989
   20.84916687   83.48459625    4.90999985    2.86999989
   20.85222244   86.36509705    4.90999985    2.86999989
   20.85555649   91.38079834    4.90999985    2.86999989
   20.85888863   85.65760040    4.90999985    2.86999989
   20.86194420   86.49030304    4.90999985    2.86999989
   20.86527824   84.31150055    4.90999985    2.86999989
   20.86861038   82.98059845    4.90999985    2.86999989
   20.87166595   86.89559937    4.90999985    2.86999989
   20.89249992   86.89559937    4.90999985    2.86999989
   20.89638901   79.38480377    4.90999985    2.86999989
   20.89972115   84.76619720    4.90999985    2.86999989
   20.90305519   79.33809662    4.90999985    2.86999989
   20.90611076   81.84040070    4.90999985    2.86999989
   20.90944481   93.52739716    4.90999985    2.86999989
   20.91250038   93.53939819    4.90999985    2.86999989
   20.91583252   83.98239899    4.90999985    2.86999989
   20.91916656   83.98169708    4.90999985    2.86999989
   20.92222214   78.53130341    4.90999985    2.86999989
   20.92666626   78.53130341    4.90999985    2.86999989
   20.93083191   83.59110260    4.90999985    2.86999989
   20.93416595   81.48040009    4.90999985    2.86999989
   20.93722153   80.94860077    4.90999985    2.86999989
   20.94055557   83.82959747    4.90999985    2.86999989
   20.94388771   91.66950226    4.90999985    2.86999989
   20.94694328   81.95249939    4.90999985    2.86999989
   20.95027924   88.63849640    4.90999985    2.86999989
   20.95361137   86.82900238    4.90999985    2.86999989
   20.95666695   88.34439850    4.90999985    2.86999989
   20.96138954   88.34439850    4.90999985    2.86999989
   20.96527863   86.74009705    4.90999985    2.86999989
   20.96861076   82.90989685    4.90999985    2.86999989
   20.97194481   83.93959808    4.90999985    2.86999989
   20.97500038   82.53060150    4.90999985    2.86999989
   20.97833443   94.08239746    4.90999985    2.86999989
   20.98166656   80.90660095    4.90999985    2.86999989
   20.98472214   83.10569763    4.90999985    2.86999989
   20.98805618   83.56330109    4.90999985    2.86999989
   20.99111176   82.50450134    4.90999985    2.86999989
   20.99583435   82.50450134    4.90999985    2.86999989
   21.00000000   85.64630127    4.90999985    2.86999989
   21.00305557   81.37100220    4.90999985    2.86999989
   21.00638962   85.77179718    4.90999985    2.86999989
   21.00972176   79.65080261    4.90999985    2.86999989
   21.01277733   81.19580078    4.90999985    2.86999989
   21.01611137   80.71299744    4.90999985    2.86999989
   21.01916695   80.42109680    4.90999985    2.86999989
   21.02249908   82.51170349    4.90999985    2.86999989
   21.02583313   82.69920349    4.90999985    2.86999989
   21.03027725   82.69920349    4.90999985    2.86999989
   21.03444481   80.34359741    4.90999985    2.86999989
   21.03777695   80.78170013    4.90999985    2.86999989
   21.04083252   82.28510284    4.90999985    2.86999989
   21.04416656   82.95590210    4.90999985    2.86999989
   21.04722214   79.75099945    4.90999985    2.86999989
   21.05055428   78.57369995    4.90999985    2.86999989
   21.05388832   82.97810364    4.90999985    2.86999989
   21.05694389   80.45459747    4.90999985    2.86999989
   21.06027794   81.67259979    4.90999985    2.86999989
   21.06472206   81.67259979    4.90999985    2.86999989
   21.06888962   86.56510162    4.90999985    2.86999989
   21.07222366   87.24019623    4.90999985    2.86999989
   21.07527924   84.33699799    4.90999985    2.86999989
   21.07861137   80.73760223    4.90999985    2.86999989
   21.08194542   82.45929718    4.90999985    2.86999989
   21.08500099   80.53309631    4.90999985    2.86999989
   21.08833313   80.26959991    4.90999985    2.86999989
   21.09166718   79.35250092    4.90999985    2.86999989
   21.09472275   84.13259888    4.90999985    2.86999989
   21.09944534   84.13259888    4.90999985    2.86999989
   21.10333443   87.42870331    4.90999985    2.86999989
   21.10666656   82.85630035    4.90999985    2.86999989
   21.11000061   78.76809692    4.90999985    2.86999989
   21.11305618   85.99900055    4.90999985    2.86999989
   21.11638832   77.67030334    4.90999985    2.86999989
   21.11944389   81.08419800    4.90999985    2.86999989
   21.12277794   81.33699799    4.90999985    2.86999989
   21.12611198   82.09169769    4.90999985    2.86999989
   21.12916756   81.15599823    4.90999985    2.86999989
   21.13388824   81.15599823    4.90999985    2.86999989
   21.13805580   79.63950348    4.90999985    2.86999989
   21.14111137   78.00250244    4.90999985    2.86999989
   21.14444351   77.23200226    4.90999985    2.86999989
   21.14749908   76.90789795    4.90999985    2.86999989
   21.15083313   77.71579742    4.90999985    2.86999989
   21.15416718   84.37840271    4.90999985    2.86999989
   21.15722275   84.76699829    4.90999985    2.86999989
   21.16055489   80.41069794    4.90999985    2.86999989
   21.16388893   82.38469696    4.90999985    2.86999989
   21.16833305   82.38469696    4.90999985    2.86999989
   21.17249870   83.86949921    4.90999985    2.86999989
   21.17583275   79.50939941    4.90999985    2.86999989
   21.17888832   82.53220367    4.90999985    2.86999989
   21.18222237   83.44899750    4.90999985    2.86999989
   21.18555450   80.06349945    4.90999985    2.86999989
   21.18861008   80.69419861    4.90999985    2.86999989
   21.19194412   81.02989960    4.90999985    2.86999989
   21.19499969   80.97039795    4.90999985    2.86999989
   21.19833183   81.45899963    4.90999985    2.86999989
   21.20277786   81.45899963    4.90999985    2.86999989
   21.20694542   81.11509705    4.90999985    2.86999989
   21.21027946   82.12960052    4.90999985    2.86999989
   21.21333504   82.93810272    4.90999985    2.86999989
   21.21666718   80.97270203    4.90999985    2.86999989
   21.22000122   78.24269867    4.90999985    2.86999989
   21.22305679   81.41069794    4.90999985    2.86999989
   21.22638893   78.63379669    4.90999985    2.86999989
   21.22944450   81.88510132    4.90999985    2.86999989
   21.23277855   82.05770111    4.90999985    2.86999989
   21.23722267   82.05770111    4.90999985    2.86999989
   21.24138832   85.80919647    4.90999985    2.86999989
   21.24472237   82.15720367    4.90999985    2.86999989
   21.24805641   81.44779968    4.90999985    2.86999989
   21.25111198   79.36969757    4.90999985    2.86999989
   21.25444412   77.49819946    4.90999985    2.86999989
   21.25749969   78.30120087    4.90999985    2.86999989
   21.26083374   83.92980194    4.90999985    2.86999989
   21.26416588   82.48789978    4.90999985    2.86999989
   21.26722145   78.84770203    4.90999985    2.86999989
   21.27194405   78.84770203    4.90999985    2.86999989
   21.27583313   84.08170319    4.90999985    2.86999989
   21.27916718   81.54840088    4.90999985    2.86999989
   21.28249931   84.07420349    4.90999985    2.86999989
   21.28555489   83.31109619    4.90999985    2.86999989
   21.28888893   89.44229889    4.90999985    2.86999989
   21.29222107   86.26850128    4.90999985    2.86999989
   21.29527664   90.91179657    4.90999985    2.86999989
   21.29861069   88.23930359    4.90999985    2.86999989
   21.30166626   80.79139709    4.90999985    2.86999989
   21.30638885   80.79139709    4.90999985    2.86999989
   21.31055450   81.70790100    4.90999985    2.86999989
   21.31361008   84.72329712    4.90999985    2.86999989
   21.31694603   84.48470306    4.90999985    2.86999989
   21.32027817   83.72260284    4.90999985    2.86999989
   21.32333374   81.36399841    4.90999985    2.86999989
   21.32666779   82.29409790    4.90999985    2.86999989
   21.32972336   84.94689941    4.90999985    2.86999989
   21.33305550   88.87460327    4.90999985    2.86999989
   21.33638954   81.84249878    4.90999985    2.86999989
   21.34083366   81.84249878    4.90999985    2.86999989
   21.34500122   83.29779816    4.90999985    2.86999989
   21.34833336   82.27179718    4.90999985    2.86999989
   21.35138893   85.40619659    4.90999985    2.86999989
   21.35472298   81.38809967    4.90999985    2.86999989
   21.35777855   86.72180176    4.90999985    2.86999989
   21.36111069   82.69709778    4.90999985    2.86999989
   21.36444473   88.35399628    4.90999985    2.86999989
   21.36750031   84.70760345    4.90999985    2.86999989
   21.37083435   91.51689911    4.90999985    2.86999989
   21.37527847   91.51689911    4.90999985    2.86999989
   21.37944412   87.56559753    4.90999985    2.86999989
   21.38277817   88.92289734    4.90999985    2.86999989
   21.38583374   82.50279999    4.90999985    2.86999989
   21.38916588   77.12570190    4.90999985    2.86999989
   21.39249992   81.71130371    4.90999985    2.86999989
   21.39555550   80.00000000    4.90999985    2.86999989
   21.39888954   87.89530182    4.90999985    2.86999989
   21.40222168   86.36340332    4.90999985    2.86999989
   21.40527725   83.72589874    4.90999985    2.86999989
   21.40999985   83.72589874    4.90999985    2.86999989
   21.41388893   81.82189941    4.90999985    2.86999989
   21.41722107   84.34929657    4.90999985    2.86999989
   21.42055511   86.33879852    4.90999985    2.86999989
   21.42361069   82.99230194    4.90999985    2.86999989
   21.42694473   82.21910095    4.90999985    2.86999989
   21.43027687   83.99690247    4.90999985    2.86999989
   21.43333244   79.67120361    4.90999985    2.86999989
   21.43666649   83.73410034    4.90999985    2.86999989
   21.43999863   85.65850067    4.90999985    2.86999989
   21.44444275   85.65850067    4.90999985    2.86999989
   21.44861031   88.75759888    4.90999985    2.86999989
   21.45166779  112.01799774    4.90999985    2.86999989
   21.45499992  104.24600220    4.90999985    2.86999989
   21.45805550  102.38600159    4.90999985    2.86999989
   21.46138954  121.85500336    4.90999985    2.86999989
   21.46472359  187.48500061    4.90999985    2.86999989
   21.46777916   -1.00000000    4.90999985    2.86999989
   21.47111130   -1.00000000    4.90999985    2.86999989
   21.47444534   -1.00000000    4.90999985    2.86999989
   21.48305511   -1.00000000    4.90999985    2.86999989
   21.48611069   -1.00000000    4.90999985    2.86999989
   21.48944473   -1.00000000    4.90999985    2.86999989
   21.49250031   -1.00000000    4.90999985    2.86999989
   21.49583435   -1.00000000    4.90999985    2.86999989
   21.49916649   -1.00000000    4.90999985    2.86999989
   21.50222206   -1.00000000    4.90999985    2.86999989
   21.50555611   -1.00000000    4.90999985    2.86999989
   21.50888824   -1.00000000    4.90999985    2.86999989
   21.51749992   -1.00000000    4.90999985    2.86999989
   21.52055550   -1.00000000    4.90999985    2.86999989
   21.52388954   -1.00000000    4.90999985    2.86999989
   21.52722168   -1.00000000    4.90999985    2.86999989
   21.53027725   -1.00000000    4.90999985    2.86999989
   21.53361130   -1.00000000    4.90999985    2.86999989
   21.53694344   -1.00000000    4.90999985    2.86999989
   21.53999901   -1.00000000    4.90999985    2.86999989
   21.54333305   -1.00000000    4.90999985    2.86999989
   21.55194283   -1.00000000    4.90999985    2.86999989
   21.55527687   -1.00000000    4.90999985    2.86999989
   21.55833244   -1.00000000    4.90999985    2.86999989
   21.56166649   -1.00000000    4.90999985    2.86999989
   21.56472206   -1.00000000    4.90999985    2.86999989
   21.56805611   -1.00000000    4.90999985    2.86999989
   21.57139015   -1.00000000    4.90999985    2.86999989
   21.57444572   -1.00000000    4.90999985    2.86999989
   21.57777786   -1.00000000    4.90999985    2.86999989
   21.58638954   -1.00000000    4.90999985    2.86999989
   21.58972359   -1.00000000    4.90999985    2.86999989
   21.59277916   -1.00000000    4.90999985    2.86999989
   21.59611130   -1.00000000    4.90999985    2.86999989
   21.59944534   -1.00000000    4.90999985    2.86999989
   21.60250092   -1.00000000    4.90999985    2.86999989
   21.60583305   -1.00000000    4.90999985    2.86999989
   21.60916710   -1.00000000    4.90999985    2.86999989
   21.61222267   -1.00000000    4.90999985    2.86999989
   21.62083435   -1.00000000    4.90999985    2.86999989
   21.62416649   -1.00000000    4.90999985    2.86999989
   21.62750053   -1.00000000    4.90999985    2.86999989
   21.63055611   -1.00000000    4.90999985    2.86999989
   21.63388824   -1.00000000    4.90999985    2.86999989
   21.63722229   -1.00000000    4.90999985    2.86999989
   21.64027786   -1.00000000    4.90999985    2.86999989
   21.64361191   -1.00000000    4.90999985    2.86999989
   21.64666748   -1.00000000    4.90999985    2.86999989
   21.65555573   -1.00000000    4.90999985    2.86999989
   21.65861130   -1.00000000    4.90999985    2.86999989
   21.66194344   -1.00000000    4.90999985    2.86999989
   21.66527748   -1.00000000    4.90999985    2.86999989
   21.66833305   -1.00000000    4.90999985    2.86999989
   21.67166519   -1.00000000    4.90999985    2.86999989
   21.67472076   -1.00000000    4.90999985    2.86999989
   21.67805481   -1.00000000    4.90999985    2.86999989
   21.68138885   -1.00000000    4.90999985    2.86999989
   21.68999863   -1.00000000    4.90999985    2.86999989
   21.69333267   -1.00000000    4.90999985    2.86999989
   21.69638824   -1.00000000    4.90999985    2.86999989
   21.69972038   -1.00000000    4.90999985    2.86999989
   21.70277786   -1.00000000    4.90999985    2.86999989
   21.70611191   -1.00000000    4.90999985    2.86999989
   21.70944595   -1.00000000    4.90999985    2.86999989
   21.71250153   -1.00000000    4.90999985    2.86999989
   21.71583366   -1.00000000    4.90999985    2.86999989
   21.72444534   -1.00000000    4.90999985    2.86999989
   21.72777748   -1.00000000    4.90999985    2.86999989
   21.73083305   -1.00000000    4.90999985    2.86999989
   21.73416710   -1.00000000    4.90999985    2.86999989
   21.73750114   -1.00000000    4.90999985    2.86999989
   21.74055672   -1.00000000    4.90999985    2.86999989
   21.74388885   -1.00000000    4.90999985    2.86999989
   21.74722290   -1.00000000    4.90999985    2.86999989
   21.75027847   -1.00000000    4.90999985    2.86999989
