    HOUR (UT)   FLARE FACTOR    SKY TESTER    SUN TESTER
   12.24472237   -1.00000000   -1.00000000   -1.00000000
   12.26805496  136.75999451    0.00000000    0.00000000
   12.27138901  141.98199463    0.00000000    0.00000000
   12.27472210  154.54800415    0.00000000    0.00000000
   12.27777767  153.30799866    0.00000000    0.00000000
   12.28111076  155.25700378    0.00000000    0.00000000
   12.28416729  151.48300171    0.00000000    0.00000000
   12.28833389  151.48300171    0.00000000    0.00000000
   12.29250050  166.33299255    0.00000000    0.00000000
   12.29583359  172.08399963    0.00000000    0.00000000
   12.29888916  165.18400574    0.00000000    0.00000000
   12.30111122  171.50399780    0.00000000    0.00000000
   12.30277824  173.40600586    0.00000000    0.00000000
   12.30611134  174.35899353    0.00000000    0.00000000
   12.30916691  183.11000061    0.00000000    0.00000000
   12.31250000  173.88099670    0.00000000    0.00000000
   12.31555557  188.96899414    0.00000000    0.00000000
   12.31888866  196.90199280    0.00000000    0.00000000
   12.32222176  184.91200256    0.89999998    1.91999996
   12.32527733  197.49600220    0.89999998    1.91999996
   12.33138847  197.49600220    0.89999998    1.91999996
   12.33527756  204.40199280    0.89999998    1.91999996
   12.33861065  191.17999268    0.89999998    1.91999996
   12.34194374  192.68699646    0.89999998    1.91999996
   12.34499931  193.00799561    0.89999998    1.91999996
   12.34833336  190.71899414    0.89999998    1.91999996
   12.35166740  194.40899658    0.89999998    1.91999996
   12.35500050  202.43099976    0.89999998    1.91999996
   12.35805607  195.96899414    0.89999998    1.91999996
   12.36138916  201.15100098    0.89999998    1.91999996
   12.36444473  196.71499634    0.89999998    1.91999996
   12.36777782  196.62899780    0.89999998    1.91999996
   12.36833382  220.51499939    0.89999998    1.91999996
   12.37416649  220.51499939    0.89999998    1.91999996
   12.37833309  212.94799805    0.89999998    1.91999996
   12.38138866  207.69900513    0.89999998    1.91999996
   12.38472176  203.74800110    0.89999998    1.91999996
   12.38805580  218.58900452    0.89999998    1.91999996
   12.39111137  203.28500366    0.89999998    1.91999996
   12.39444447  215.39700317    0.89999998    1.91999996
   12.39777756  195.55999756    0.89999998    1.91999996
   12.40083313  199.69500732    0.89999998    1.91999996
   12.40138817  203.83299255    0.89999998    1.91999996
   12.40472221  203.44999695    0.89999998    1.91999996
   12.40777779  198.97799683    0.89999998    1.91999996
   12.41111088  205.71000671    0.89999998    1.91999996
   12.41694450  205.71000671    0.89999998    1.91999996
   12.42111111  199.98800659    0.89999998    1.91999996
   12.42444515  223.45500183    0.89999998    1.91999996
   12.42750072  204.44000244    0.89999998    1.91999996
   12.43083382  211.87800598    0.89999998    1.91999996
   12.43388939  213.48599243    0.89999998    1.91999996
   12.43472195  213.72399902    0.89999998    1.91999996
   12.43777752  186.97300720    0.89999998    1.91999996
   12.44083309  211.27699280    0.89999998    1.91999996
   12.44444466  200.55299377    0.89999998    1.91999996
   12.44750023  197.85699463    0.89999998    1.91999996
   12.45083332  186.01199341    0.89999998    1.91999996
   12.45416641  193.81500244    0.89999998    1.91999996
   12.45972157  193.81500244    0.89999998    1.91999996
   12.46388912  191.10600281    0.89999998    1.91999996
   12.46722221  193.26499939    0.89999998    1.91999996
   12.46805477  209.91099548    0.89999998    1.91999996
   12.47083282  195.15600586    0.89999998    1.91999996
   12.47388840  203.10000610    0.89999998    1.91999996
   12.47722149  212.18200684    0.89999998    1.91999996
   12.48055553  220.31900024    0.89999998    1.91999996
   12.48361111  205.13000488    0.89999998    1.91999996
   12.48694515  203.46099854    0.89999998    1.91999996
   12.49027824  222.38600159    0.89999998    1.91999996
   12.49333382  229.12699890    0.89999998    1.91999996
   12.49666691  245.95799255    0.89999998    1.91999996
   12.50277805  245.95799255    0.89999998    1.91999996
   12.50666714  196.16099548    0.89999998    1.91999996
   12.51000023  209.79100037    0.89999998    1.91999996
   12.51333332  188.60800171    0.89999998    1.91999996
   12.51638889  176.52400208    0.89999998    1.91999996
   12.51972198  188.75999451    0.89999998    1.91999996
   12.52305508  208.12100220    0.89999998    1.91999996
   12.52611065  185.40899658    0.89999998    1.91999996
   12.52944374  196.32600403    0.89999998    1.91999996
   12.53277779  196.23199463    0.89999998    1.91999996
   12.53472233  179.62699890    0.89999998    1.91999996
   12.53638935  190.28700256    0.89999998    1.91999996
   12.53972244  180.08299255    0.89999998    1.91999996
   12.54555607  180.08299255    0.89999998    1.91999996
   12.54972267  178.27999878    0.89999998    1.91999996
   12.55277824  185.34700012    0.89999998    1.91999996
   12.55611134  180.16900635    0.89999998    1.91999996
   12.55944443  179.89999390    0.89999998    1.91999996
   12.56250000  197.66499329    0.89999998    1.91999996
   12.56583309  204.53700256    0.89999998    1.91999996
   12.56805515  173.46699524    0.89999998    1.91999996
   12.56944466  189.92199707    0.89999998    1.91999996
   12.57250023  179.97300720    0.89999998    1.91999996
   12.57583332  175.43299866    0.89999998    1.91999996
   12.57916641  169.94900513    0.89999998    1.91999996
   12.58222198  185.72799683    0.89999998    1.91999996
   12.58833313  185.72799683    0.89999998    1.91999996
   12.59249973  186.98800659    0.89999998    1.91999996
   12.59583282  188.38699341    0.89999998    1.91999996
   12.59888840  174.47599792    0.89999998    1.91999996
   12.60138893  179.41600037    0.89999998    1.91999996
   12.60277843  184.55499268    0.89999998    1.91999996
   12.60583401  176.15699768    0.89999998    1.91999996
   12.60916710  186.08799744    0.89999998    1.91999996
   12.61250019  180.40899658    0.89999998    1.91999996
   12.61555576  177.50500488    0.89999998    1.91999996
   12.61888885  184.23100281    0.89999998    1.91999996
   12.62194443  167.44099426    0.89999998    1.91999996
   12.62527752  163.49899292    0.89999998    1.91999996
   12.63111115  163.49899292    0.89999998    1.91999996
   12.63527775  166.44799805    0.89999998    1.91999996
   12.63861084  171.30900574    0.89999998    1.91999996
   12.64166641  168.02499390    0.89999998    1.91999996
   12.64499950  160.48599243    0.89999998    1.91999996
   12.64833355  151.49499512    0.89999998    1.91999996
   12.65138817  149.76199341    0.89999998    1.91999996
   12.65472221  151.99299622    0.89999998    1.91999996
   12.65805531  149.78500366    0.89999998    1.91999996
   12.66111088  160.86599731    0.89999998    1.91999996
   12.66444397  156.89100647    0.89999998    1.91999996
   12.66777802  152.20899963    0.89999998    1.91999996
   12.66833401  158.70500183    0.89999998    1.91999996
   12.67416668  158.70500183    0.89999998    1.91999996
   12.67805576  157.24299622    0.89999998    1.91999996
   12.68138885  157.42500305    0.89999998    1.91999996
   12.68472195  161.57499695    0.89999998    1.91999996
   12.68777752  165.33000183    0.89999998    1.91999996
   12.69111156  167.48100281    0.89999998    1.91999996
   12.69444466  167.70300293    0.89999998    1.91999996
   12.69750023  165.19299316    0.89999998    1.91999996
   12.70083332  155.35499573    0.89999998    1.91999996
   12.70166683  162.86700439    0.89999998    1.91999996
   12.70444393  156.00500488    0.89999998    1.91999996
   12.70777798  144.97999573    0.89999998    1.91999996
   12.71083355  161.74200439    0.89999998    1.91999996
   12.71694374  161.74200439    0.89999998    1.91999996
   12.72111034  159.49899292    0.89999998    1.91999996
   12.72416592  151.82200623    0.89999998    1.91999996
   12.72749996  156.56500244    0.89999998    1.91999996
   12.73083305  155.13299561    0.89999998    1.91999996
   12.73388958  154.17900085    0.89999998    1.91999996
   12.73500061  148.32200623    0.89999998    1.91999996
   12.73750019  165.69400024    0.89999998    1.91999996
   12.74083328  149.72900391    0.89999998    1.91999996
   12.74416733  155.27000427    0.89999998    1.91999996
   12.74722290  166.10899353    0.89999998    1.91999996
   12.75055599  155.73399353    0.89999998    1.91999996
   12.75361156  143.12699890    0.89999998    1.91999996
   12.75972176  143.12699890    0.89999998    1.91999996
   12.76388931  152.19599915    0.89999998    1.91999996
   12.76722240  153.20799255    0.89999998    1.91999996
   12.76833344  169.47599792    0.89999998    1.91999996
   12.77055550  161.99099731    0.89999998    1.91999996
   12.77388859  161.56500244    0.89999998    1.91999996
   12.77694416  159.27799988    0.89999998    1.91999996
   12.78027725  157.70199585    0.89999998    1.91999996
   12.78361130  163.54699707    0.89999998    1.91999996
   12.78666687  152.78799438    0.89999998    1.91999996
   12.79000092  156.07099915    0.89999998    1.91999996
   12.79333401  170.37199402    0.89999998    1.91999996
   12.79638958  161.30999756    0.89999998    1.91999996
   12.80249977  161.30999756    0.89999998    1.91999996
   12.80666733  166.41600037    0.89999998    1.91999996
   12.81000042  165.69000244    0.89999998    1.91999996
   12.81333351  159.67300415    0.89999998    1.91999996
   12.81638908  174.24800110    0.89999998    1.91999996
   12.81972218  162.51899719    0.89999998    1.91999996
   12.82277775  156.26300049    0.89999998    1.91999996
   12.82611084  170.59100342    0.89999998    1.91999996
   12.82944393  157.02799988    0.89999998    1.91999996
   12.83249950  165.36999512    0.89999998    1.91999996
   12.83500004  156.02499390    0.89999998    1.91999996
   12.83611107  158.92900085    0.89999998    1.91999996
   12.83944416  172.24000549    0.89999998    1.91999996
   12.84555531  172.24000549    0.89999998    1.91999996
   12.84972191  178.74499512    0.89999998    1.91999996
   12.85277843  172.22200012    0.89999998    1.91999996
   12.85611153  170.85400391    0.89999998    1.91999996
   12.85916710  175.04200745    0.89999998    1.91999996
   12.86250019  170.99099731    0.89999998    1.91999996
   12.86583328  160.42399597    0.89999998    1.91999996
   12.86833382  176.63099670    0.89999998    1.91999996
   12.86944485  179.67100525    0.89999998    1.91999996
   12.87277794  178.29499817    0.89999998    1.91999996
   12.87583351  173.27999878    0.89999998    1.91999996
   12.87916660  168.45100403    0.89999998    1.91999996
   12.88249969  166.94200134    0.89999998    1.91999996
   12.88833332  166.94200134    0.89999998    1.91999996
   12.89249992  158.69700623    0.89999998    1.91999996
   12.89583302  168.64199829    0.89999998    1.91999996
   12.89916611  174.37199402    0.89999998    1.91999996
   12.90166664  168.00799561    0.89999998    1.91999996
   12.90249920  163.27000427    0.89999998    1.91999996
   12.90583324  158.42700195    0.89999998    1.91999996
   12.90916634  160.26100159    0.89999998    1.91999996
   12.91222191  163.18200684    0.89999998    1.91999996
   12.91555500  173.07400513    0.89999998    1.91999996
   12.91861153  166.62300110    0.89999998    1.91999996
   12.92194462  159.76400757    0.89999998    1.91999996
   12.92527771  169.97000122    0.89999998    1.91999996
   12.93111134  169.97000122    0.89999998    1.91999996
   12.93527794  156.66299438    0.89999998    1.91999996
   12.93861103  159.75900269    0.89999998    1.91999996
   12.94166660  163.52799988    0.89999998    1.91999996
   12.94499969  154.19099426    0.89999998    1.91999996
   12.94805527  150.07400513    0.89999998    1.91999996
   12.95138836  155.05900574    0.89999998    1.91999996
   12.95472240  152.20300293    0.89999998    1.91999996
   12.95777798  158.18699646    0.89999998    1.91999996
   12.96111107  161.13999939    0.89999998    1.91999996
   12.96444416  152.99800110    0.89999998    1.91999996
   12.96749973  155.31700134    0.89999998    1.91999996
   12.96833324  151.91700745    0.89999998    1.91999996
   12.97388840  151.91700745    0.89999998    1.91999996
   12.97805500  150.56599426    0.89999998    1.91999996
   12.98138809  153.29299927    0.89999998    1.91999996
   12.98444462  101.19599915    0.89999998    1.91999996
   12.98777771  154.58200073    0.89999998    1.91999996
   12.99111176  160.05999756    0.89999998    1.91999996
   12.99444485  156.39399719    0.89999998    1.91999996
   12.99777794  152.28300476    0.89999998    1.91999996
   13.00083351  163.58599854    0.89999998    1.91999996
   13.00166702  155.72099304    0.89999998    1.91999996
   13.00444412  154.46800232    0.89999998    1.91999996
   13.00777817  151.55999756    0.89999998    1.91999996
   13.01111126  151.38299561    0.89999998    1.91999996
   13.01694393  151.38299561    0.89999998    1.91999996
   13.02111053  154.58200073    0.89999998    1.91999996
   13.02416611  160.73300171    0.89999998    1.91999996
   13.02750015  156.86599731    0.89999998    1.91999996
   13.03055573  161.80700684    0.89999998    1.91999996
   13.03388977  156.06100464    0.89999998    1.91999996
   13.03500080  154.62600708    0.89999998    1.91999996
   13.03750038  165.50300598    0.89999998    1.91999996
   13.04083347  170.94200134    0.89999998    1.91999996
   13.04416752  152.95399475    0.89999998    1.91999996
   13.04722309  158.99299622    0.89999998    1.91999996
   13.05055618  173.64199829    0.89999998    1.91999996
   13.05388927  173.16999817    0.89999998    1.91999996
   13.05972195  173.16999817    0.89999998    1.91999996
   13.06388950  166.23899841    0.89999998    1.91999996
   13.06694412  161.80400085    0.89999998    1.91999996
   13.06833363  160.14900208    0.89999998    1.91999996
   13.07055569  160.11700439    0.89999998    1.91999996
   13.07388878  163.46499634    0.89999998    1.91999996
   13.07722187  157.80499268    0.89999998    1.91999996
   13.08027744  168.19900513    0.89999998    1.91999996
   13.08361053  168.49200439    0.89999998    1.91999996
   13.08694458  168.85800171    0.89999998    1.91999996
   13.09000015  174.73599243    0.89999998    1.91999996
   13.09333324  184.08399963    0.89999998    1.91999996
   13.09638882  165.70899963    0.89999998    1.91999996
   13.10249996  165.70899963    0.89999998    1.91999996
   13.10666752  172.77299500    0.89999998    1.91999996
   13.11000061  162.65699768    0.89999998    1.91999996
   13.11305618  166.46299744    0.89999998    1.91999996
   13.11638927  165.01199341    0.89999998    1.91999996
   13.11972237  166.32200623    0.89999998    1.91999996
   13.12277794  165.01800537    0.89999998    1.91999996
   13.12611103  168.20500183    0.89999998    1.91999996
   13.12944412  167.65100098    0.89999998    1.91999996
   13.13249969  171.36099243    0.89999998    1.91999996
   13.13500023  171.51699829    0.89999998    1.91999996
   13.13611126  170.38600159    0.89999998    1.91999996
   13.13944435  166.45700073    0.89999998    1.91999996
   13.14527798  166.45700073    0.89999998    1.91999996
   13.14944458  165.73699951    0.89999998    1.91999996
   13.15277767  161.53799438    0.89999998    1.91999996
   13.15583324  166.46600342    0.89999998    1.91999996
   13.15916634  176.97799683    0.89999998    1.91999996
   13.16249943  175.48899841    0.89999998    1.91999996
   13.16555500  166.59899902    0.89999998    1.91999996
   13.16833401  171.97799683    0.89999998    1.91999996
   13.16916656  172.79200745    0.89999998    1.91999996
   13.17250061  174.49099731    0.89999998    1.91999996
   13.17583370  169.01899719    0.89999998    1.91999996
   13.17888927  170.68499756    0.89999998    1.91999996
   13.18222237  170.84199524    0.89999998    1.91999996
   13.18833351  170.84199524    0.89999998    1.91999996
   13.19222260  171.72799683    0.89999998    1.91999996
   13.19555569  163.36599731    0.89999998    1.91999996
   13.19888878  170.83700562    0.89999998    1.91999996
   13.20166683  168.94999695    0.89999998    1.91999996
   13.20222187  177.07800293    0.89999998    1.91999996
   13.20555496  171.54499817    0.89999998    1.91999996
   13.20888901  170.71699524    0.89999998    1.91999996
   13.21194458  161.30900574    0.89999998    1.91999996
   13.21527767  174.60000610    0.89999998    1.91999996
   13.21861076  164.36799622    0.89999998    1.91999996
   13.22166634  177.03599548    0.89999998    1.91999996
   13.22499943  165.44500732    0.89999998    1.91999996
   13.23111057  165.44500732    0.89999998    1.91999996
   13.23527813  167.56599426    0.89999998    1.91999996
   13.23833370  174.54600525    0.89999998    1.91999996
   13.24166679  163.21800232    0.89999998    1.91999996
   13.24499989  158.70899963    0.89999998    1.91999996
   13.24805546  167.73199463    0.89999998    1.91999996
   13.25138855  160.21800232    0.89999998    1.91999996
   13.25444412  161.12600708    0.89999998    1.91999996
   13.25777817  154.55999756    0.89999998    1.91999996
   13.26111126  164.14999390    0.89999998    1.91999996
   13.26416683  162.41700745    0.89999998    1.91999996
   13.26749992  168.72500610    0.89999998    1.91999996
   13.26833344  155.18200684    0.89999998    1.91999996
   13.28888893  155.18200684    0.89999998    1.91999996
   13.29305553  158.50700378    0.89999998    1.91999996
   13.29638958  161.80099487    0.89999998    1.91999996
   13.29944515  155.46899414    0.89999998    1.91999996
   13.30166721  163.42500305    0.89999998    1.91999996
   13.30305576  164.19500732    0.89999998    1.91999996
   13.30638885  161.93600464    0.89999998    1.91999996
   13.30972195  156.54699707    0.89999998    1.91999996
   13.31277752  156.04400635    0.89999998    1.91999996
   13.31611156  165.49400330    0.89999998    1.91999996
   13.31944466  160.26800537    0.89999998    1.91999996
   13.32250023  163.98500061    0.89999998    1.91999996
   13.32583332  162.46699524    0.89999998    1.91999996
   13.33166695  162.46699524    0.89999998    1.91999996
   13.33583260  157.92599487    0.89999998    1.91999996
   13.33916664  158.16400146    0.89999998    1.91999996
   13.34222221  163.08099365    0.89999998    1.91999996
   13.34555531  156.72000122    0.89999998    1.91999996
   13.34888840  150.85299683    0.89999998    1.91999996
   13.35194492  161.49000549    0.89999998    1.91999996
   13.35527802  159.34100342    0.89999998    1.91999996
   13.35861111  166.05000305    0.89999998    1.91999996
   13.36166668  167.17399597    0.89999998    1.91999996
   13.36500072  166.86799622    0.89999998    1.91999996
   13.36805534  162.75199890    0.89999998    1.91999996
   13.36861134  166.45300293    0.89999998    1.91999996
   13.37444496  166.45300293    0.89999998    1.91999996
   13.37861156  157.18200684    0.89999998    1.91999996
   13.38194466  157.46600342    0.89999998    1.91999996
   13.38527775  160.35499573    0.89999998    1.91999996
   13.38833332  160.89700317    0.89999998    1.91999996
   13.39166641  156.13499451    0.89999998    1.91999996
   13.39472198  165.26300049    0.89999998    1.91999996
   13.39805508  157.74099731    0.89999998    1.91999996
   13.40138817  152.94400024    0.89999998    1.91999996
   13.40194416  164.43800354    0.89999998    1.91999996
   13.40499973  162.73500061    0.89999998    1.91999996
   13.40833282  167.24499512    0.89999998    1.91999996
   13.41138840  154.41499329    0.89999998    1.91999996
   13.41750050  154.41499329    0.89999998    1.91999996
   13.42166710  155.93499756    0.89999998    1.91999996
   13.42472267  152.49000549    0.89999998    1.91999996
   13.42805576  154.26199341    0.89999998    1.91999996
   13.43111134  154.76100159    0.89999998    1.91999996
   13.43444443  157.90100098    0.89999998    1.91999996
   13.43527794  154.36199951    0.89999998    1.91999996
   13.43805599  155.72399902    0.89999998    1.91999996
   13.44138908  154.61700439    0.89999998    1.91999996
   13.44444466  148.07899475    0.89999998    1.91999996
   13.44777775  169.96200562    0.89999998    1.91999996
   13.45111084  156.48199463    0.89999998    1.91999996
   13.45444393  165.03300476    0.89999998    1.91999996
   13.46027756  165.03300476    0.89999998    1.91999996
   13.46444416  156.77799988    0.89999998    1.91999996
   13.46749973  157.32099915    0.89999998    1.91999996
   13.46861076  148.94599915    0.89999998    1.91999996
   13.47111034  149.13000488    0.89999998    1.91999996
   13.47444439  154.67100525    0.89999998    1.91999996
   13.47749996  155.33799744    0.89999998    1.91999996
   13.48083305  155.46800232    0.89999998    1.91999996
   13.48416710  154.13900757    0.89999998    1.91999996
   13.48722267  155.23599243    0.89999998    1.91999996
   13.49055576  152.92199707    0.89999998    1.91999996
   13.49361134  156.54699707    0.89999998    1.91999996
   13.49694443  160.14399719    0.89999998    1.91999996
   13.50305557  160.14399719    0.89999998    1.91999996
   13.50722218  154.95300293    0.89999998    1.91999996
   13.51055527  153.59199524    0.89999998    1.91999996
   13.51361084  155.73699951    0.89999998    1.91999996
   13.51694393  156.16400146    0.89999998    1.91999996
   13.52027798  163.02000427    0.89999998    1.91999996
   13.52333355  153.13000488    0.89999998    1.91999996
   13.52666664  146.36599731    0.89999998    1.91999996
   13.52999973  152.37500000    0.89999998    1.91999996
   13.53305531  149.32899475    0.89999998    1.91999996
   13.53527832  149.38800049    0.89999998    1.91999996
   13.53666687  154.63699341    0.89999998    1.91999996
   13.54000092  157.26899719    0.89999998    1.91999996
   13.54583359  157.26899719    0.89999998    1.91999996
   13.55000019  140.39599609    0.89999998    1.91999996
   13.55333328  150.49000549    0.89999998    1.91999996
   13.55666733  150.57699585    0.89999998    1.91999996
   13.55972195  147.28100586    0.89999998    1.91999996
   13.56305599  140.80999756    0.89999998    1.91999996
   13.56611156  147.92700195    0.89999998    1.91999996
   13.56861115  148.55799866    0.89999998    1.91999996
   13.56972218  151.89100647    0.89999998    1.91999996
   13.57305527  147.04800415    0.89999998    1.91999996
   13.57611084  146.68600464    0.89999998    1.91999996
   13.57944393  147.29400635    0.89999998    1.91999996
   13.58277798  145.18200684    0.89999998    1.91999996
   13.58888817  145.18200684    0.89999998    1.91999996
   13.59305477  149.21200562    0.89999998    1.91999996
   13.59611034  143.75000000    0.89999998    1.91999996
   13.59944439  154.30499268    0.89999998    1.91999996
   13.60194492  148.65600586    0.89999998    1.91999996
   13.60305595  154.99400330    0.89999998    1.91999996
   13.60638905  157.95700073    0.89999998    1.91999996
   13.60944462  153.74499512    0.89999998    1.91999996
   13.61277771  151.49899292    0.89999998    1.91999996
   13.61611176  152.66400146    0.89999998    1.91999996
   13.61916637  153.30900574    0.89999998    1.91999996
   13.62250042  144.65299988    0.89999998    1.91999996
   13.62583351  148.83200073    0.89999998    1.91999996
   13.63166714  148.83200073    0.89999998    1.91999996
   13.63583279  154.26300049    0.89999998    1.91999996
   13.63916683  151.58299255    0.89999998    1.91999996
   13.64222240  149.06799316    0.89999998    1.91999996
   13.64555550  143.01600647    0.89999998    1.91999996
   13.64861107  150.69799805    0.89999998    1.91999996
   13.65194416  149.56100464    0.89999998    1.91999996
   13.65527725  145.17199707    0.89999998    1.91999996
   13.65833282  151.10099792    0.89999998    1.91999996
   13.66166592  153.08399963    0.89999998    1.91999996
   13.66499996  147.93499756    0.89999998    1.91999996
   13.66805553  150.58200073    0.89999998    1.91999996
   13.66861153  148.80799866    0.89999998    1.91999996
   13.67444515  148.80799866    0.89999998    1.91999996
   13.67861176  148.19900513    0.89999998    1.91999996
   13.68194485  144.94200134    0.89999998    1.91999996
   13.68500042  141.50199890    0.89999998    1.91999996
   13.68833351  150.34899902    0.89999998    1.91999996
   13.69166660  149.02099609    0.89999998    1.91999996
   13.69472218  142.60499573    0.89999998    1.91999996
   13.69805527  132.04499817    0.89999998    1.91999996
   13.70138836  136.05099487    0.89999998    1.91999996
   13.70222187  138.09800720    0.89999998    1.91999996
   13.70472240  143.91400146    0.89999998    1.91999996
   13.70805550  149.00599670    0.89999998    1.91999996
   13.71138859  143.46000671    0.89999998    1.91999996
   13.71722221  143.46000671    0.89999998    1.91999996
   13.72138882  150.92999268    0.89999998    1.91999996
   13.72472191  144.34800720    0.89999998    1.91999996
   13.72805500  146.15100098    0.89999998    1.91999996
   13.73111057  143.85299683    0.89999998    1.91999996
   13.73444462  147.96800232    0.89999998    1.91999996
   13.73555565  144.96600342    0.89999998    1.91999996
   13.73805618  150.57499695    0.89999998    1.91999996
   13.74138927  144.08900452    0.89999998    1.91999996
   13.74444485  150.01499939    0.89999998    1.91999996
   13.74777794  142.95300293    0.89999998    1.91999996
   13.75111103  141.50500488    0.89999998    1.91999996
   13.75416660  142.65800476    0.89999998    1.91999996
   13.76027775  142.65800476    0.89999998    1.91999996
   13.76444435  143.64300537    0.89999998    1.91999996
   13.76749992  144.79600525    0.89999998    1.91999996
   13.76861095  148.85099792    0.89999998    1.91999996
   13.77111053  140.71600342    0.89999998    1.91999996
   13.77444458  145.79499817    0.89999998    1.91999996
   13.77750015  138.53700256    0.89999998    1.91999996
   13.78083324  144.67199707    0.89999998    1.91999996
   13.78416729  147.69999695    0.89999998    1.91999996
   13.78722286  148.11500549    0.89999998    1.91999996
   13.79055595  147.26800537    0.89999998    1.91999996
   13.79388905  150.40899658    0.89999998    1.91999996
   13.79694462  136.82000732    0.89999998    1.91999996
   13.80305576  136.82000732    0.89999998    1.91999996
   13.80722237  151.50599670    0.89999998    1.91999996
   13.81027794  149.66999817    0.89999998    1.91999996
   13.81361103  148.83799744    0.89999998    1.91999996
   13.81694412  148.47099304    0.89999998    1.91999996
   13.81999969  145.60600281    0.89999998    1.91999996
   13.82333374  147.26199341    0.89999998    1.91999996
   13.82666683  139.57899475    0.89999998    1.91999996
   13.82972240  139.35400391    0.89999998    1.91999996
   13.83305550  147.72500610    0.89999998    1.91999996
   13.83555508  144.78199768    0.89999998    1.91999996
   13.83666611  144.60099792    0.89999998    1.91999996
   13.84000015  139.42700195    0.89999998    1.91999996
   13.84583282  139.42700195    0.89999998    1.91999996
   13.85000038  139.14300537    0.89999998    1.91999996
   13.85333347  149.17199707    0.89999998    1.91999996
   13.85638905  147.66600037    0.89999998    1.91999996
   13.85972214  136.97700500    0.89999998    1.91999996
   13.86305618  148.47000122    0.89999998    1.91999996
   13.86611176  146.87399292    0.89999998    1.91999996
   13.86888885  143.08399963    0.89999998    1.91999996
   13.86972237  146.63999939    0.89999998    1.91999996
   13.87305546  147.56900024    0.89999998    1.91999996
   13.87638855  140.48300171    0.89999998    1.91999996
   13.87944412  149.57299805    0.89999998    1.91999996
   13.88277817  142.88900757    0.89999998    1.91999996
   13.88861084  142.88900757    0.89999998    1.91999996
   13.89277744  144.45100403    0.89999998    1.91999996
   13.89611053  148.82800293    0.89999998    1.91999996
   13.89944458  142.88000488    0.89999998    1.91999996
   13.90222168  148.00700378    0.89999998    1.91999996
   13.90277767  145.96800232    0.89999998    1.91999996
   13.90611076  145.16499329    0.89999998    1.91999996
   13.90944386  142.32000732    0.89999998    1.91999996
   13.91249943  147.91900635    0.89999998    1.91999996
   13.91583252  141.36000061    0.89999998    1.91999996
   13.91888905  149.94599915    0.89999998    1.91999996
   13.92222214  143.05900574    0.89999998    1.91999996
   13.92555618  143.33700562    0.89999998    1.91999996
   13.93166733  143.33700562    0.89999998    1.91999996
   13.93583298  145.70799255    0.89999998    1.91999996
   13.93888855  148.54400635    0.89999998    1.91999996
   13.94222260  135.25799561    0.89999998    1.91999996
   13.94555569  139.93899536    0.89999998    1.91999996
   13.94888878  148.02499390    0.89999998    1.91999996
   13.95194435  145.04899597    0.89999998    1.91999996
   13.95527744  139.50399780    0.89999998    1.91999996
   13.95861053  142.19400024    0.89999998    1.91999996
   13.96166611  140.18400574    0.89999998    1.91999996
   13.96500015  144.18699646    0.89999998    1.91999996
   13.96805477  138.67300415    0.89999998    1.91999996
   13.96888828  140.83599854    0.89999998    1.91999996
   13.97444439  140.83599854    0.89999998    1.91999996
   13.97861099  140.79800415    0.89999998    1.91999996
   13.98166656  139.23399353    0.89999998    1.91999996
   13.98500061  142.19900513    0.89999998    1.91999996
   13.98833370  141.19000244    0.89999998    1.91999996
   13.99138927  142.49600220    0.89999998    1.91999996
   13.99472237  147.73699951    0.89999998    1.91999996
   13.99805546  144.26899719    0.89999998    1.91999996
   14.00111103  147.12899780    0.89999998    1.91999996
   14.00222206  148.54400635    0.89999998    1.91999996
   14.00472260  140.74800110    0.89999998    1.91999996
   14.00805569  142.69099426    0.89999998    1.91999996
   14.01111126  154.18299866    0.89999998    1.91999996
   14.01722240  154.18299866    0.89999998    1.91999996
   14.02138901  150.86199951    0.89999998    1.91999996
   14.02472210  150.74000549    0.89999998    1.91999996
   14.02777767  147.44400024    0.89999998    1.91999996
   14.03111076  146.59300232    0.89999998    1.91999996
   14.03444481  147.27000427    0.89999998    1.91999996
   14.03555584  154.73199463    0.89999998    1.91999996
   14.03777790  143.27000427    0.89999998    1.91999996
   14.04111195  144.90299988    0.89999998    1.91999996
   14.04416752  140.25100708    0.89999998    1.91999996
   14.04750061  145.27900696    0.89999998    1.91999996
   14.05083370  146.43899536    0.89999998    1.91999996
   14.05388927  139.26699829    0.89999998    1.91999996
   14.06000042  139.26699829    0.89999998    1.91999996
   14.06416702  143.69099426    0.89999998    1.91999996
   14.06750011  153.11399841    0.89999998    1.91999996
   14.06888866  144.21200562    0.89999998    1.91999996
   14.07111073  149.66099548    0.89999998    1.91999996
   14.07444477  139.92500305    0.89999998    1.91999996
   14.07750034  145.74200439    0.89999998    1.91999996
   14.08083344  152.29200745    0.89999998    1.91999996
   14.08416653  149.75300598    0.89999998    1.91999996
   14.08722210  141.04600525    0.89999998    1.91999996
   14.09055519  142.37500000    0.89999998    1.91999996
   14.09388828  144.74499512    0.89999998    1.91999996
   14.09694386  148.14999390    0.89999998    1.91999996
   14.10305595  148.14999390    0.89999998    1.91999996
   14.10722256  147.98599243    0.89999998    1.91999996
   14.11027813  149.14199829    0.89999998    1.91999996
   14.11361122  143.69900513    0.89999998    1.91999996
   14.11666679  138.89599609    0.89999998    1.91999996
   14.11999989  150.61900330    0.89999998    1.91999996
   14.12333393  137.47799683    0.89999998    1.91999996
   14.12638855  157.27000427    0.89999998    1.91999996
   14.12972260  145.29299927    0.89999998    1.91999996
   14.13305569  144.17399597    0.89999998    1.91999996
   14.13555527  145.73199463    0.89999998    1.91999996
   14.13666630  146.35800171    0.89999998    1.91999996
   14.14000034  150.33799744    0.89999998    1.91999996
   14.14583302  150.33799744    0.89999998    1.91999996
   14.14999962  144.50700378    0.89999998    1.91999996
   14.15305519  147.86199951    0.89999998    1.91999996
   14.15638828  146.91700745    0.89999998    1.91999996
   14.15972137  140.73100281    0.89999998    1.91999996
   14.16277695  142.66499329    0.89999998    1.91999996
   14.16611099  143.14199829    0.89999998    1.91999996
   14.16888905  141.86900330    0.89999998    1.91999996
   14.16972256  145.29499817    0.89999998    1.91999996
   14.17305565  144.69900513    0.89999998    1.91999996
   14.17638874  143.48699951    0.89999998    1.91999996
   14.17944431  146.84700012    0.89999998    1.91999996
   14.18277836  139.79200745    0.89999998    1.91999996
   14.18861103  139.79200745    0.89999998    1.91999996
   14.19277763  144.91900635    0.89999998    1.91999996
   14.19611073  145.36700439    0.89999998    1.91999996
   14.19916630  155.28399658    0.89999998    1.91999996
   14.20222187  146.05299377    0.89999998    1.91999996
   14.20305538  135.28500366    0.89999998    1.91999996
   14.20611095  156.09399414    0.89999998    1.91999996
   14.20944405  141.39799500    0.89999998    1.91999996
   14.21277714  142.78399658    0.89999998    1.91999996
   14.21583271  137.69200134    0.89999998    1.91999996
   14.21916580  141.22799683    0.89999998    1.91999996
   14.22222137  150.03300476    0.89999998    1.91999996
   14.22555542  140.61500549    0.89999998    1.91999996
   14.23138809  140.61500549    0.89999998    1.91999996
   14.23555565  144.61199951    0.89999998    1.91999996
   14.23888874  135.52099609    0.89999998    1.91999996
   14.24222279  140.13900757    0.89999998    1.91999996
   14.24527836  144.49000549    0.89999998    1.91999996
   14.24861145  141.75000000    0.89999998    1.91999996
   14.25166702  137.49099731    0.89999998    1.91999996
   14.25500011  146.17199707    0.89999998    1.91999996
   14.25833321  144.92799377    0.89999998    1.91999996
   14.26138878  137.84100342    0.89999998    1.91999996
   14.26472187  152.08500671    0.89999998    1.91999996
   14.26805496  139.04800415    0.89999998    1.91999996
   14.26888847  148.48899841    0.89999998    1.91999996
   14.27444458  148.48899841    0.89999998    1.91999996
   14.27861118  138.16200256    0.89999998    1.91999996
   14.28166676  132.51199341    0.89999998    1.91999996
   14.28500080  143.10600281    0.89999998    1.91999996
   14.30249977  130.81300354    0.89999998    1.91999996
   14.30500031  137.34399414    0.89999998    1.91999996
   14.30805588  148.39900208    0.89999998    1.91999996
   14.31138897  134.15299988    0.89999998    1.91999996
   14.31750011  134.15299988    0.89999998    1.91999996
   14.32138920  137.22200012    0.89999998    1.91999996
   14.32472229  142.23500061    0.89999998    1.91999996
   14.32805538  152.52900696    0.89999998    1.91999996
   14.33111095  140.14399719    0.89999998    1.91999996
   14.33444405  149.00599670    0.89999998    1.91999996
   14.33583260  147.68699646    0.89999998    1.91999996
   14.33805561  134.47900391    0.89999998    1.91999996
   14.34138870  135.67900085    0.89999998    1.91999996
   14.34472179  141.66600037    0.89999998    1.91999996
   14.34777737  139.63299561    0.89999998    1.91999996
   14.35111141  131.46299744    0.89999998    1.91999996
   14.35416698  139.08299255    0.89999998    1.91999996
   14.36027813  139.08299255    0.89999998    1.91999996
   14.36444473  136.16499329    0.89999998    1.91999996
   14.36750031  134.95500183    0.89999998    1.91999996
   14.36916637  142.40100098    0.89999998    1.91999996
   14.37111092  123.80799866    0.89999998    1.91999996
   14.37444496  141.41200256    0.89999998    1.91999996
   14.37777805  140.44500732    0.89999998    1.91999996
   14.38083363  143.36900330    0.89999998    1.91999996
   14.38416672  130.30799866    0.89999998    1.91999996
   14.38749981  140.21000671    0.89999998    1.91999996
   14.39055538  138.11900330    0.89999998    1.91999996
   14.39388847  145.44599915    0.89999998    1.91999996
   14.39722252  141.26899719    0.89999998    1.91999996
   14.40305519  141.26899719    0.89999998    1.91999996
   14.40722179  133.61000061    0.89999998    1.91999996
   14.41027737  126.85800171    0.89999998    1.91999996
   14.41361046  130.02900696    0.89999998    1.91999996
   14.41694450  133.84700012    0.89999998    1.91999996
   14.42000008  135.93600464    0.89999998    1.91999996
   14.42333412  136.17999268    0.89999998    1.91999996
   14.42666721  136.71000671    0.89999998    1.91999996
   14.42972279  140.66700745    0.89999998    1.91999996
   14.43305588  132.43299866    0.89999998    1.91999996
   14.43583298  137.46200562    0.89999998    1.91999996
   14.43694496  136.68299866    0.89999998    1.91999996
   14.44000053  132.61900330    0.89999998    1.91999996
   14.44583321  132.61900330    0.89999998    1.91999996
   14.44999981  132.16900635    0.89999998    1.91999996
   14.45333290  132.40899658    0.89999998    1.91999996
   14.45638847  139.85099792    0.89999998    1.91999996
   14.45972157  145.91400146    0.89999998    1.91999996
   14.46305561  136.62600708    0.89999998    1.91999996
   14.46611118  138.32899475    0.89999998    1.91999996
   14.46916580  128.19999695    0.89999998    1.91999996
   14.46972179  132.02099609    0.89999998    1.91999996
   14.47305489  139.42900085    0.89999998    1.91999996
   14.47638798  134.48599243    0.89999998    1.91999996
   14.47944355  131.12100220    0.89999998    1.91999996
   14.48277760  128.59300232    0.89999998    1.91999996
   14.48861122  128.59300232    0.89999998    1.91999996
   14.49277782  137.59199524    0.89999998    1.91999996
   14.49611092  138.17100525    0.89999998    1.91999996
   14.49944496  128.53399658    0.89999998    1.91999996
   14.50249958  138.27499390    0.89999998    1.91999996
   14.50277805  129.73500061    0.89999998    1.91999996
   14.50611115  138.66700745    0.89999998    1.91999996
   14.50944424  131.44900513    0.89999998    1.91999996
   14.51249981  134.55299377    0.89999998    1.91999996
   14.51583290  130.52099609    0.89999998    1.91999996
   14.51916599  130.10000610    0.89999998    1.91999996
   14.52222157  132.72700500    0.89999998    1.91999996
   14.52555561  129.92300415    0.89999998    1.91999996
   14.53166676  129.92300415    0.89999998    1.91999996
   14.53583336  126.79299927    0.89999998    1.91999996
   14.53611183  137.04699707    0.89999998    1.91999996
   14.53944492  131.71600342    0.89999998    1.91999996
   14.54277802  127.11499786    0.89999998    1.91999996
   14.54583359  129.16000366    0.89999998    1.91999996
   14.54916668  131.77400208    0.89999998    1.91999996
   14.55249977  135.56199646    0.89999998    1.91999996
   14.55555534  133.68899536    0.89999998    1.91999996
   14.55888939  129.93099976    0.89999998    1.91999996
   14.56222248  131.86399841    0.89999998    1.91999996
   14.56527805  141.07499695    0.89999998    1.91999996
   14.56861115  143.51400757    0.89999998    1.91999996
   14.56916618  133.44299316    0.89999998    1.91999996
   14.57444477  133.44299316    0.89999998    1.91999996
   14.57861137  137.39500427    0.89999998    1.91999996
   14.58166695  140.93099976    0.89999998    1.91999996
   14.58500004  133.36599731    0.89999998    1.91999996
   14.58833313  130.78799438    0.89999998    1.91999996
   14.59138870  129.93499756    0.89999998    1.91999996
   14.59472179  133.46099854    0.89999998    1.91999996
   14.59805489  133.40899658    0.89999998    1.91999996
   14.60111141  135.86399841    0.89999998    1.91999996
   14.60249996  132.45199585    0.89999998    1.91999996
   14.60472298  130.29600525    0.89999998    1.91999996
   14.60805607  129.61300659    0.89999998    1.91999996
   14.61138916  138.58099365    0.89999998    1.91999996
   14.61722279  138.58099365    0.89999998    1.91999996
   14.62138939  131.25300598    0.89999998    1.91999996
   14.62472248  130.61999512    0.89999998    1.91999996
   14.62777805  135.23800659    0.89999998    1.91999996
   14.63111115  132.15199280    0.89999998    1.91999996
   14.63444424  140.91700745    0.89999998    1.91999996
   14.63583279  125.30500031    0.89999998    1.91999996
   14.63805580  135.21299744    0.89999998    1.91999996
   14.64111137  132.46200562    0.89999998    1.91999996
   14.64444447  136.46600342    0.89999998    1.91999996
   14.64750004  127.37899780    0.89999998    1.91999996
   14.65083313  128.94700623    0.89999998    1.91999996
   14.65416622  137.65199280    0.89999998    1.91999996
   14.65999985  137.65199280    0.89999998    1.91999996
   14.66416645  139.99299622    0.89999998    1.91999996
   14.66750050  134.44900513    0.89999998    1.91999996
   14.66916656  127.15899658    0.89999998    1.91999996
   14.67111111  128.75399780    0.89999998    1.91999996
   14.67416668  126.22799683    0.89999998    1.91999996
   14.67750072  130.13099670    0.89999998    1.91999996
   14.68055630  127.95600128    0.89999998    1.91999996
   14.68388939  131.86500549    0.89999998    1.91999996
   14.68722248  136.05000305    0.89999998    1.91999996
   14.69027805  131.09700012    0.89999998    1.91999996
   14.69361115  133.67100525    0.89999998    1.91999996
   14.69694424  133.36900330    0.89999998    1.91999996
   14.70305538  133.36900330    0.89999998    1.91999996
   14.70722198  134.10600281    0.89999998    1.91999996
   14.71027756  134.00500488    0.89999998    1.91999996
   14.71361065  136.75799561    0.89999998    1.91999996
   14.71666622  128.93200684    0.89999998    1.91999996
   14.71999931  131.44700623    0.89999998    1.91999996
   14.72333336  133.29400635    0.89999998    1.91999996
   14.72666645  135.17100525    0.89999998    1.91999996
   14.72972202  136.17300415    0.89999998    1.91999996
   14.73305511  127.98300171    0.89999998    1.91999996
   14.73583317  135.17300415    0.89999998    1.91999996
   14.73666668  134.89999390    0.89999998    1.91999996
   14.73972225  130.82099915    0.89999998    1.91999996
   14.74583340  130.82099915    0.89999998    1.91999996
   14.75000000  125.26100159    0.89999998    1.91999996
   14.75305557  130.36099243    0.89999998    1.91999996
   14.75638866  128.02200317    0.89999998    1.91999996
   14.75972176  133.10699463    0.89999998    1.91999996
   14.76277733  134.35899353    0.89999998    1.91999996
   14.76611137  130.25599670    0.89999998    1.91999996
   14.76916599  130.39199829    0.89999998    1.91999996
   14.76972198  133.01199341    0.89999998    1.91999996
   14.77277756  125.84799957    0.89999998    1.91999996
   14.77611065  119.83499908    0.89999998    1.91999996
   14.77916622  128.16499329    0.89999998    1.91999996
   14.78249931  130.08099365    0.89999998    1.91999996
   14.78861141  130.08099365    0.89999998    1.91999996
   14.79277802  129.47700500    0.89999998    1.91999996
   14.79611111  131.66700745    0.89999998    1.91999996
   14.79916668  131.22999573    0.89999998    1.91999996
   14.80249977  126.48600006    0.89999998    1.91999996
   14.80305576  123.98899841    0.89999998    1.91999996
   14.80611134  129.04800415    0.89999998    1.91999996
   14.80944443  127.67800140    0.89999998    1.91999996
   14.81250000  123.44699860    0.89999998    1.91999996
   14.81583309  129.12100220    0.89999998    1.91999996
   14.81916618  131.72000122    0.89999998    1.91999996
   14.82222176  126.91999817    0.89999998    1.91999996
   14.82555580  130.19200134    0.89999998    1.91999996
   14.83138847  130.19200134    0.89999998    1.91999996
   14.83555508  131.18299866    0.89999998    1.91999996
   14.83611107  128.55000305    0.89999998    1.91999996
   14.83944416  145.68299866    0.89999998    1.91999996
   14.84249973  132.94999695    0.89999998    1.91999996
   14.84583282  125.70099640    0.89999998    1.91999996
   14.84916592  128.59800720    0.89999998    1.91999996
   14.85222244  141.11999512    0.89999998    1.91999996
   14.85555553  141.75399780    0.89999998    1.91999996
   14.85888958  132.40499878    0.89999998    1.91999996
   14.86194515  129.61599731    0.89999998    1.91999996
   14.86527824  132.37300110    0.89999998    1.91999996
   14.86833382  126.82800293    0.89999998    1.91999996
   14.86944485  130.90800476    0.89999998    1.91999996
   14.87444496  130.90800476    0.89999998    1.91999996
   14.87833309  131.99299622    0.89999998    1.91999996
   14.88166714  130.73699951    0.89999998    1.91999996
   14.88500023  132.70899963    0.89999998    1.91999996
   14.88805580  132.33799744    0.89999998    1.91999996
   14.89138889  139.78100586    0.89999998    1.91999996
   14.89472198  132.05900574    0.89999998    1.91999996
   14.89777756  127.19999695    0.89999998    1.91999996
   14.90111065  120.98000336    0.89999998    1.91999996
   14.90277767  126.04499817    0.89999998    1.91999996
   14.90472221  126.09200287    0.89999998    1.91999996
   14.90777779  134.38900757    0.89999998    1.91999996
   14.91111088  129.40400696    0.89999998    1.91999996
   14.91722298  129.40400696    0.89999998    1.91999996
   14.92138958  133.10699463    0.89999998    1.91999996
   14.92444515  123.34700012    0.89999998    1.91999996
   14.92777824  126.48200226    0.89999998    1.91999996
   14.93111134  123.75000000    0.89999998    1.91999996
   14.93416691  130.82400513    0.89999998    1.91999996
   14.93611145  127.44799805    0.89999998    1.91999996
   14.93805599  126.92800140    0.89999998    1.91999996
   14.94111156  124.84600067    0.89999998    1.91999996
   14.94444466  131.11099243    0.89999998    1.91999996
   14.94777775  126.01499939    0.89999998    1.91999996
   14.95083332  124.20800018    0.89999998    1.91999996
   14.95416641  125.00099945    0.89999998    1.91999996
   14.96000004  125.00099945    0.89999998    1.91999996
   14.96416664  127.03700256    0.89999998    1.91999996
   14.96749973  127.99500275    0.89999998    1.91999996
   14.96944427  128.16600037    0.89999998    1.91999996
   14.97111034  124.13300323    0.89999998    1.91999996
   14.97416592  129.61900330    0.89999998    1.91999996
   14.97749996  127.37799835    0.89999998    1.91999996
   14.98083305  129.54400635    0.89999998    1.91999996
   14.98388958  127.42199707    0.89999998    1.91999996
   14.98722267  129.33099365    0.89999998    1.91999996
   14.99055576  129.38099670    0.89999998    1.91999996
   14.99361134  125.01699829    0.89999998    1.91999996
   14.99694443  123.11399841    0.89999998    1.91999996
   15.00277805  123.11399841    0.89999998    1.91999996
   15.00694466  127.67299652    0.89999998    1.91999996
   15.01027775  134.12500000    0.89999998    1.91999996
   15.01333332  128.84899902    0.89999998    1.91999996
   15.01666641  123.36799622    0.89999998    1.91999996
   15.01999950  123.19999695    0.89999998    1.91999996
   15.02305508  122.43800354    0.89999998    1.91999996
   15.02638817  120.90799713    0.89999998    1.91999996
   15.02972221  121.23799896    0.89999998    1.91999996
   15.03277779  126.63600159    0.89999998    1.91999996
   15.03611183  120.19899750    0.89999998    1.91999996
   15.03666687  122.78900146    0.89999998    1.91999996
   15.03972244  119.96199799    0.89999998    1.91999996
   15.04583359  119.96199799    0.89999998    1.91999996
   15.04972267  125.73699951    0.89999998    1.91999996
   15.05305576  119.01699829    0.89999998    1.91999996
   15.05638885  134.07499695    0.89999998    1.91999996
   15.05944443  131.18099976    0.89999998    1.91999996
   15.06277752  116.00199890    0.89999998    1.91999996
   15.06611156  123.39299774    0.89999998    1.91999996
   15.06916618  116.78500366    0.89999998    1.91999996
   15.06999969  123.43699646    0.89999998    1.91999996
   15.07277775  122.30400085    0.89999998    1.91999996
   15.07611084  124.68299866    0.89999998    1.91999996
   15.07944393  122.06400299    0.89999998    1.91999996
   15.08249950  123.56099701    0.89999998    1.91999996
   15.08861065  123.56099701    0.89999998    1.91999996
   15.09277725  122.95500183    0.89999998    1.91999996
   15.09583282  123.08100128    0.89999998    1.91999996
   15.09916592  120.70800018    0.89999998    1.91999996
   15.10249996  126.73200226    0.89999998    1.91999996
   15.10333347  123.95899963    0.89999998    1.91999996
   15.10583401  126.98500061    0.89999998    1.91999996
   15.10916710  119.29799652    0.89999998    1.91999996
   15.11250019  119.52899933    0.89999998    1.91999996
   15.11555576  123.75099945    0.89999998    1.91999996
   15.11888885  115.56199646    0.89999998    1.91999996
   15.12222195  120.98000336    0.89999998    1.91999996
   15.12527752  119.28900146    0.89999998    1.91999996
   15.13138866  119.28900146    0.89999998    1.91999996
   15.13555527  118.48600006    0.89999998    1.91999996
   15.13666630  116.83499908    0.89999998    1.91999996
   15.24194431   -1.00000000   -1.00000000   -1.00000000
   15.33444405   -1.00000000   -1.00000000   -1.00000000
   15.46111107   -1.00000000   -1.00000000   -1.00000000
   15.57222176   -1.00000000   -1.00000000   -1.00000000
   15.59638882  120.94400024    0.89999998    1.91999996
   15.59944439  121.59200287    0.89999998    1.91999996
   15.60277843  118.70600128    0.89999998    1.91999996
   15.60611153  117.63200378    0.89999998    1.91999996
   15.60916710  124.47299957    0.89999998    1.91999996
   15.61250019  117.97699738    0.89999998    1.91999996
   15.61666679  117.97699738    0.89999998    1.91999996
   15.62083340  132.72900391    0.89999998    1.91999996
   15.62388897  134.46000671    0.89999998    1.91999996
   15.62722206  121.93000031    0.89999998    1.91999996
   15.62944412  129.08599854    0.89999998    1.91999996
   15.63083363  129.94299316    0.89999998    1.91999996
   15.63416672  129.44599915    0.89999998    1.91999996
   15.63722229  127.11900330    0.89999998    1.91999996
   15.64055538  125.11399841    0.89999998    1.91999996
   15.64388847  118.65499878    0.89999998    1.91999996
   15.64694405  124.47899628    0.89999998    1.91999996
   15.65027714  122.80200195    0.89999998    1.91999996
   15.65333271  126.01999664    0.89999998    1.91999996
   15.65944386  126.01999664    0.89999998    1.91999996
   15.66361046  122.52999878    0.89999998    1.91999996
   15.66694450  130.80299377    0.89999998    1.91999996
   15.67000008  134.57000732    0.89999998    1.91999996
   15.67333412  127.05200195    0.89999998    1.91999996
   15.67666721  130.54499817    0.89999998    1.91999996
   15.67972279  144.34100342    0.89999998    1.91999996
   15.68305588  138.51199341    0.89999998    1.91999996
   15.68638897  138.06700134    0.89999998    1.91999996
   15.68944454  144.58399963    0.89999998    1.91999996
   15.69277763  158.57099915    0.89999998    1.91999996
   15.69583321  161.44900513    0.89999998    1.91999996
   15.69638920  155.11599731    0.89999998    1.91999996
   15.70222187  155.11599731    0.89999998    1.91999996
   15.70638847  162.44200134    0.89999998    1.91999996
   15.70972157  149.72599792    0.89999998    1.91999996
   15.71277714  143.93499756    0.89999998    1.91999996
   15.71611118  137.72000122    0.89999998    1.91999996
   15.71944427  137.61000061    0.89999998    1.91999996
   15.72249985  140.86799622    0.89999998    1.91999996
   15.72583294  144.82299805    0.89999998    1.91999996
   15.72916603  135.69400024    0.89999998    1.91999996
   15.72972202  130.90800476    0.89999998    1.91999996
   15.73277760  146.83000183    0.89999998    1.91999996
   15.73611164  137.45300293    0.89999998    1.91999996
   15.73916721  140.92100525    0.89999998    1.91999996
   15.74527836  140.92100525    0.89999998    1.91999996
   15.74916649  152.84599304    0.89999998    1.91999996
   15.75249958  133.08799744    0.89999998    1.91999996
   15.75583363  134.58399963    0.89999998    1.91999996
   15.75888920  141.23500061    0.89999998    1.91999996
   15.76222229  132.12199402    0.89999998    1.91999996
   15.76333332  141.02900696    0.89999998    1.91999996
   15.76583290  146.53399658    0.89999998    1.91999996
   15.76916599  154.03100586    0.89999998    1.91999996
   15.77222157  155.25199890    0.89999998    1.91999996
   15.77555561  139.35699463    0.89999998    1.91999996
   15.77888870  130.08999634    0.89999998    1.91999996
   15.78194427  145.90299988    0.89999998    1.91999996
   15.78805637  145.90299988    0.89999998    1.91999996
   15.79222298  132.53300476    0.89999998    1.91999996
   15.79527855  144.36599731    0.89999998    1.91999996
   15.79638958  133.86000061    0.89999998    1.91999996
   15.79888916  135.53300476    0.89999998    1.91999996
   15.80222225  132.83000183    0.89999998    1.91999996
   15.80527782  125.80500031    0.89999998    1.91999996
   15.80861092  128.41000366    0.89999998    1.91999996
   15.81194496  130.36399841    0.89999998    1.91999996
   15.81500053  126.23799896    0.89999998    1.91999996
   15.81833363  129.98599243    0.89999998    1.91999996
   15.82138920  133.57800293    0.89999998    1.91999996
   15.82472229  134.74699402    0.89999998    1.91999996
   15.83083344  134.74699402    0.89999998    1.91999996
   15.83500004  138.35099792    0.89999998    1.91999996
   15.83833313  137.54699707    0.89999998    1.91999996
   15.84138870  138.71899414    0.89999998    1.91999996
   15.84472179  131.85299683    0.89999998    1.91999996
   15.84805489  137.38499451    0.89999998    1.91999996
   15.85111141  131.38900757    0.89999998    1.91999996
   15.85444450  128.18400574    0.89999998    1.91999996
   15.85777855  135.91600037    0.89999998    1.91999996
   15.86083412  139.16000366    0.89999998    1.91999996
   15.86305618  135.45199585    0.89999998    1.91999996
   15.86444473  137.49699402    0.89999998    1.91999996
   15.86777782  132.05599976    0.89999998    1.91999996
   15.87361145  132.05599976    0.89999998    1.91999996
   15.87777805  134.00100708    0.89999998    1.91999996
   15.88111115  139.05099487    0.89999998    1.91999996
   15.88416672  127.57700348    0.89999998    1.91999996
   15.88749981  129.89500427    0.89999998    1.91999996
   15.89083290  138.26899719    0.89999998    1.91999996
   15.89388847  134.90100098    0.89999998    1.91999996
   15.89638901  133.29400635    0.89999998    1.91999996
   15.89750004  139.08799744    0.89999998    1.91999996
   15.90083313  135.83599854    0.89999998    1.91999996
   15.90388870  133.32099915    0.89999998    1.91999996
   15.90722179  127.05500031    0.89999998    1.91999996
   15.91055489  134.32899475    0.89999998    1.91999996
   15.91666698  134.32899475    0.89999998    1.91999996
   15.92055607  134.09199524    0.89999998    1.91999996
   15.92388916  135.75799561    0.89999998    1.91999996
   15.92722225  135.01199341    0.89999998    1.91999996
   15.92972279  130.01699829    0.89999998    1.91999996
   15.93083382  132.50900269    0.89999998    1.91999996
   15.93416691  129.92900085    0.89999998    1.91999996
   15.93722248  134.33599854    0.89999998    1.91999996
   15.94055557  129.97099304    0.89999998    1.91999996
   15.94388866  130.38099670    0.89999998    1.91999996
   15.94694424  129.58000183    0.89999998    1.91999996
   15.95027733  131.51800537    0.89999998    1.91999996
   15.95333290  137.23199463    0.89999998    1.91999996
   15.95944405  137.23199463    0.89999998    1.91999996
   15.96361065  129.83299255    0.89999998    1.91999996
   15.96666622  138.01800537    0.89999998    1.91999996
   15.96999931  125.70300293    0.89999998    1.91999996
   15.97333336  134.57899475    0.89999998    1.91999996
   15.97638798  128.41499329    0.89999998    1.91999996
   15.97972202  134.01699829    0.89999998    1.91999996
   15.98277760  140.37399292    0.89999998    1.91999996
   15.98611164  128.74600220    0.89999998    1.91999996
   15.98944473  137.00900269    0.89999998    1.91999996
   15.99250031  127.96700287    0.89999998    1.91999996
   15.99583340  138.70199585    0.89999998    1.91999996
   15.99666691  138.34399414    0.89999998    1.91999996
   16.00222206  138.34399414    0.89999998    1.91999996
   16.00638962  131.78799438    0.89999998    1.91999996
   16.00972176  126.90299988    0.89999998    1.91999996
   16.01277733  125.72100067    0.89999998    1.91999996
   16.01611137  125.46399689    0.89999998    1.91999996
   16.01916695  125.20200348    0.89999998    1.91999996
   16.02249908  123.60600281    0.89999998    1.91999996
   16.02583313  122.75099945    0.89999998    1.91999996
   16.02888870  122.60299683    0.89999998    1.91999996
   16.03000069  129.73199463    0.89999998    1.91999996
   16.03249931  126.21299744    0.89999998    1.91999996
   16.03583336  126.20700073    0.89999998    1.91999996
   16.03888893  124.76100159    0.89999998    1.91999996
   16.04500008  124.76100159    0.89999998    1.91999996
   16.04916573  126.11299896    0.89999998    1.91999996
   16.05249977  128.53900146    0.89999998    1.91999996
   16.05555534  130.77299500    0.89999998    1.91999996
   16.05888748  129.44500732    0.89999998    1.91999996
   16.06222153  133.50799561    0.89999998    1.91999996
   16.06333351  132.18200684    0.89999998    1.91999996
   16.06583214  130.54200745    0.89999998    1.91999996
   16.06916809  129.95199585    0.89999998    1.91999996
   16.07222366  132.30700684    0.89999998    1.91999996
   16.07555580  126.88400269    0.89999998    1.91999996
   16.07888985  128.36199951    0.89999998    1.91999996
   16.08194542  144.31900024    0.89999998    1.91999996
   16.08805656  144.31900024    0.89999998    1.91999996
   16.09194565  137.18099976    0.89999998    1.91999996
   16.09527779  134.13299561    0.89999998    1.91999996
   16.09666824  146.41000366    0.89999998    1.91999996
   16.09944534  137.45599365    0.00000000    0.00000000
   16.10333443  137.18800354    0.00000000    0.00000000
   16.10722351  131.00199890    0.00000000    0.00000000
   16.11111069  133.67300415    0.00000000    0.00000000
   16.11499977  134.60400391    0.00000000    0.00000000
   16.11888885  143.99000549    0.00000000    0.00000000
   16.12277794  146.43800354    0.00000000    0.00000000
   16.12666702  140.25799561    0.00000000    0.00000000
   16.13166618  140.25799561    0.00000000    0.00000000
   16.13638878  166.29200745    0.00000000    0.00000000
   16.13972282  151.57800293    0.86000001    2.67000008
   16.14277840  145.61199951    0.86000001    2.67000008
   16.14611053  164.38900757    0.86000001    2.67000008
   16.14944458  149.76100159    0.86000001    2.67000008
   16.15250015  145.69200134    0.86000001    2.67000008
   16.15583229  134.20799255    0.86000001    2.67000008
   16.15888786  137.44000244    0.86000001    2.67000008
   16.16222191  130.59899902    0.86000001    2.67000008
   16.16333389  131.53100586    0.86000001    2.67000008
   16.16583252  137.12500000    0.92000002    2.67000008
   16.16916656  131.05000305    0.95999998    2.67000008
   16.17388916  131.05000305    1.05999994    2.67000008
   16.17805481  128.91099548    1.11000001    2.67000008
   16.18138885  129.23800659    1.09000003    2.67000008
   16.18444443  124.64499664    1.09000003    2.67000008
   16.18777657  129.86999512    1.09000003    2.67000008
   16.19111061  134.79600525    1.09000003    2.67000008
   16.19416618  134.65199280    1.14999998    2.67000008
   16.19666672  135.36000061    1.16999996    2.67000008
   16.19777679  132.57499695    1.14999998    2.67000008
   16.20111275  126.42099762    1.19000006    2.67000008
   16.20416832  129.03599548    1.21000004    2.69000006
   16.20750046  134.70300293    1.14999998    2.69000006
   16.21083450  133.20100403    1.13000000    2.66000009
   16.21666718  133.20100403    1.03999996    2.67000008
   16.22083473  126.84100342    1.03999996    2.67000008
   16.22416687  122.13600159    0.98000002    2.71000004
   16.22722244  129.78900146    0.94000000    2.69000006
   16.23000145  128.12199402    0.94000000    2.69000006
   16.23083305  122.50800323    0.94000000    2.69000006
   16.23416710  125.00000000    0.94000000    2.69000006
   16.23750114  121.92600250    0.94000000    2.67000008
   16.24055672  123.42500305    0.95999998    2.69000006
   16.24388885  124.71399689    0.95999998    2.69000006
   16.24694443  127.62200165    0.95999998    2.69000006
   16.25027847  128.09700012    0.98000002    2.67000008
   16.25361061  127.55699921    0.94000000    2.66000009
   16.25944519  127.55699921    0.86000001    2.67000008
   16.26361084  129.75700378    0.86000001    2.69000006
   16.26694489  127.50599670    0.88000000    2.69000006
   16.27027702  127.75000000    0.94000000    2.67000008
   16.27333260  136.07099915    0.98000002    2.69000006
   16.27666664  125.18199921    1.00000000    2.67000008
   16.27972221  127.74400330    0.98000002    2.67000008
   16.28305435  120.35399628    0.98000002    2.67000008
   16.28638840  127.77799988    1.00000000    2.67000008
   16.28944397  131.76899719    1.03999996    2.67000008
   16.29277802  135.49099731    1.01999998    2.67000008
   16.29611015  124.46900177    1.07000005    2.67000008
   16.29666710  128.88999939    1.01999998    2.67000008
   16.30249977  128.88999939    0.98000002    2.67000008
   16.30666542  126.96399689    1.00000000    2.67000008
   16.30972099  130.77699280    0.98000002    2.67000008
   16.31305504  128.94400024    1.00000000    2.69000006
   16.31611061  131.59500122    0.98000002    2.67000008
   16.31944466  122.94000244    0.98000002    2.67000008
   16.32277870  122.65200043    1.00000000    2.67000008
   16.32583427  124.82599640    1.00000000    2.69000006
   16.32916832  122.93299866    0.98000002    2.67000008
   16.33000183  124.11699677    1.00000000    2.67000008
   16.33277893  128.64999390    0.95999998    2.69000006
   16.33611107  129.40800476    0.95999998    2.67000008
   16.33944511  131.29899597    0.95999998    2.67000008
   16.34527779  131.29899597    1.00000000    2.67000008
   16.34944534  133.21899414    1.00000000    2.67000008
   16.35250092  123.66000366    0.98000002    2.69000006
   16.35583305  130.95100403    0.95999998    2.69000006
   16.35916710  131.07800293    0.98000002    2.69000006
   16.36222267  126.60900116    1.00000000    2.67000008
   16.36333466  124.60500336    0.98000002    2.67000008
   16.36583328  129.27600098    1.05999994    2.69000006
   16.36916733  128.55799866    1.07000005    2.69000006
   16.37249947  129.26300049    1.01999998    2.67000008
   16.37555504  121.64499664    1.00000000    2.69000006
   16.37888908  124.39900208    0.94000000    2.69000006
   16.38194466  131.36500549    0.89999998    2.69000006
   16.38805580  131.36500549    0.86000001    2.69000006
   16.39222145  129.72599792    0.86000001    2.69000006
   16.39555550  128.60299683    0.83999997    2.67000008
   16.39666748  131.01199341    0.83999997    2.67000008
   16.39888954  135.46600342    0.81999999    2.69000006
   16.40222168  128.28399658    0.81999999    2.69000006
   16.40555573  124.55100250    0.80000001    2.67000008
   16.40861130  131.95300293    0.80000001    2.67000008
   16.41194344  131.10800171    0.80000001    2.67000008
   16.41527748  130.58599854    0.80000001    2.67000008
   16.41833305  125.99500275    0.81999999    2.69000006
   16.42166519  127.58399963    0.81999999    2.69000006
   16.42472076  127.07599640    0.81999999    2.69000006
   16.43083191  127.07599640    0.81999999    2.67000008
   16.43499947  125.97899628    0.81999999    2.67000008
   16.43833160  129.17799377    0.81999999    2.67000008
   16.44166565  125.05599976    0.81999999    2.69000006
   16.44472122  138.93200684    0.80000001    2.69000006
   16.44805527  128.41200256    0.79000002    2.69000006
   16.45111275  131.61099243    0.79000002    2.67000008
   16.45444489  130.52900696    0.80000001    2.69000006
   16.45777893  133.25700378    0.80000001    2.69000006
   16.46083450  124.47699738    0.79000002    2.67000008
   16.46333504  135.69799805    0.79000002    2.69000006
   16.46444511  135.79800415    0.76999998    2.67000008
   16.46777916  133.60600281    0.76999998    2.69000006
   16.47389030  133.60600281    0.76999998    2.69000006
   16.47777748  131.71299744    0.76999998    2.69000006
   16.48111153  127.91699982    0.76999998    2.69000006
   16.48444557  130.08999634    0.79000002    2.67000008
   16.48750114  136.10499573    0.80000001    2.69000006
   16.49083328  130.39100647    0.80000001    2.67000008
   16.49416733  126.13300323    0.80000001    2.69000006
   16.49666786  137.35699463    0.80000001    2.67000008
   16.49749947  134.59100342    0.76999998    2.67000008
   16.50083351  132.94700623    0.76999998    2.67000008
   16.50416756  131.06500244    0.76999998    2.69000006
   16.50722313  127.63800049    0.75000000    2.69000006
   16.51055527  140.73699951    0.73000002    2.67000008
   16.51666641  140.73699951    0.73000002    2.67000008
   16.52083397  120.90200043    0.69000000    2.69000006
   16.52388954  122.55500031    0.69000000    2.69000006
   16.52722168  121.27600098    0.69000000    2.69000006
   16.53000069  134.19500732    0.69000000    2.69000006
   16.53083229  124.73999786    0.69000000    2.69000006
   16.53416634  127.55999756    0.69000000    2.67000008
   16.53750038  130.97900391    0.70999998    2.69000006
   16.54055595  134.13800049    0.70999998    2.67000008
   16.54388809  127.80699921    0.70999998    2.69000006
   16.54694366  131.03500366    0.70999998    2.69000006
   16.55027771  133.05400085    0.70999998    2.69000006
   16.55360985  134.60899353    0.70999998    2.69000006
   16.55944443  134.60899353    0.73000002    2.67000008
   16.56361008  135.48300171    0.73000002    2.67000008
   16.56694603  136.03599548    0.73000002    2.69000006
   16.57027817  128.30900574    0.73000002    2.69000006
   16.57333374  128.91700745    0.76999998    2.69000006
   16.57666779  135.26100159    0.76999998    2.69000006
   16.58000183  131.05599976    0.76999998    2.67000008
   16.58305550  130.94200134    0.75000000    2.69000006
   16.58638954  128.25799561    0.75000000    2.69000006
   16.58944511  127.06999969    0.75000000    2.69000006
   16.59277916  126.08300018    0.75000000    2.67000008
   16.59611130  124.85500336    0.75000000    2.69000006
   16.59666824  132.04800415    0.75000000    2.69000006
   16.61722183  132.04800415    0.69000000    2.69000006
   16.62138939  133.53799438    0.73000002    2.67000008
   16.62472153  133.50700378    0.76999998    2.67000008
   16.62777710  127.74800110    0.76999998    2.69000006
   16.63000107  130.85600281    0.79000002    2.69000006
   16.63166618  128.84500122    0.79000002    2.69000006
   16.63472176  129.53900146    0.76999998    2.69000006
   16.63805580  127.42099762    0.76999998    2.69000006
   16.64138794  127.92800140    0.76999998    2.69000006
   16.64444351  133.56700134    0.76999998    2.67000008
   16.64777756  128.20300293    0.76999998    2.67000008
   16.65083313  134.92199707    0.76999998    2.69000006
   16.65416718  128.84599304    0.73000002    2.67000008
   16.65999985  128.84599304    0.73000002    2.69000006
   16.66416550  134.81799316    0.69000000    2.69000006
   16.66722107  132.79800415    0.67000002    2.69000006
   16.67055511  132.75799561    0.64999998    2.69000006
   16.67388916  136.30299377    0.64999998    2.67000008
   16.67694473  135.27699280    0.63000000    2.67000008
   16.68027687  132.44000244    0.63000000    2.69000006
   16.68361092  134.25100708    0.63000000    2.69000006
   16.68666649  134.44000244    0.61000001    2.67000008
   16.68999863  143.11799622    0.61000001    2.69000006
   16.69305420  132.59399414    0.61000001    2.69000006
   16.69638824  136.50399780    0.61000001    2.67000008
   16.69694328  125.81400299    0.61000001    2.67000008
   16.70277786  125.81400299    0.63000000    2.69000006
   16.70694542  129.86900330    0.64999998    2.69000006
   16.71027946  126.43900299    0.64999998    2.69000006
   16.71333504  130.11500549    0.70999998    2.69000006
   16.71666718  127.36000061    0.69000000    2.69000006
   16.72000122  124.75099945    0.69000000    2.69000006
   16.72305679  124.75599670    0.69000000    2.69000006
   16.72638893  132.57000732    0.67000002    2.67000008
   16.72972298  127.25900269    0.64999998    2.67000008
   16.73027802  123.52999878    0.64999998    2.69000006
   16.73333359  134.54499817    0.64999998    2.69000006
   16.73638916  124.51200104    0.64999998    2.69000006
   16.73972321  125.37799835    0.63000000    2.67000008
   16.74555588  125.37799835    0.61000001    2.69000006
   16.74972153  125.37500000    0.58999997    2.69000006
   16.75305557  128.51499939    0.58999997    2.67000008
   16.75638962  126.31500244    0.61000001    2.69000006
   16.75944519  127.21399689    0.61000001    2.67000008
   16.76277733  128.06799316    0.64999998    2.67000008
   16.76361084  125.85500336    0.64999998    2.67000008
   16.76638794  125.73400116    0.64999998    2.69000006
   16.76944351  124.66300201    0.67000002    2.67000008
   16.77277756  127.69799805    0.69000000    2.69000006
   16.77611160  124.93399811    0.69000000    2.69000006
   16.77916718  129.01400757    0.70999998    2.67000008
   16.78249931  129.59599304    0.70999998    2.69000006
   16.78861046  129.59599304    0.79000002    2.69000006
   16.79277802  122.32499695    0.83999997    2.69000006
   16.79583359  124.61499786    0.80000001    2.69000006
   16.79694366  124.94000244    0.80000001    2.69000006
   16.79972076  128.00399780    0.80000001    2.69000006
   16.80277634  130.60099792    0.79000002    2.69000006
   16.80611038  123.48999786    0.79000002    2.69000006
   16.80944443  130.99299622    0.73000002    2.69000006
   16.81250000  122.26599884    0.73000002    2.67000008
   16.81583214  133.35299683    0.73000002    2.69000006
   16.81888962  129.89100647    0.73000002    2.69000006
   16.82222366  129.74400330    0.63000000    2.67000008
   16.82555580  129.11999512    0.61000001    2.69000006
   16.83139038  129.11999512    0.56999999    2.69000006
   16.83555603  125.86100006    0.58999997    2.69000006
   16.83861160  128.52000427    0.61000001    2.69000006
   16.84194565  132.33200073    0.63000000    2.69000006
   16.84527779  128.13999939    0.63000000    2.69000006
   16.84833336  128.67700195    0.79000002    2.67000008
   16.85166740  123.75700378    0.89999998    2.69000006
   16.85499954  121.21600342    0.92000002    2.69000006
   16.85805511  127.90499878    0.92000002    2.69000006
   16.86138916  132.60299683    0.89999998    2.69000006
   16.86361122  127.58300018    0.81999999    2.69000006
   16.86499977  123.18900299    0.80000001    2.69000006
   16.86805534  125.94599915    0.69000000    2.69000006
   16.87416649  125.94599915    0.67000002    2.67000008
   16.87833405  126.56099701    0.64999998    2.67000008
   16.88166618  126.85600281    0.64999998    2.67000008
   16.88472176  125.11799622    0.70999998    2.67000008
   16.88805580  121.58799744    0.70999998    2.69000006
   16.89138794  121.48200226    0.70999998    2.69000006
   16.89444351  124.53399658    0.70999998    2.69000006
   16.89694405  123.40000153    0.73000002    2.71000004
   16.89833260  125.48400116    0.92000002    2.69000006
   16.90138817  128.67999268    0.92000002    2.71000004
   16.90472221  127.09899902    0.70999998    2.69000006
   16.90805435  126.31600189    0.61000001    2.69000006
   16.91110992  125.96399689    0.56999999    2.69000006
   16.91694450  125.96399689    0.51999998    2.67000008
   16.92111015  121.61799622    0.50000000    2.69000006
   16.92444420  128.30700684    0.51999998    2.67000008
   16.92777634  123.90899658    0.52999997    2.69000006
   16.93027687  126.01599884    0.52999997    2.69000006
   16.93138885  124.24900055    0.51999998    2.69000006
   16.93444443  127.51999664    0.47999999    2.67000008
   16.93777657  124.34100342    0.47999999    2.69000006
   16.94111061  126.09799957    0.44000000    2.69000006
   16.94416618  121.98300171    0.46000001    2.67000008
   16.94749832  125.22399902    0.44000000    2.69000006
   16.95055580  119.95500183    0.44000000    2.71000004
   16.95388985  123.44799805    0.44000000    2.69000006
   16.96000099  123.44799805    0.40000001    2.69000006
   16.96416664  133.44000244    0.38000000    2.69000006
   16.96722221  125.01699829    0.38000000    2.67000008
   16.97055626  130.15600586    0.38000000    2.69000006
   16.97389030  122.36599731    0.38000000    2.69000006
   16.97694588  126.22100067    0.38000000    2.69000006
   16.98027802  126.77999878    0.38000000    2.69000006
   16.98333359  125.81500244    0.36000001    2.69000006
   16.98666763  122.92400360    0.36000001    2.69000006
   16.98999977  123.91100311    0.36000001    2.69000006
   16.99305534  127.48799896    0.36000001    2.69000006
   16.99638939  129.83500671    0.36000001    2.67000008
   16.99694443  119.00399780    0.36000001    2.69000006
   17.00277710  119.00399780    0.38000000    2.69000006
   17.00694466  127.92800140    0.38000000    2.67000008
   17.01000023  129.32800293    0.36000001    2.69000006
   17.01333427  124.07199860    0.36000001    2.69000006
   17.01666641  126.40000153    0.36000001    2.69000006
   17.01972198  126.75099945    0.38000000    2.69000006
   17.02305603  128.05799866    0.36000001    2.67000008
   17.02611160  124.93399811    0.36000001    2.69000006
   17.02944374  130.04800415    0.36000001    2.69000006
   17.03027725  130.81199646    0.38000000    2.69000006
   17.03305435  128.07099915    0.36000001    2.69000006
   17.03610992  129.95599365    0.38000000    2.69000006
   17.03944397  122.18399811    0.40000001    2.69000006
   17.04555511  122.18399811    0.38000000    2.69000006
   17.04972076  127.17400360    0.38000000    2.69000006
   17.05305481  134.53700256    0.40000001    2.67000008
   17.05611038  125.42900085    0.38000000    2.69000006
   17.05944443  129.78399658    0.38000000    2.69000006
   17.06277657  126.09600067    0.40000001    2.67000008
   17.06361008  124.34799957    0.38000000    2.69000006
   17.06638718  126.74600220    0.44000000    2.67000008
   17.06944466  125.69000244    0.44000000    2.69000006
   17.07277870  128.04100037    0.41999999    2.67000008
   17.07611275  127.33000183    0.41999999    2.69000006
   17.07916832  123.26300049    0.44000000    2.69000006
   17.08250046  121.52200317    0.44000000    2.69000006
   17.08833313  121.52200317    0.44000000    2.69000006
   17.09250069  123.77700043    0.44000000    2.69000006
   17.09583473  138.93899536    0.47999999    2.69000006
   17.09694481  139.83000183    0.47999999    2.69000006
   17.09944534  142.43800354    0.47999999    2.69000006
   17.10277748  127.12400055    0.46000001    2.69000006
   17.10611153  131.48100281    0.47999999    2.69000006
   17.10916710  129.38600159    0.47999999    2.69000006
   17.11250114  124.20600128    0.47999999    2.69000006
   17.11583328  135.07099915    0.47999999    2.69000006
   17.11888885  132.73899841    0.47999999    2.69000006
   17.12222290  128.23199463    0.47999999    2.69000006
   17.12527847  126.51499939    0.50000000    2.69000006
   17.13138962  126.51499939    0.52999997    2.69000006
   17.13555527  126.75900269    0.52999997    2.67000008
   17.13861084  128.32800293    0.51999998    2.67000008
   17.14194489  122.27600098    0.51999998    2.69000006
   17.14500046  131.29699707    0.47999999    2.67000008
   17.14833260  126.87599945    0.46000001    2.69000006
   17.15166664  131.65499878    0.46000001    2.69000006
   17.15472221  130.80400085    0.46000001    2.69000006
   17.15805435  130.06500244    0.46000001    2.67000008
   17.16138840  131.24200439    0.47999999    2.69000006
   17.16361046  131.44900513    0.47999999    2.67000008
   17.16499901  131.02400208    0.51999998    2.67000008
   17.16805458  133.32000732    0.51999998    2.67000008
   17.17416573  133.32000732    0.64999998    2.69000006
   17.17833328  123.91799927    0.69000000    2.69000006
   17.18138885  128.89799500    0.69000000    2.69000006
   17.18472099  129.63699341    0.67000002    2.67000008
   17.18805504  128.27299500    0.67000002    2.69000006
   17.19111061  128.01499939    0.69000000    2.69000006
   17.19444275  134.82000732    0.70999998    2.67000008
   17.19694328  124.12799835    0.70999998    2.69000006
   17.19805527  123.93699646    0.70999998    2.69000006
   17.20138931  125.01899719    0.67000002    2.67000008
   17.20444489  126.15000153    0.64999998    2.67000008
   17.20777893  129.93200684    0.63000000    2.69000006
   17.21083450  122.12899780    0.63000000    2.69000006
   17.21694565  122.12899780    0.63000000    2.69000006
   17.22111130  123.65000153    0.55000001    2.69000006
   17.22444534  122.66600037    0.55000001    2.67000008
   17.22750092  120.01200104    0.55000001    2.69000006
   17.23027802  127.32599640    0.55000001    2.69000006
   17.23139000  126.90100098    0.56999999    2.69000006
   17.23444557  123.96900177    0.56999999    2.69000006
   17.23777771  121.79499817    0.55000001    2.69000006
   17.24111176  124.39199829    0.55000001    2.67000008
   17.24416733  124.54699707    0.52999997    2.69000006
   17.24749947  129.38999939    0.51999998    2.69000006
   17.25083351  124.00499725    0.52999997    2.67000008
   17.25388908  130.13800049    0.52999997    2.69000006
   17.25972176  130.13800049    0.51999998    2.67000008
   17.26388931  125.75599670    0.51999998    2.69000006
   17.26722145  131.88999939    0.50000000    2.69000006
   17.27055550  131.96200562    0.50000000    2.69000006
   17.27388954  122.22000122    0.50000000    2.69000006
   17.27694511  127.31500244    0.46000001    2.67000008
   17.28027725  126.56300354    0.46000001    2.69000006
   17.28361130  125.08699799    0.46000001    2.69000006
   17.28666687  119.32099915    0.46000001    2.67000008
   17.28999901  124.69200134    0.46000001    2.67000008
   17.29305458  125.99500275    0.46000001    2.69000006
   17.29638863  126.29100037    0.44000000    2.69000006
   17.29694366  127.72499847    0.46000001    2.69000006
   17.30277634  127.72499847    0.44000000    2.69000006
   17.30666542  126.41699982    0.44000000    2.69000006
   17.30999947  131.03900146    0.46000001    2.69000006
   17.31333351  123.00099945    0.44000000    2.67000008
   17.31638718  126.67099762    0.46000001    2.69000006
   17.31972313  126.13800049    0.44000000    2.67000008
   17.32305717  129.07899475    0.44000000    2.67000008
   17.32611275  126.88099670    0.41999999    2.69000006
   17.32944489  135.05900574    0.41999999    2.69000006
   17.33027840  125.91400146    0.40000001    2.69000006
   17.33305550  126.28399658    0.40000001    2.69000006
   17.33611107  127.65200043    0.38000000    2.69000006
   17.33944511  128.19099426    0.38000000    2.69000006
   17.34555626  128.19099426    0.36000001    2.69000006
   17.34972191  129.94000244    0.31999999    2.67000008
   17.35277748  131.75700378    0.31999999    2.67000008
   17.35611153  120.65599823    0.31999999    2.67000008
   17.35944557  125.86599731    0.31999999    2.69000006
   17.36250114  124.82299805    0.31999999    2.67000008
   17.36361122  132.50300598    0.31999999    2.69000006
   17.36611176  127.98100281    0.31999999    2.69000006
   17.36944389  130.71499634    0.34000000    2.67000008
   17.37249947  127.42099762    0.34000000    2.69000006
   17.37583351  125.15399933    0.34000000    2.69000006
   17.37888908  129.00799561    0.36000001    2.69000006
   17.38222313  122.95700073    0.36000001    2.67000008
   17.38833237  122.95700073    0.38000000    2.67000008
   17.39249992  132.36000061    0.40000001    2.69000006
   17.39583397  124.52999878    0.38000000    2.67000008
   17.39694405  133.91400146    0.41999999    2.69000006
   17.39944458  119.02100372    0.36000001    2.69000006
   17.40250015  128.55499268    0.38000000    2.67000008
   17.40583229  129.77400208    0.50000000    2.67000008
   17.40916634  128.59700012    0.51999998    2.69000006
   17.41222191  127.94899750    0.47999999    2.69000006
   17.41555595  125.01399994    0.51999998    2.67000008
   17.41888809  131.60899353    0.51999998    2.69000006
   17.42194366  123.75299835    0.47999999    2.67000008
   17.42527771  130.98599243    0.40000001    2.67000008
   17.43111038  130.98599243    0.44000000    2.67000008
   17.43527603  131.24200439    0.51999998    2.69000006
   17.43861008  129.52200317    0.58999997    2.67000008
   17.44166565  130.95199585    0.61000001    2.69000006
   17.44499969  123.44999695    0.63000000    2.67000008
   17.44833183  132.33700562    0.73000002    2.67000008
   17.45138931  124.46900177    0.75000000    2.67000008
   17.45472336  131.06399536    0.63000000    2.67000008
   17.45805550  131.54699707    0.73000002    2.69000006
   17.46111107  143.94799805    0.50000000    2.67000008
   17.46361160  134.88600159    0.50000000    2.67000008
   17.46472359  130.89199829    0.50000000    2.67000008
   17.46777916  130.14300537    0.51999998    2.67000008
   17.47416687  130.14300537    0.44000000    2.67000008
   17.47805595  122.27999878    0.40000001    2.69000006
   17.48139000  126.62699890    0.40000001    2.69000006
   17.48472214  125.65200043    0.40000001    2.69000006
   17.48777771  124.58499908    0.40000001    2.67000008
   17.49111176  132.38999939    0.38000000    2.67000008
   17.49444389  130.52799988    0.40000001    2.67000008
   17.49694443  133.74000549    0.40000001    2.67000008
   17.49805641  124.54399872    0.40000001    2.67000008
   17.50111198  125.69999695    0.40000001    2.67000008
   17.50444412  127.35500336    0.41999999    2.67000008
   17.50777817  124.44499969    0.40000001    2.69000006
   17.51083374  129.60200500    0.38000000    2.67000008
   17.51694489  129.60200500    0.38000000    2.67000008
   17.52111053  126.26399994    0.36000001    2.69000006
   17.52444458  128.43600464    0.36000001    2.67000008
   17.52750015  127.86499786    0.36000001    2.67000008
   17.53027725  123.59899902    0.36000001    2.67000008
   17.53138924  124.69999695    0.36000001    2.67000008
   17.53444481  130.20500183    0.38000000    2.67000008
   17.53777695  131.42500305    0.38000000    2.69000006
   17.54111099  129.08900452    0.40000001    2.71000004
   17.54416656  128.02099609    0.40000001    2.67000008
   17.54749870  132.90800476    0.38000000    2.67000008
   17.55083275  126.38700104    0.38000000    2.69000006
   17.55388832  131.12699890    0.38000000    2.67000008
   17.55972099  131.12699890    0.46000001    2.69000006
   17.56388855  127.36199951    0.44000000    2.67000008
   17.56722260  134.36300659    0.44000000    2.67000008
   17.57027817  127.07700348    0.46000001    2.69000006
   17.57361221  127.53700256    0.50000000    2.67000008
   17.57666779  130.73399353    0.58999997    2.69000006
   17.58000183  129.43400574    0.61000001    2.67000008
   17.58333397  136.64500427    0.63000000    2.67000008
   17.58638954  129.95399475    0.75000000    2.69000006
   17.58972359  126.92099762    0.75000000    2.67000008
   17.59305573  125.27799988    0.75000000    2.69000006
   17.59611130  125.14600372    0.58999997    2.67000008
   17.59694481  123.89299774    0.58999997    2.67000008
   17.60250092  123.89299774    0.58999997    2.67000008
   17.60666656  128.20399475    0.40000001    2.67000008
   17.61000061  125.50900269    0.40000001    2.67000008
   17.61305618  123.53500366    0.41999999    2.69000006
   17.63083267  123.71700287    0.44000000    2.67000008
   17.63305473  124.22799683    0.46000001    2.67000008
   17.63638878  124.90299988    0.46000001    2.69000006
   17.63972282  122.75599670    0.50000000    2.69000006
   17.64555550  122.75599670    0.47999999    2.67000008
   17.64972115  130.75199890    0.47999999    2.67000008
   17.65305519  133.85800171    0.41999999    2.69000006
   17.65611076  130.68800354    0.40000001    2.67000008
   17.65944481  134.81599426    0.40000001    2.67000008
   17.66277695  129.51699829    0.40000001    2.67000008
   17.66416550  131.27099609    0.40000001    2.67000008
   17.66666603  128.26199341    0.41999999    2.67000008
   17.66972160  131.01899719    0.41999999    2.67000008
   17.67305565  128.13800049    0.40000001    2.67000008
   17.67638779  130.99600220    0.40000001    2.67000008
   17.67944336  128.42500305    0.40000001    2.67000008
   17.68277740  123.62799835    0.40000001    2.67000008
   17.68861008  123.62799835    0.38000000    2.67000008
   17.69249916  126.55899811    0.40000001    2.67000008
   17.69583321  132.82099915    0.41999999    2.67000008
   17.69722176  127.31700134    0.40000001    2.67000008
   17.69944382  131.50399780    0.41999999    2.67000008
   17.70277786  128.37699890    0.44000000    2.69000006
   17.70583344  130.99800110    0.47999999    2.67000008
   17.70916748  128.17399597    0.47999999    2.67000008
   17.71222305  132.28100586    0.44000000    2.67000008
   17.71555710  135.43400574    0.44000000    2.67000008
   17.71888924  129.95199585    0.44000000    2.67000008
   17.72194481  131.63299561    0.44000000    2.69000006
   17.72527885  134.27400208    0.44000000    2.69000006
   17.73139000  134.27400208    0.47999999    2.67000008
   17.73555565  135.32000732    0.47999999    2.67000008
   17.73861122  127.92299652    0.50000000    2.67000008
   17.74194527  137.95799255    0.41999999    2.67000008
   17.74527740  134.64700317    0.41999999    2.67000008
   17.74833298  131.16299438    0.41999999    2.67000008
   17.75166702  143.05499268    0.41999999    2.67000008
   17.75472260  120.29299927    0.41999999    2.67000008
   17.75833321  135.48899841    0.41999999    2.67000008
   17.76138878  134.95799255    0.40000001    2.67000008
   17.76388931  132.80400085    0.40000001    2.67000008
   17.76499939  133.65499878    0.40000001    2.67000008
   17.76833344  131.45899963    0.40000001    2.67000008
   17.77416611  131.45899963    0.40000001    2.67000008
   17.77833366  134.63400269    0.41999999    2.67000008
   17.78166580  132.23399353    0.41999999    2.69000006
   17.78472137  136.22999573    0.40000001    2.67000008
   17.78805542  134.48800659    0.40000001    2.67000008
   17.79111099  130.20300293    0.38000000    2.67000008
   17.79444313  132.69099426    0.36000001    2.67000008
   17.79722214  124.67099762    0.36000001    2.67000008
   17.79805565  128.25300598    0.36000001    2.67000008
   17.80138779  134.55400085    0.31999999    2.67000008
   17.80444336  135.13600159    0.30000001    2.66000009
   17.80777740  133.90800476    0.30000001    2.66000009
   17.81110954  137.01400757    0.31999999    2.67000008
   17.81694603  137.01400757    0.30000001    2.67000008
   17.82111168  143.30299377    0.30000001    2.66000009
   17.82444572  134.97099304    0.30000001    2.67000008
   17.82750130  134.13000488    0.30000001    2.66000009
   17.83055687  131.95500183    0.31999999    2.66000009
   17.83111191  136.01400757    0.31999999    2.67000008
   17.83444595  127.35299683    0.31999999    2.67000008
   17.83750153  134.55099487    0.31999999    2.67000008
   17.84083366  135.43200684    0.34000000    2.67000008
   17.84416771  129.50399780    0.34000000    2.67000008
   17.84722328  129.28799438    0.36000001    2.67000008
   17.85055542  132.22200012    0.36000001    2.67000008
   17.85361099  133.77400208    0.36000001    2.67000008
   17.85972214  133.77400208    0.36000001    2.67000008
   17.86388969  132.30700684    0.38000000    2.67000008
   17.86444473  131.62699890    0.38000000    2.67000008
   17.86777878  130.09100342    0.38000000    2.67000008
   17.87083435  130.52900696    0.38000000    2.67000008
   17.87416649  131.00399780    0.36000001    2.67000008
   17.87750053  130.86300659    0.36000001    2.67000008
   17.88055611  137.98899841    0.36000001    2.67000008
   17.88388824  139.48500061    0.36000001    2.67000008
   17.88694382  133.61199951    0.40000001    2.67000008
   17.89027786  137.56100464    0.40000001    2.66000009
   17.89361191  134.96200562    0.40000001    2.67000008
   17.89666748  134.50199890    0.40000001    2.67000008
   17.89722252  137.06700134    0.40000001    2.66000009
   17.90277672  137.06700134    0.40000001    2.66000009
   17.90694427  144.90499878    0.41999999    2.66000009
   17.90999985  138.82899475    0.44000000    2.67000008
   17.91333389  140.84300232    0.44000000    2.67000008
   17.91666603  140.49499512    0.44000000    2.67000008
   17.91972160  138.81900024    0.44000000    2.67000008
   17.92305565  138.25100708    0.44000000    2.66000009
   17.92638779  134.07000732    0.41999999    2.66000009
   17.92944336  133.06799316    0.44000000    2.66000009
   17.93083191  131.22799683    0.44000000    2.66000009
   17.93305397  128.93499756    0.44000000    2.67000008
   17.93638802  134.69200134    0.46000001    2.67000008
   17.93944359  131.86900330    0.47999999    2.67000008
   17.94555473  131.86900330    0.47999999    2.66000009
   17.94972038  130.77099609    0.50000000    2.67000008
   17.95305634  128.04400635    0.47999999    2.67000008
   17.95611191  132.84599304    0.50000000    2.67000008
   17.95944595  129.20399475    0.51999998    2.67000008
   17.96250153  124.75900269    0.51999998    2.67000008
   17.96416664  130.80200195    0.51999998    2.66000009
   17.96611214  131.52299500    0.51999998    2.67000008
   17.96944427  135.42500305    0.51999998    2.67000008
   17.97249985  130.78999329    0.52999997    2.67000008
   17.97583389  127.94100189    0.52999997    2.66000009
   17.97916794  132.25300598    0.52999997    2.67000008
   17.98222351  129.54499817    0.52999997    2.67000008
   17.98833275  129.54499817    0.55000001    2.66000009
   17.99250031  124.81999969    0.55000001    2.66000009
   17.99583435  127.80699921    0.55000001    2.66000009
   17.99749947  119.37899780    0.55000001    2.66000009
   17.99944496  124.89299774    0.55000001    2.67000008
   18.00277710  133.01400757    0.55000001    2.66000009
   18.00583267  137.87500000    0.56999999    2.66000009
   18.00916672  134.77400208    0.55000001    2.67000008
   18.01250076  129.27099609    0.55000001    2.67000008
   18.01555634  125.45800018    0.55000001    2.67000008
   18.01888847  128.26300049    0.55000001    2.67000008
   18.02222252  129.63600159    0.51999998    2.67000008
   18.02527809  136.86599731    0.50000000    2.67000008
   18.03111076  136.86599731    0.50000000    2.66000009
   18.03527641  135.29899597    0.50000000    2.67000008
   18.03861046  136.48300171    0.50000000    2.66000009
   18.04194450  141.26699829    0.50000000    2.67000008
   18.04500008  134.48300171    0.50000000    2.67000008
   18.04833221  126.26599884    0.50000000    2.66000009
   18.05138779  129.21800232    0.47999999    2.67000008
   18.05472183  132.09800720    0.50000000    2.67000008
   18.05805397  130.95599365    0.50000000    2.66000009
   18.06110954  134.96899414    0.52999997    2.66000009
   18.06416512  132.02200317    0.55000001    2.66000009
   18.06472206  125.43599701    0.55000001    2.66000009
   18.06805611  131.88900757    0.47999999    2.66000009
   18.07416725  131.88900757    0.47999999    2.67000008
   18.07833481  135.00500488    0.52999997    2.66000009
   18.08139038  131.73699951    0.51999998    2.66000009
   18.08472252  130.20799255    0.56999999    2.66000009
   18.08805656  128.05999756    0.56999999    2.67000008
   18.09111214  128.86799622    0.58999997    2.66000009
   18.09444427  135.02000427    0.58999997    2.66000009
   18.09749985  132.80499268    0.64999998    2.66000009
   18.09805679  128.72000122    0.69000000    2.66000009
   18.10138893  131.40699768    0.67000002    2.66000009
   18.10444450  123.62200165    0.63000000    2.66000009
   18.10777855  134.38099670    0.64999998    2.66000009
   18.11111069  131.29699707    0.67000002    2.66000009
   18.11694527  131.29699707    0.75000000    2.67000008
   18.12111092  134.89199829    0.76999998    2.66000009
   18.12416649  129.75199890    0.76999998    2.66000009
   18.12750053  131.81300354    0.79000002    2.66000009
   18.13083267  130.47599792    0.80000001    2.66000009
   18.13111115  133.72999573    0.80000001    2.66000009
   18.13444519  126.21700287    0.86000001    2.66000009
   18.13777733  128.44000244    0.86000001    2.66000009
   18.14083290  132.63400269    0.92000002    2.66000009
   18.14416695  130.98599243    0.98000002    2.64000010
   18.14722252  127.19000244    1.09000003    2.66000009
   18.15055466  134.55999756    1.01999998    2.66000009
   18.15388870  133.55299377    1.01999998    2.66000009
   18.15972137  133.55299377    0.94000000    2.66000009
   18.16388893  134.43200684    0.95999998    2.66000009
   18.16444397  133.63400269    0.95999998    2.66000009
   18.16777802  131.89300537    0.94000000    2.67000008
   18.17083359  132.77299500    0.94000000    2.64000010
   18.17416573  133.52600098    0.86000001    2.66000009
   18.17749977  134.17599487    0.86000001    2.66000009
   18.18083191  131.64999390    0.86000001    2.66000009
   18.18388748  131.05799866    0.86000001    2.66000009
   18.18722153  141.05799866    0.79000002    2.66000009
   18.19055557  130.30499268    0.79000002    2.66000009
   18.19361115  126.20600128    0.75000000    2.66000009
   18.19694328  126.80300140    0.75000000    2.64000010
   18.19777679  129.32000732    0.75000000    2.64000010
   18.20250130  129.32000732    0.75000000    2.66000009
   18.20666695  127.70600128    0.75000000    2.66000009
   18.21000099  135.50500488    0.73000002    2.66000009
   18.21333504  138.46499634    0.73000002    2.66000009
   18.21638870  133.39999390    0.70999998    2.66000009
   18.21972275  136.85600281    0.73000002    2.66000009
   18.22277832  127.93000031    0.69000000    2.66000009
   18.22611237  123.21700287    0.70999998    2.67000008
   18.22944450  131.57299805    0.69000000    2.66000009
   18.23111153  132.76199341    0.70999998    2.66000009
   18.23305511  135.13999939    0.67000002    2.66000009
   18.23611069  133.64100647    0.67000002    2.67000008
   18.23944473  130.67599487    0.64999998    2.64000010
   18.24555588  130.67599487    0.63000000    2.66000009
   18.24972153  138.42900085    0.63000000    2.64000010
   18.25277710  136.69799805    0.61000001    2.66000009
   18.25611115  134.53700256    0.61000001    2.66000009
   18.25944519  130.49800110    0.61000001    2.66000009
   18.26250076  128.26199341    0.67000002    2.66000009
   18.26444435  131.29100037    0.67000002    2.66000009
   18.26638794  132.27099609    0.69000000    2.66000009
   18.26944351  130.86399841    0.69000000    2.66000009
   18.27277756  137.17199707    0.73000002    2.64000010
   18.27611160  137.42399597    0.73000002    2.64000010
   18.27916718  137.04699707    0.70999998    2.66000009
   18.28249931  132.76800537    0.70999998    2.66000009
   18.28833199  132.76800537    0.69000000    2.64000010
   18.29249954  136.42700195    0.69000000    2.66000009
   18.29555511  126.14499664    0.64999998    2.66000009
   18.29777718  130.27000427    0.64999998    2.66000009
   18.29944420  130.56399536    0.64999998    2.66000009
   18.30249977  130.69599915    0.63000000    2.66000009
   18.30583191  126.40399933    0.64999998    2.66000009
   18.30916595  129.87600708    0.63000000    2.66000009
   18.31222153  126.75000000    0.63000000    2.66000009
   18.31555557  129.12899780    0.63000000    2.66000009
   18.31861115  130.56300354    0.64999998    2.66000009
   18.32194519  133.93800354    0.64999998    2.66000009
   18.32527924  127.91300201    0.61000001    2.64000010
   18.33111191  127.91300201    0.61000001    2.64000010
   18.33527756  125.33100128    0.61000001    2.66000009
   18.33861160  129.01499939    0.56999999    2.66000009
   18.34166718  132.21800232    0.61000001    2.66000009
   18.34500122  128.84800720    0.61000001    2.66000009
   18.34805679  137.24600220    0.56999999    2.66000009
   18.35138893  129.93099976    0.56999999    2.66000009
   18.35472298  134.16999817    0.52999997    2.66000009
   18.35777855  138.52600098    0.52999997    2.66000009
   18.36111069  136.96800232    0.52999997    2.66000009
   18.36444473  129.71600342    0.52999997    2.67000008
   18.36499977  129.57299805    0.51999998    2.66000009
   18.36805534  131.03199768    0.51999998    2.64000010
   18.37388992  131.03199768    0.51999998    2.64000010
   18.37805557  133.52200317    0.51999998    2.64000010
   18.38138962  136.47599792    0.51999998    2.64000010
   18.38444519  133.14900208    0.52999997    2.64000010
   18.38777733  130.24600220    0.52999997    2.64000010
   18.39111137  125.42700195    0.58999997    2.66000009
   18.39416695  125.73000336    0.63000000    2.64000010
   18.39749908  122.78299713    0.67000002    2.66000009
   18.39833260  125.33999634    0.67000002    2.66000009
   18.40138817  127.66100311    0.70999998    2.64000010
   18.40444374  130.46099854    0.70999998    2.64000010
   18.40777779  133.56599426    0.81999999    2.64000010
   18.41110992  124.02500153    0.81999999    2.64000010
   18.41694450  124.02500153    0.83999997    2.66000009
   18.42111015  135.82299805    0.73000002    2.64000010
   18.42416573  138.67700195    0.69000000    2.64000010
   18.42749977  153.21400452    0.70999998    2.64000010
   18.43055534  129.00000000    0.70999998    2.64000010
   18.43166542  135.82000732    0.70999998    2.64000010
   18.43416595  134.21200562    0.76999998    2.66000009
   18.43750000  134.83700562    0.81999999    2.64000010
   18.44055557  132.00999451    0.88000000    2.64000010
   18.44388771  138.77799988    0.83999997    2.64000010
   18.44722176  140.83799744    0.86000001    2.64000010
   18.45027924  130.64399719    0.86000001    2.64000010
   18.45361137  137.54600525    0.88000000    2.64000010
   18.45972252  137.54600525    0.83999997    2.64000010
   18.46389008  128.58900452    0.98000002    2.64000010
   18.46500015  132.69999695    0.98000002    2.64000010
   18.46750069  127.01999664    1.03999996    2.64000010
   18.47083473  124.48100281    1.25000000    2.61999989
   18.47389030  131.66200256    1.21000004    2.64000010
   18.47722244  136.14399719    1.21000004    2.64000010
   18.48055649  123.28199768    1.25000000    2.61999989
   18.48361206  130.73599243    1.23000002    2.64000010
   18.48694420  129.23100281    1.36000001    2.64000010
   18.49027824  131.92900085    1.44000006    2.64000010
   18.49333382  140.36900330    1.44000006    2.64000010
   18.49666786  134.15199280    1.44000006    2.61999989
   18.49833298  135.80599976    1.44000006    2.61999989
   18.50250053  135.80599976    1.41999996    2.61999989
   18.50666618  130.19700623    1.55999994    2.64000010
   18.51000023  123.94799805    1.61000001    2.64000010
   18.51305580  127.50000000    1.61000001    2.61999989
   18.51638794  138.54200745    1.60000002    2.61999989
   18.51944351  126.02700043    1.55999994    2.61999989
   18.52277756  126.24400330    1.44000006    2.61999989
   18.52611160  122.51300049    1.03999996    2.64000010
   18.52916718  124.16400146    0.89999998    2.61999989
   18.53166580  137.61500549    0.89999998    2.64000010
   18.53277779  132.25500488    0.89999998    2.64000010
   18.53610992  135.64599609    0.81999999    2.64000010
   18.53944397  129.66600037    0.79000002    2.64000010
   18.54527664  129.66600037    0.86000001    2.61999989
   18.54944420  121.31600189    0.86000001    2.64000010
   18.55277634  131.92100525    0.81999999    2.64000010
   18.55583191  127.76699829    0.73000002    2.64000010
   18.55916595  125.59300232    0.70999998    2.64000010
   18.56250000  127.45899963    0.69000000    2.64000010
   18.56499863  129.26800537    0.69000000    2.64000010
   18.56611061  128.56100464    0.67000002    2.64000010
   18.56944466  130.27400208    0.67000002    2.64000010
   18.57250023  124.59300232    0.69000000    2.64000010
   18.57583427  128.25300598    0.67000002    2.64000010
   18.57916832  128.21699524    0.79000002    2.64000010
   18.58222389  131.19000244    0.95999998    2.61999989
   18.58833313  131.19000244    1.75000000    2.61999989
   18.59222221  132.34399414    1.76999998    2.61999989
   18.59555626  135.94700623    1.46000004    2.64000010
   18.59833336  127.48600006    1.41999996    2.61999989
   18.59916687  131.60000610    1.30999994    2.64000010
   18.60250092  131.26199341    1.16999996    2.64000010
   18.60555649  128.54299927    1.16999996    2.64000010
   18.60888863  130.73599243    0.86000001    2.64000010
   18.61222267  127.66500092    0.83999997    2.61999989
   18.61527824  126.84100342    0.80000001    2.61999989
   18.61861038  140.80400085    0.80000001    2.61999989
   18.62194443  130.12399292    0.80000001    2.61999989
   18.62500000  127.94200134    0.76999998    2.64000010
   18.63111115  127.94200134    0.67000002    2.64000010
   18.64944458  145.01199341    0.73000002    2.61999989
   18.65277672  135.60600281    0.73000002    2.61999989
   18.65583229  133.58000183    0.73000002    2.61999989
   18.65916634  139.89900208    0.73000002    2.61999989
   18.66250038  132.57099915    0.80000001    2.64000010
   18.66555595  128.69200134    0.89999998    2.64000010
   18.66888809  129.92799377    0.89999998    2.64000010
   18.67416573  129.92799377    0.89999998    2.61999989
   18.67833328  126.52400208    0.89999998    2.61999989
   18.68166542  136.72000122    1.01999998    2.61999989
   18.68249893  135.05599976    1.01999998    2.61999989
   18.68527603  135.07000732    1.23000002    2.61999989
   18.68833160  129.71299744    1.30999994    2.61999989
   18.69166565  134.71800232    1.51999998    2.61999989
   18.69499969  132.90299988    1.51999998    2.61999989
   18.69805527  131.82099915    1.50000000    2.64000010
   18.70138931  131.35499573    1.38000000    2.61999989
   18.70472336  134.52499390    1.25000000    2.61999989
   18.70777893  134.32499695    1.21000004    2.61999989
   18.71111107  134.41499329    1.23000002    2.61999989
   18.71694565  134.41499329    1.11000001    2.61999989
   18.72111130  136.16700745    1.11000001    2.61999989
   18.72444534  137.05799866    1.00000000    2.61999989
   18.72750092  142.46400452    0.98000002    2.61999989
   18.73083305  132.75900269    1.00000000    2.61999989
   18.73416710  133.51499939    0.98000002    2.61999989
   18.73722267  129.71000671    0.98000002    2.61999989
   18.74055672  130.95300293    1.00000000    2.64000010
   18.74388885  137.12500000    1.05999994    2.61999989
   18.74694443  136.54899597    1.14999998    2.61999989
   18.74916649  139.71400452    1.16999996    2.61999989
   18.75083351  136.31799316    1.21000004    2.59999990
   18.75388908  131.96899414    1.21000004    2.59999990
   18.76000023  131.96899414    1.07000005    2.61999989
   18.76388931  141.33200073    1.01999998    2.61999989
   18.76722145  132.11900330    0.98000002    2.61999989
   18.77055550  124.51699829    0.94000000    2.61999989
   18.77361107  140.71000671    1.00000000    2.61999989
   18.77694511  132.86300659    1.00000000    2.61999989
   18.78027725  140.34700012    1.11000001    2.59999990
   18.78249931  136.53599548    1.07000005    2.61999989
   18.78388786  133.89500427    1.07000005    2.61999989
   18.78694344  135.38699341    1.05999994    2.59999990
   18.79027748  137.28599548    1.21000004    2.61999989
   18.79361153  139.60200500    1.63000000    2.59999990
   18.79666710  142.56399536    1.63000000    2.59999990
   18.80277634  142.56399536    1.19000006    2.61999989
   18.80694389  143.14999390    1.19000006    2.59999990
   18.80999947  141.60000610    1.19000006    2.61999989
   18.81333351  133.75399780    1.16999996    2.61999989
   18.81583214  142.97700500    0.94000000    2.61999989
   18.81694603  136.27900696    0.89999998    2.59999990
   18.82000160  136.62800598    0.81999999    2.59999990
   18.82333374  134.66200256    0.94000000    2.59999990
   18.82666779  139.27200317    0.92000002    2.61999989
   18.82972336  134.50700378    0.80000001    2.61999989
   18.83305550  141.22900391    0.79000002    2.61999989
   18.83638954  137.09500122    0.80000001    2.59999990
   18.83944511  143.23300171    0.83999997    2.61999989
   18.84555626  143.23300171    0.76999998    2.61999989
   18.84972191  130.53199768    0.79000002    2.61999989
   18.85305595  139.86500549    0.88000000    2.59999990
   18.85611153  130.80000305    1.01999998    2.59999990
   18.85944557  138.35600281    1.05999994    2.59999990
   18.86250114  127.71099854    0.88000000    2.61999989
   18.86583328  129.81599426    0.88000000    2.59999990
   18.86916733  139.02000427    0.92000002    2.59999990
   18.87222290  129.90199280    0.94000000    2.59999990
   18.87555504  130.84500122    0.94000000    2.59999990
   18.87888908  133.70599365    1.03999996    2.59999990
   18.88194466  136.88499451    1.03999996    2.59999990
   18.88249969  133.54899597    1.05999994    2.59999990
   18.88833237  133.54899597    1.03999996    2.57999992
   18.89249992  140.26899719    0.86000001    2.59999990
   18.89583397  139.05400085    0.83999997    2.59999990
   18.89888954  132.29299927    0.81999999    2.59999990
   18.90222168  142.69500732    0.76999998    2.59999990
   18.90555573  147.41000366    0.75000000    2.59999990
   18.90861130  140.27400208    0.75000000    2.59999990
   18.91194344  133.57800293    0.79000002    2.59999990
   18.91527748  130.70500183    0.89999998    2.59999990
   18.91583252  128.15400696    0.89999998    2.59999990
   18.91888809  137.50599670    0.92000002    2.57999992
   18.92194366  135.26199341    1.07000005    2.59999990
   18.92527771  132.78500366    1.30999994    2.59999990
   18.93111038  132.78500366    2.28999996    2.57999992
   18.93527603  142.40400696    2.96000004    2.57999992
   18.93861008  131.85299683    3.01999998    2.59999990
   18.94194412  127.62699890    2.07999992    2.59999990
   18.94499969  132.20599365    1.69000006    2.57999992
   18.94833183  132.09300232    1.66999996    2.59999990
   18.94916534  137.22399902    1.75000000    2.59999990
   18.95194435  136.31599426    1.78999996    2.57999992
   18.95499992  137.79699707    1.63000000    2.57999992
   18.95833397  135.48199463    1.69000006    2.57999992
   18.96166801  133.69900513    1.75000000    2.57999992
   18.96472359  141.84599304    1.50000000    2.59999990
   18.96805573  134.15600586    1.50000000    2.59999990
   18.97416687  134.15600586    1.50000000    2.57999992
   18.97833443  133.64900208    1.48000002    2.59999990
   18.98139000  143.03300476    1.41999996    2.57999992
   18.98250008  132.05999756    1.41999996    2.57999992
   18.98500061  139.04600525    1.36000001    2.59999990
   18.98805618  140.04499817    1.28999996    2.59999990
   18.99138832  141.96899414    1.30999994    2.57999992
   18.99472237  135.52000427    1.30999994    2.57999992
   18.99777794  134.49000549    1.38000000    2.59999990
   19.00111198  136.77000427    1.44000006    2.59999990
   19.00444412  133.20300293    1.80999994    2.59999990
   19.00749969  143.99400330    1.76999998    2.57999992
   19.01083374  140.49200439    1.75000000    2.59999990
   19.01694489  140.49200439    1.34000003    2.57999992
   19.02111053  135.76300049    1.14999998    2.57999992
   19.02416611  135.72700500    1.07000005    2.57999992
   19.02750015  140.00399780    1.09000003    2.59999990
   19.03083229  139.51800537    1.09000003    2.59999990
   19.03388786  141.76499939    1.09000003    2.57999992
   19.03722191  136.44599915    1.07000005    2.57999992
   19.04055595  139.34700012    1.07000005    2.59999990
   19.04361153  147.42799377    1.05999994    2.59999990
   19.04694366  144.81700134    1.13000000    2.55999994
   19.04916573  141.07699585    1.14999998    2.57999992
   19.05055428  139.76400757    1.14999998    2.57999992
   19.05388832  147.89199829    1.13000000    2.57999992
   19.05972099  147.89199829    1.11000001    2.57999992
   19.06388855  138.86599731    1.07000005    2.59999990
   19.06722260  151.19999695    1.05999994    2.57999992
   19.07027817  142.72300720    1.05999994    2.59999990
   19.07361221  140.05200195    1.00000000    2.59999990
   19.07694626  133.38099670    1.00000000    2.59999990
   19.08000183  141.56700134    0.98000002    2.59999990
   19.08250046  143.08799744    1.01999998    2.57999992
   19.08388901  143.77099609    1.01999998    2.57999992
   19.08722305  143.42799377    2.89000010    2.55999994
   19.09027863  138.18499756    2.71000004    2.55999994
   19.09361267  144.25399780    2.40000010    2.55999994
   19.09666824  138.42300415    1.75000000    2.57999992
   19.10250092  138.42300415    1.75000000    2.55999994
   19.10666656  147.96099854    1.60000002    2.57999992
   19.11000061  146.73800659    1.60000002    2.57999992
   19.11333466  138.98300171    1.55999994    2.57999992
   19.11583328  140.90400696    1.53999996    2.57999992
   19.11694527  136.43699646    1.53999996    2.57999992
   19.12027740  137.89199829    1.34000003    2.57999992
   19.12333298  147.15800476    1.44000006    2.57999992
   19.12666702  150.48599243    1.58000004    2.57999992
   19.12972260  144.02400208    1.53999996    2.57999992
   19.13305473  143.85400391    1.51999998    2.57999992
   19.13638878  144.65400696    1.50000000    2.57999992
   19.13944435  145.32600403    1.50000000    2.57999992
   19.14555550  145.32600403    1.51999998    2.55999994
   19.14972115  136.49699402    1.61000001    2.55999994
   19.15277672  138.04200745    1.55999994    2.57999992
   19.15611076  143.48899841    1.46000004    2.57999992
   19.15944481  145.23100281    1.46000004    2.57999992
   19.16250038  145.94599915    1.46000004    2.55999994
   19.16583252  141.02699280    1.33000004    2.57999992
   19.16916656  147.86500549    1.39999998    2.55999994
   19.17222214  146.04600525    1.09000003    2.57999992
   19.17555428  151.49899292    0.95999998    2.59999990
   19.17888832  140.44900513    0.94000000    2.55999994
   19.18194389  145.22799683    0.88000000    2.57999992
   19.18249893  134.13000488    0.89999998    2.55999994
   19.18833160  134.13000488    1.01999998    2.57999992
   19.19249916  156.88299561    1.03999996    2.55999994
   19.19555473  148.32499695    0.92000002    2.55999994
   19.19888878  146.17300415    0.92000002    2.55999994
   19.20222282  146.07499695    1.23000002    2.55999994
   19.20555687  143.46699524    1.38000000    2.55999994
   19.20861244  143.80900574    1.46000004    2.55999994
   19.21194458  144.87399292    1.61000001    2.55999994
   19.21500015  145.58299255    1.58000004    2.55999994
   19.21583366  138.44900513    1.58000004    2.55999994
   19.21888924  136.44400024    1.53999996    2.55999994
   19.22222328  139.61399841    1.39999998    2.55999994
   19.22527885  145.54200745    1.39999998    2.55999994
   19.23111153  145.54200745    1.21000004    2.55999994
   19.23527718  139.24200439    1.28999996    2.55999994
   19.23861122  141.03300476    1.28999996    2.55999994
   19.24166679  144.43699646    1.33000004    2.55999994
   19.24500084  139.85899353    1.28999996    2.57999992
   19.24833298  143.33200073    1.34000003    2.55999994
   19.24916649  144.60800171    1.34000003    2.55999994
   19.25194359  138.56900024    1.26999998    2.55999994
   19.25527763  142.90600586    1.48000002    2.55999994
   19.25833321  139.51100159    1.58000004    2.53999996
   19.26166725  136.77299500    1.58000004    2.53999996
   19.26472282  133.70500183    1.61000001    2.55999994
   19.26805496  133.47700500    1.66999996    2.53999996
   19.27388954  133.47700500    0.89999998    2.55999994
   19.27805519  141.13600159    0.89999998    2.57999992
   19.28138924  144.81300354    0.83999997    2.55999994
   19.28249931  145.86099243    0.83999997    2.55999994
   19.28499985  138.38499451    0.88000000    2.55999994
   19.28833199  141.69599915    0.83999997    2.57999992
   19.29138756  145.06700134    0.79000002    2.55999994
   19.29472160  138.86399841    0.76999998    2.55999994
   19.29805565  133.72500610    0.94000000    2.55999994
   19.30111122  142.07699585    0.92000002    2.55999994
   19.30444336  141.56199646    0.89999998    2.55999994
   19.30777740  142.70500183    0.86000001    2.55999994
   19.31083298  137.78799438    1.03999996    2.55999994
   19.31694603  137.78799438    1.46000004    2.55999994
   19.32111168  146.22799683    1.51999998    2.53999996
   19.32416725  141.93899536    1.55999994    2.55999994
   19.32750130  144.92900085    1.55999994    2.55999994
   19.33083344  141.87899780    1.66999996    2.53999996
   19.33388901  138.39799500    1.58000004    2.55999994
   19.33722305  140.66099548    1.71000004    2.53999996
   19.34027863  135.89500427    1.30999994    2.55999994
   19.34361267  137.84899902    1.28999996    2.55999994
   19.34694481  140.39799500    1.28999996    2.55999994
   19.34916687  140.63299561    1.23000002    2.53999996
   19.35055542  138.16700745    1.23000002    2.53999996
   19.35388947  144.20399475    1.21000004    2.55999994
   19.35972214  144.20399475    1.16999996    2.55999994
   19.36388969  140.40100098    1.13000000    2.53999996
   19.36694527  136.77400208    1.09000003    2.53999996
   19.37027740  138.19099426    1.03999996    2.55999994
   19.37361145  147.96899414    1.13000000    2.55999994
   19.37666702  133.54200745    1.34000003    2.53999996
   19.38000107  136.79200745    1.96000004    2.55999994
   19.38249969  137.69700623    1.71000004    2.53999996
   19.38361168  135.19799805    1.73000002    2.55999994
   19.38694382  138.77999878    1.73000002    2.53999996
   19.38999939  138.64500427    2.01999998    2.53999996
   19.39333344  138.30599976    1.98000002    2.53999996
   19.39666748  138.79400635    2.93000007    2.51999998
   19.40250015  138.79400635    2.67000008    2.53999996
   19.40666580  137.73100281    2.36999989    2.53999996
   19.40999985  141.44599915    1.51999998    2.53999996
   19.41305542  137.28500366    1.38000000    2.53999996
   19.41583252  139.31700134    1.48000002    2.53999996
   19.41666603  140.03799438    1.48000002    2.53999996
   19.42000008  145.49000549    1.53999996    2.53999996
   19.42305565  141.21899414    1.51999998    2.53999996
   19.42638779  148.52900696    1.61000001    2.53999996
   19.42972183  150.09500122    1.61000001    2.51999998
   19.43277740  148.39500427    1.69000006    2.53999996
   19.43610954  142.71800232    1.34000003    2.53999996
   19.43916512  146.30999756    1.36000001    2.53999996
   19.44527626  146.30999756    1.33000004    2.53999996
   19.44944382  145.68800354    1.53999996    2.55999994
   19.45277786  148.65800476    2.15000010    2.51999998
   19.45611191  153.71400452    2.96000004    2.51999998
   19.45916748  148.82299805    3.75000000    2.50000000
   19.46250153  150.35499573    4.90999985    2.48000002
   19.46555710  143.33200073    4.90999985    2.48000002
   19.46888924  146.80299377    4.90999985    2.48000002
   19.47222328  148.53599548    4.90999985    2.46000004
   19.47527885  155.93699646    4.90999985    2.48000002
   19.47861099  143.88099670    4.90999985    2.46000004
   19.48194504  142.85099792    4.67999983    2.48000002
   19.48250008  145.89100647    3.84999990    2.50000000
   19.48833275  145.89100647    2.42000008    2.53999996
   19.49250031  154.78900146    2.05999994    2.51999998
   19.49555588  148.55999756    2.11999989    2.51999998
   19.49888992  146.13800049    2.15000010    2.51999998
   19.50194359  141.51600647    2.13000011    2.51999998
   19.50527763  142.84199524    1.89999998    2.51999998
   19.50861168  147.87800598    1.69000006    2.51999998
   19.51166725  147.83500671    2.34999990    2.51999998
   19.51499939  149.06399536    2.00000000    2.51999998
   19.51583290  141.24299622    1.94000006    2.51999998
   19.51861000  141.95599365    2.30999994    2.50000000
   19.52194405  157.49499512    2.07999992    2.51999998
   19.52499962  142.66700745    1.80999994    2.51999998
   19.53111076  142.66700745    1.46000004    2.51999998
   19.53527641  146.14900208    1.89999998    2.51999998
   19.53861046  141.72099304    2.01999998    2.51999998
   19.54166603  136.07099915    2.03999996    2.51999998
   19.54500008  149.90299988    2.00000000    2.50000000
   19.54805565  147.63499451    3.51999998    2.50000000
   19.54916573  151.89700317    3.93000007    2.48000002
   19.55166626  150.70799255    3.76999998    2.48000002
   19.55499840  150.29299927    3.21000004    2.50000000
   19.55805397  140.70399475    2.61999989    2.50000000
   19.56138802  143.35800171    1.78999996    2.51999998
   19.56472206  143.78399658    1.61000001    2.51999998
   19.56777954  151.55599976    1.80999994    2.50000000
   19.57389069  151.55599976    1.75000000    2.50000000
   19.57805634  146.75599670    1.71000004    2.50000000
   19.58139038  146.91799927    1.28999996    2.51999998
   19.58250046  149.10400391    1.28999996    2.53999996
   19.58500099  140.28999329    1.28999996    2.51999998
   19.58833313  148.10499573    1.28999996    2.51999998
   19.59138870  155.18099976    1.28999996    2.51999998
   19.59472275  148.45500183    1.19000006    2.51999998
   19.59805679  151.05099487    1.25000000    2.51999998
   19.60111237  152.33399963    1.19000006    2.50000000
   19.60444450  150.02900696    1.14999998    2.51999998
   19.60777855  147.52499390    1.14999998    2.51999998
   19.61083412  147.73100281    0.80000001    2.51999998
   19.61666679  147.73100281    0.86000001    2.51999998
   19.62083435  144.02400208    0.83999997    2.51999998
   19.62416649  147.40899658    0.86000001    2.51999998
   19.62750053  145.33799744    0.94000000    2.50000000
   19.63055611  149.59500122    0.94000000    2.51999998
   19.63388824  146.09700012    1.13000000    2.51999998
   19.63694382  141.61099243    1.23000002    2.50000000
   19.64027786  142.60899353    1.16999996    2.50000000
   19.64361191  149.66600037    1.19000006    2.50000000
   19.64666748  156.42700195    1.16999996    2.50000000
   19.64916611  150.67999268    1.16999996    2.50000000
   19.67000008  150.67999268    1.05999994    2.50000000
   19.67416573  156.08099365    1.09000003    2.50000000
   19.67722130  159.12100220    1.16999996    2.50000000
   19.68055534  148.60099792    1.39999998    2.50000000
   19.68277740  159.39999390    1.39999998    2.50000000
   19.68416595  156.63499451    1.39999998    2.50000000
   19.68750000  161.56100464    1.38000000    2.50000000
   19.69055557  154.13299561    1.38000000    2.51999998
   19.69388771  147.95599365    1.51999998    2.50000000
   19.69722176  144.92700195    2.00000000    2.48000002
   19.70027924  155.89500427    1.78999996    2.50000000
   19.70361137  143.60899353    1.63000000    2.48000002
   19.70694542  152.41400146    1.64999998    2.48000002
   19.71277809  152.41400146    2.09999990    2.48000002
   19.71694565  157.49499512    2.28999996    2.48000002
   19.72000122  152.30799866    1.86000001    2.48000002
   19.72333336  150.05599976    1.23000002    2.50000000
   19.72638893  160.48699951    1.16999996    2.50000000
   19.72972298  152.75999451    1.01999998    2.50000000
   19.73305511  159.71299744    0.98000002    2.50000000
   19.73611069  143.73899841    0.89999998    2.48000002
   19.73944473  157.44099426    0.98000002    2.48000002
   19.74277878  160.43099976    1.05999994    2.50000000
   19.74583435  150.70799255    1.07000005    2.48000002
   19.74916649  149.50799561    1.07000005    2.48000002
   19.74972153  147.18400574    1.07000005    2.48000002
   19.75555611  147.18400574    1.30999994    2.48000002
   19.75972176  149.05200195    0.76999998    2.50000000
   19.76277733  154.92399597    0.76999998    2.50000000
   19.76611137  163.83200073    0.83999997    2.48000002
   19.76944351  156.10099792    0.83999997    2.50000000
   19.77249908  145.43600464    0.89999998    2.48000002
   19.77583313  152.43299866    0.94000000    2.48000002
   19.77916718  154.47300720    0.94000000    2.48000002
   19.78222275  152.25700378    0.95999998    2.48000002
   19.78305435  160.92399597    0.95999998    2.48000002
   19.78583336  145.19700623    0.98000002    2.48000002
   19.78916550  158.67199707    1.05999994    2.48000002
   19.79249954  144.93600464    1.05999994    2.48000002
   19.79833221  144.93600464    0.98000002    2.48000002
   19.80249977  134.11799622    0.83999997    2.48000002
   19.80583191  150.12100220    0.83999997    2.48000002
