    HOUR (UT)   FLARE FACTOR    SKY TESTER    SUN TESTER
   11.04083347   -1.00000000   -1.00000000   -1.00000000
   11.11805534  116.83200073    4.90999985    1.89999998
   11.12138939  117.48999786    4.90999985    1.89999998
   11.12444496  109.85399628    4.90999985    1.89999998
   11.12777805   94.40049744    4.90999985    1.91999996
   11.13111115   99.86060333    4.90999985    1.91999996
   11.13416672  108.79000092    4.90999985    1.91999996
   11.13833332  108.79000092    4.90999985    1.91999996
   11.14249992  112.38099670    4.90999985    1.91999996
   11.14583302  114.60700226    4.90999985    1.91999996
   11.14888859   99.64640045    4.90999985    1.91999996
   11.15138817  125.21499634    4.90999985    1.91999996
   11.15277767  116.77300262    4.90999985    1.91999996
   11.15583324  118.13300323    4.90999985    1.94000006
   11.15916634   99.91840363    4.90999985    1.94000006
   11.16249943  109.16100311    4.90999985    1.94000006
   11.16555500  105.59200287    4.90999985    1.94000006
   11.16888905  101.55999756    4.90999985    1.96000004
   11.17194462  100.16899872    4.90999985    1.96000004
   11.17527771  120.75399780    4.90999985    1.96000004
   11.18138885  120.75399780    4.90999985    1.96000004
   11.18527794   94.72460175    4.90999985    1.98000002
   11.18861103   99.94989777    4.90999985    1.96000004
   11.19194412  102.87200165    4.90999985    1.98000002
   11.19499969   97.40100098    4.90999985    1.98000002
   11.19833374  121.54299927    4.90999985    1.98000002
   11.20138836   90.41380310    4.90999985    1.98000002
   11.20472240   99.62560272    4.90999985    1.98000002
   11.20805550   97.78140259    4.90999985    2.00000000
   11.21111107   98.07409668    4.90999985    2.00000000
   11.21444416  104.16699982    4.90999985    2.00000000
   11.21777725  108.73500061    4.90999985    2.01999998
   11.21805477   99.98159790    4.90999985    2.01999998
   11.22416592   99.98159790    4.90999985    2.01999998
   11.22833252  110.86399841    4.90999985    2.01999998
   11.23138809  118.85900116    4.90999985    2.01999998
   11.23472214  114.14199829    4.90999985    2.01999998
   11.23777771  101.14499664    4.90999985    2.03999996
   11.24111176  129.22799683    4.90999985    2.03999996
   11.24444485  111.58499908    4.90999985    2.01999998
   11.24750042  113.82700348    4.90999985    2.01999998
   11.25083351  108.98799896    4.90999985    2.03999996
   11.25166702   93.89579773    4.90999985    2.01999998
   11.25444412  127.17600250    4.90999985    2.03999996
   11.25777817   97.76799774    4.90999985    2.03999996
   11.26083374  102.41400146    4.90999985    2.03999996
   11.26694393  102.41400146    4.90999985    2.03999996
   11.27111053   96.62100220    4.90999985    2.05999994
   11.27416611   94.62229919    4.90999985    2.05999994
   11.27750015  110.60800171    4.90999985    2.05999994
   11.28083324  111.56099701    4.90999985    2.05999994
   11.28388977   97.61679840    4.90999985    2.05999994
   11.28500080  108.24800110    4.90999985    2.05999994
   11.28750038  106.14399719    4.90999985    2.05999994
   11.29083347  108.23000336    4.90999985    2.07999992
   11.29388905  107.04900360    4.90999985    2.07999992
   11.29722309  103.92900085    4.90999985    2.07999992
   11.30055618  111.48999786    4.90999985    2.07999992
   11.30361176   99.53829956    4.90999985    2.07999992
   11.30972195   99.53829956    4.90999985    2.07999992
   11.31388950  110.34500122    4.90999985    2.09999990
   11.31722260  118.43199921    4.90999985    2.09999990
   11.31833363  110.76999664    4.90999985    2.07999992
   11.32083321   97.02999878    4.90999985    2.09999990
   11.32416630  113.70099640    4.90999985    2.09999990
   11.32722187   97.99369812    4.90999985    2.09999990
   11.33055592  101.02700043    4.90999985    2.09999990
   11.33388901  123.40499878    4.90999985    2.09999990
   11.33694458  104.25299835    4.90999985    2.11999989
   11.34027767  100.45999908    4.90999985    2.09999990
   11.34361076   89.86430359    4.90999985    2.11999989
   11.34666634  112.17600250    4.90999985    2.11999989
   11.35249996  112.17600250    4.90999985    2.11999989
   11.35666752  113.44899750    4.90999985    2.11999989
   11.36000061   92.89029694    4.90999985    2.13000011
   11.36333370   94.10119629    4.90999985    2.13000011
   11.36638927  118.62100220    4.90999985    2.13000011
   11.36972237  122.64299774    4.90999985    2.13000011
   11.37277794   97.16269684    4.90999985    2.13000011
   11.37611103  111.55400085    4.90999985    2.13000011
   11.37944412  106.34100342    4.90999985    2.13000011
   11.38249969  109.54799652    4.90999985    2.13000011
   11.38500023   97.48819733    4.90999985    2.15000010
   11.38611126  112.98600006    4.90999985    2.13000011
   11.38944435   99.66000366    4.90999985    2.15000010
   11.39555550   99.66000366    4.90999985    2.13000011
   11.39972210   91.82089996    4.90999985    2.15000010
   11.40277767   95.96160126    4.90999985    2.15000010
   11.40611076   98.40689850    4.90999985    2.15000010
   11.40916634   90.34359741    4.90999985    2.15000010
   11.41249943   94.30660248    4.90999985    2.17000008
   11.41583252   87.25270081    4.90999985    2.17000008
   11.41833401   96.77610016    4.90999985    2.17000008
   11.41944504   86.95099640    4.90999985    2.17000008
   11.42277813   87.43299866    4.90999985    2.17000008
   11.42583370   90.23590088    4.90999985    2.17000008
   11.42916679   93.87850189    4.90999985    2.17000008
   11.43249989   88.70909882    4.90999985    2.17000008
   11.43833351   88.70909882    4.90999985    2.17000008
   11.44250011   89.90930176    4.90999985    2.19000006
   11.44555569   97.91799927    4.90999985    2.19000006
   11.44888878   88.37960052    4.90999985    2.17000008
   11.45166683   99.86820221    4.90999985    2.19000006
   11.45249939   88.44730377    4.90999985    2.19000006
   11.45583344   92.70240021    4.90999985    2.19000006
   11.45888901   92.76059723    4.90999985    2.19000006
   11.46222210  104.90799713    4.90999985    2.19000006
   11.46555519   98.65010071    4.90999985    2.19000006
   11.46861076   99.64440155    4.90999985    2.19000006
   11.47194386  123.64099884    4.90999985    2.19000006
   11.47527695  102.79599762    4.90999985    2.21000004
   11.48111057  102.79599762    4.90999985    2.21000004
   11.48527813  118.90599823    4.90999985    2.21000004
   11.48861122  111.38099670    4.90999985    2.21000004
   11.49166679  107.63700104    4.90999985    2.23000002
   11.49499989  120.46800232    4.90999985    2.21000004
   11.49833393  113.55100250    4.90999985    2.21000004
   11.50138855   92.37139893    4.90999985    2.23000002
   11.50472260  121.01999664    4.90999985    2.23000002
   11.50777817  114.67800140    4.90999985    2.21000004
   11.51111126  127.66400146    4.90999985    2.23000002
   11.51444435  110.37599945    4.90999985    2.23000002
   11.51749992  112.97100067    4.90999985    2.23000002
   11.51833344   99.09690094    4.90999985    2.23000002
   11.52388859   99.09690094    4.90999985    2.25000000
   11.52805519  113.98999786    4.90999985    2.25000000
   11.53138828  106.23500061    4.90999985    2.25000000
   11.53472233  112.78700256    4.90999985    2.23000002
   11.53777790  103.01200104    4.90999985    2.25000000
   11.54111195  110.52200317    4.90999985    2.25000000
   11.54416752  114.27799988    4.90999985    2.25000000
   11.54750061  108.00800323    4.90999985    2.25000000
   11.55083370   93.94180298    4.90999985    2.25000000
   11.55166721  122.13300323    4.90999985    2.25000000
   11.55416679  115.61599731    4.90999985    2.25000000
   11.55749989   94.98999786    4.90999985    2.26999998
   11.56083393   88.32659912    4.90999985    2.26999998
   11.56694412   88.32659912    4.90999985    2.25000000
   11.57111073   91.53279877    4.90999985    2.25000000
   11.57416630  105.05300140    4.90999985    2.26999998
   11.57750034   87.29100037    4.90999985    2.25000000
   11.58083344   88.77380371    4.90999985    2.26999998
   11.58388901   94.06379700    4.90999985    2.25000000
   11.58500004  110.55000305    4.90999985    2.26999998
   11.58749962   91.83070374    4.90999985    2.26999998
   11.59083271   92.55560303    4.90999985    2.28999996
   11.59416676  111.06300354    4.90999985    2.28999996
   11.59722233   93.43650055    4.90999985    2.26999998
   11.60055637   97.17410278    4.90999985    2.28999996
   11.60361195   95.64689636    4.90999985    2.28999996
   11.60972214   95.64689636    4.90999985    2.28999996
   11.61388969   89.68699646    4.90999985    2.28999996
   11.61694431   93.55359650    4.90999985    2.28999996
   11.61833382  116.74500275    4.90999985    2.28999996
   11.62055588   99.82859802    4.90999985    2.28999996
   11.62388897  107.37699890    4.90999985    2.28999996
   11.62722206  109.05699921    4.90999985    2.28999996
   11.63027763  102.86499786    4.90999985    2.30999994
   11.63361073  111.45800018    4.90999985    2.28999996
   11.63666630  116.37100220    4.90999985    2.28999996
   11.64000034  140.41000366    4.90999985    2.30999994
   11.64333344  109.50900269    4.90999985    2.30999994
   11.64638901  126.36599731    4.90999985    2.30999994
   11.65249920  126.36599731    4.90999985    2.30999994
   11.65666676   99.91960144    4.90999985    2.30999994
   11.65999985  116.81800079    4.90999985    2.30999994
   11.66305542  131.22200012    4.90999985    2.30999994
   11.66638851  119.11599731    4.90999985    2.32999992
   11.66972256  101.48400116    4.90999985    2.32999992
   11.67277813  118.56700134    4.90999985    2.32999992
   11.67611122  116.89800262    4.90999985    2.32999992
   11.67916679  108.49500275    4.90999985    2.32999992
   11.68249989  109.37000275    4.90999985    2.32999992
   11.68500042  107.20300293    4.90999985    2.32999992
   11.68611145   95.46009827    4.90999985    2.32999992
   11.68944454  105.15399933    4.90999985    2.32999992
   11.69527817  105.15399933    4.90999985    2.32999992
   11.69944477  121.73999786    4.90999985    2.34999990
   11.70277786  101.61699677    4.90999985    2.34999990
   11.70611095  111.87300110    4.90999985    2.34999990
   11.70916653   87.10430145    4.90999985    2.32999992
   11.71249962   94.84940338    4.90999985    2.34999990
   11.71555519   94.45960236    4.90999985    2.34999990
   11.71833324   99.32599640    4.90999985    2.34999990
   11.71916580   91.82959747    4.90999985    2.32999992
   11.72249985  110.02600098    4.90999985    2.34999990
   11.72583294  117.99400330    4.90999985    2.34999990
   11.72888851  128.44000244    4.90999985    2.34999990
   11.73222160  134.31399536    4.90999985    2.34999990
   11.73833370  134.31399536    4.90999985    2.36999989
   11.74250031  101.80400085    4.90999985    2.34999990
   11.74555588  111.66999817    4.90999985    2.34999990
   11.74888897  100.45800018    4.90999985    2.34999990
   11.75166702  113.00000000    4.90999985    2.36999989
   11.75249958  123.38500214    4.90999985    2.34999990
   11.75583363  112.59500122    4.90999985    2.36999989
   11.75916672  118.05599976    4.90999985    2.36999989
   11.76222229  102.65399933    4.90999985    2.36999989
   11.76555538   98.07620239    4.90999985    2.36999989
   11.76861095  103.00599670    4.90999985    2.36999989
   11.77194405  113.77999878    4.90999985    2.36999989
   11.77527714  114.54299927    4.90999985    2.36999989
   11.78111076  114.54299927    4.90999985    2.36999989
   11.78527832   92.22850037    4.90999985    2.39000010
   11.78833389  106.87300110    4.90999985    2.39000010
   11.79166698  101.08599854    4.90999985    2.36999989
   11.79500008  110.94300079    4.90999985    2.39000010
   11.79805565  109.84700012    4.90999985    2.39000010
   11.80138874  107.72200012    4.90999985    2.39000010
   11.80472279  100.99500275    4.90999985    2.39000010
   11.80777836   99.43569946    4.90999985    2.39000010
   11.81111145   88.86650085    4.90999985    2.39000010
   11.81416702  107.75599670    4.90999985    2.39000010
   11.81750011   96.44249725    4.90999985    2.39000010
   11.81833363   95.47319794    4.90999985    2.39000010
   11.82388878   95.47319794    4.90999985    2.39000010
   11.82805538   99.11129761    4.90999985    2.39000010
   11.83138847  103.44400024    4.90999985    2.40000010
   11.83444405   92.81109619    4.90999985    2.39000010
   11.83777714   84.65570068    4.90999985    2.39000010
   11.84111118  100.76899719    4.90999985    2.40000010
   11.84416676  105.28600311    4.90999985    2.40000010
   11.84749985   90.79389954    4.90999985    2.40000010
   11.85055637  106.49500275    4.90999985    2.40000010
   11.85166740   99.63680267    4.90999985    2.40000010
   11.85416698  100.53099823    4.90999985    2.40000010
   11.85750008   86.20410156    4.90999985    2.40000010
   11.86083412   94.40959930    4.90999985    2.40000010
   11.86666679   94.40959930    4.90999985    2.40000010
   11.87083340  103.11499786    4.90999985    2.42000008
   11.87416649  108.38999939    4.90999985    2.40000010
   11.87750053  101.61299896    4.90999985    2.40000010
   11.88055611  111.64800262    4.90999985    2.42000008
   11.88388920   92.38390350    4.90999985    2.40000010
   11.88500023  102.45999908    4.90999985    2.40000010
   11.88722229  115.96900177    4.90999985    2.40000010
   11.89055538  110.15399933    4.90999985    2.40000010
   11.89388847  110.88899994    4.90999985    2.42000008
   11.89694405  120.56999969    4.90999985    2.42000008
   11.90027714  112.75299835    4.90999985    2.40000010
   11.90361118  107.40299988    4.90999985    2.42000008
   11.90972137  107.40299988    4.90999985    2.42000008
   11.91388893   99.33159637    4.90999985    2.44000006
   11.91694450  100.84500122    4.90999985    2.42000008
   11.91833401  103.96299744    4.90999985    2.42000008
   11.92055607  106.32599640    4.90999985    2.44000006
   11.92388916  121.37200165    4.90999985    2.42000008
   11.92722225  101.15899658    4.90999985    2.42000008
   11.93027782   93.38150024    4.90999985    2.44000006
   11.93361092  105.58699799    4.90999985    2.42000008
   11.93694496  100.00900269    4.90999985    2.44000006
   11.94000053   96.11650085    4.90999985    2.44000006
   11.94333363  100.91600037    4.90999985    2.44000006
   11.94638920   91.71630096    4.90999985    2.44000006
   11.95249939   91.71630096    4.90999985    2.44000006
   11.95666695  106.34999847    4.90999985    2.44000006
   11.96000004  101.21299744    4.90999985    2.44000006
   11.96305561   96.20490265    4.90999985    2.44000006
   11.96638870  103.24900055    4.90999985    2.44000006
   11.96944427   92.35260010    4.90999985    2.44000006
   11.97277737   97.11260223    4.90999985    2.44000006
   11.97611046  120.23000336    4.90999985    2.46000004
   11.97916603  102.29000092    4.90999985    2.46000004
   11.98249912   97.13400269    4.90999985    2.46000004
   11.98500061   95.77030182    4.90999985    2.44000006
   11.98611164   98.01589966    4.90999985    2.46000004
   11.98944473  109.40200043    4.90999985    2.46000004
   11.99527836  109.40200043    4.90999985    2.46000004
   11.99944496  116.70200348    4.90999985    2.46000004
   12.00277805   99.83119965    4.90999985    2.46000004
   12.00583363  111.77100372    4.90999985    2.46000004
   12.00916672  110.92800140    4.90999985    2.46000004
   12.01249981  128.99000549    4.90999985    2.46000004
   12.01555538  110.05599976    4.90999985    2.46000004
   12.01833344  115.02899933    4.90999985    2.48000002
   12.01916599  123.55000305    4.90999985    2.48000002
   12.02250004  115.86499786    4.90999985    2.46000004
   12.02583313  118.97499847    4.90999985    2.46000004
   12.02888870  128.79499817    4.90999985    2.48000002
   12.03222179  120.80000305    4.90999985    2.48000002
   12.03805637  120.80000305    4.90999985    2.48000002
   12.04222298  118.42400360    4.90999985    2.48000002
   12.04555607  101.77700043    4.90999985    2.48000002
   12.04888916  121.82599640    4.90999985    2.48000002
   12.05166721  119.27100372    4.90999985    2.48000002
   12.05222225  119.59100342    4.90999985    2.48000002
   12.05555534  116.93199921    4.90999985    2.48000002
   12.05888939  126.30400085    4.90999985    2.48000002
   12.06194496  108.33300018    4.90999985    2.48000002
   12.06527805  110.51399994    4.90999985    2.48000002
   12.06861115  117.42700195    4.90999985    2.48000002
   12.07166672   99.64320374    4.90999985    2.48000002
   12.07499981  103.73799896    4.90999985    2.48000002
   12.08111095  103.73799896    4.90999985    2.48000002
   12.08527756   99.31900024    4.90999985    2.50000000
   12.08833313  104.79900360    4.90999985    2.50000000
   12.09166622  120.07099915    4.90999985    2.50000000
   12.09472179  107.73699951    4.90999985    2.48000002
   12.09805489  102.17800140    4.90999985    2.48000002
   12.10138893  109.01300049    4.90999985    2.48000002
   12.10472298  103.05599976    4.90999985    2.48000002
   12.10777855  104.22899628    4.90999985    2.50000000
   12.11111164   96.92079926    4.90999985    2.48000002
   12.11416721  109.00399780    4.90999985    2.50000000
   12.11750031   92.04530334    4.90999985    2.50000000
   12.11833382   99.92489624    4.90999985    2.50000000
   12.13888836   99.92489624    4.90999985    2.51999998
   12.14305496  112.02500153    4.90999985    2.50000000
   12.14638901  112.62200165    4.90999985    2.50000000
   12.14944458  105.78199768    4.90999985    2.51999998
   12.15166664  106.70800018    4.90999985    2.51999998
   12.15333271   99.62799835    4.90999985    2.51999998
   12.15638828  103.32700348    4.90999985    2.51999998
   12.15972137  102.64099884    4.90999985    2.51999998
   12.16277695  102.15299988    4.90999985    2.51999998
   12.16611099  101.70300293    4.90999985    2.51999998
   12.16944504  123.39099884    4.90999985    2.51999998
   12.17250061  101.50900269    4.90999985    2.51999998
   12.17583370  115.36599731    4.90999985    2.51999998
   12.18166733  115.36599731    4.90999985    2.51999998
   12.18583298  100.09400177    4.90999985    2.51999998
   12.18916702  109.85099792    4.90999985    2.51999998
   12.19222260  119.92800140    4.90999985    2.51999998
   12.19555569  115.98400116    4.90999985    2.51999998
   12.19888878  107.00700378    4.90999985    2.53999996
   12.20194435   93.04630280    4.90999985    2.51999998
   12.20527744  105.67199707    4.90999985    2.51999998
   12.20833302  101.64900208    4.90999985    2.51999998
   12.21166611  113.52600098    4.90999985    2.51999998
   12.21500015  107.32700348    4.90999985    2.51999998
   12.21805477  105.16200256    4.90999985    2.51999998
   12.21861076  100.75599670    4.90999985    2.51999998
   12.22444439  100.75599670    4.90999985    2.51999998
   12.22861099  110.13700104    4.90999985    2.51999998
   12.23194408  109.35500336    4.90999985    2.51999998
   12.23527813  104.10399628    4.90999985    2.51999998
   12.23833370   94.80699921    4.90999985    2.53999996
   12.24166679   97.34709930    4.90999985    2.53999996
   12.24472237   94.03170013    4.90999985    2.51999998
   12.24805546  108.32199860    4.90999985    2.51999998
   12.25138855  112.12000275    4.90999985    2.53999996
   12.25194454  108.14900208    4.90999985    2.53999996
   12.25500011  105.25299835    4.90999985    2.53999996
   12.25833321  110.97599792    4.90999985    2.53999996
   12.26138878  113.14600372    4.90999985    2.53999996
   12.26749992  113.14600372    4.90999985    2.53999996
   12.27166653  119.18900299    4.90999985    2.53999996
   12.27472210  128.23199463    4.90999985    2.55999994
   12.27805519  141.75700378    4.90999985    2.53999996
   12.28111076  117.36499786    4.90999985    2.53999996
   12.28444481  129.73399353    4.90999985    2.55999994
   12.28527832  136.17900085    4.90999985    2.53999996
   12.28805637  132.20199585    4.90999985    2.55999994
   12.29138947  128.86799622    4.90999985    2.55999994
   12.29444504  132.54600525    4.90999985    2.55999994
   12.29777813  128.29200745    4.90999985    2.55999994
   12.30083370  147.25900269    4.90999985    2.55999994
   12.30416679  143.78199768    4.90999985    2.55999994
   12.31027794  143.78199768    4.90999985    2.55999994
   12.31444454  123.67099762    4.90999985    2.55999994
   12.31750011  123.23699951    4.90999985    2.55999994
   12.31861115  113.56300354    4.90999985    2.55999994
   12.32138920  131.86199951    4.90999985    2.55999994
   12.32472229  133.89199829    4.90999985    2.55999994
   12.32777786  140.21800232    4.90999985    2.55999994
   12.33111095  123.32499695    4.90999985    2.55999994
   12.33416653  132.75500488    4.90999985    2.55999994
   12.33749962  161.69400024    4.90999985    2.55999994
   12.34083271  118.42199707    4.90999985    2.55999994
   12.34388828  135.27699280    4.90999985    2.55999994
   12.34722233  118.34999847    4.90999985    2.55999994
   12.35305595  118.34999847    4.90999985    2.57999992
   12.35722256  111.85199738    4.90999985    2.57999992
   12.36055565  114.74800110    4.90999985    2.57999992
   12.36361122  105.37599945    4.90999985    2.55999994
   12.36694431  110.71399689    4.90999985    2.57999992
   12.37027836  116.28299713    4.90999985    2.57999992
   12.37333393  109.23000336    4.90999985    2.57999992
   12.37666702  113.01300049    4.90999985    2.57999992
   12.37972260  108.10199738    4.90999985    2.57999992
   12.38305569  106.65899658    4.90999985    2.57999992
   12.38527775  122.82599640    4.90999985    2.57999992
   12.38666630  113.14099884    4.90999985    2.57999992
   12.39000034  107.05000305    4.90999985    2.57999992
   12.39583302  107.05000305    4.90999985    2.57999992
   12.39999962  110.12400055    4.90999985    2.57999992
   12.40333271  113.90399933    4.90999985    2.59999990
   12.40666676   99.71289825    4.90999985    2.57999992
   12.40972137  101.11100006    4.90999985    2.57999992
   12.41305542  123.77899933    4.90999985    2.57999992
   12.41611099  103.97899628    4.90999985    2.57999992
   12.41861153  107.18099976    4.90999985    2.57999992
   12.42000008  111.78700256    4.90999985    2.57999992
   12.42333412  111.51599884    4.90999985    2.59999990
   12.42638874  109.04499817    4.90999985    2.57999992
   12.42972279  109.92800140    4.90999985    2.57999992
   12.43277836  101.99199677    4.90999985    2.59999990
   12.43888855  101.99199677    4.90999985    2.59999990
   12.44305515   98.76249695    4.90999985    2.59999990
   12.44611073  101.49800110    4.90999985    2.59999990
   12.44944477   90.72149658    4.90999985    2.59999990
   12.45194435  103.04199982    4.90999985    2.59999990
   12.45305538   97.58640289    4.90999985    2.59999990
   12.45638847   97.29489899    4.90999985    2.59999990
   12.45944405   99.52330017    4.90999985    2.59999990
   12.46277714   97.26329803    4.90999985    2.59999990
   12.46583271   95.13269806    4.90999985    2.59999990
   12.46916580   95.64459991    4.90999985    2.59999990
   12.47249985   94.66560364    4.90999985    2.59999990
   12.47555542   93.14240265    4.90999985    2.59999990
   12.48166656   93.14240265    4.90999985    2.59999990
   12.48583317   97.17569733    4.90999985    2.59999990
   12.48888874   90.23860168    4.90999985    2.59999990
   12.49750042   92.11730194    4.90999985    2.59999990
   12.50722218   93.84130096    4.90999985    2.59999990
   12.52305508   88.05840302    4.90999985    2.59999990
   12.54027843   93.82209778    4.90999985    2.61999989
   12.56361103   93.82209778    4.90999985    2.64000010
   12.57583332  103.67700195    4.90999985    2.61999989
   12.58555508   95.10340118    4.90999985    2.61999989
   12.59527779   96.06839752    4.90999985    2.64000010
   12.61416721   96.06839752    4.90999985    2.64000010
   12.62638855   98.17400360    4.90999985    2.64000010
   12.63611126   92.40209961    4.90999985    2.64000010
   12.64583302   99.61389923    4.90999985    2.64000010
   12.66472149   99.61389923    4.90999985    2.64000010
   12.67694473   98.04620361    4.90999985    2.64000010
   12.68666649  108.39099884    4.90999985    2.66000009
   12.69638920   98.28070068    4.90999985    2.64000010
   12.71527767   98.28070068    4.90999985    2.66000009
   12.72749996   98.32379913    4.90999985    2.66000009
   12.73722267   99.69550323    4.90999985    2.66000009
   12.74694443   98.77680206    4.90999985    2.64000010
   12.76749992   98.77680206    4.90999985    2.64000010
   12.77972221   96.58070374    4.90999985    2.66000009
   12.78944492  102.15399933    4.90999985    2.67000008
   12.81361103  102.15399933    4.90999985    2.67000008
   12.82583332  100.04000092    4.90999985    2.67000008
   12.83555508   98.01110077    4.90999985    2.67000008
   12.84527779   98.23570251    4.90999985    2.67000008
   12.86416721   98.23570251    4.90999985    2.67000008
   12.87638855   93.18840027    4.90999985    2.67000008
   12.88611126   94.49449921    4.90999985    2.67000008
   12.89583302   94.62490082    4.90999985    2.67000008
   12.91472149   94.62490082    4.90999985    2.69000006
   12.92722225   95.34860229    4.90999985    2.67000008
   12.93694496   90.52110291    4.90999985    2.67000008
   12.94666672   92.50469971    4.90999985    2.67000008
   12.96555519   92.50469971    4.90999985    2.71000004
   12.97972202   95.11009979    4.90999985    2.69000006
   12.98944473   94.90399933    4.90999985    2.69000006
   13.00944424   94.90399933    4.90999985    2.69000006
   13.02750015   91.45110321    4.90999985    2.69000006
   13.03861141   93.61119843    4.90999985    2.71000004
   13.06027794   93.61119843    4.90999985    2.71000004
   13.07250023   95.16159821    4.90999985    2.71000004
   13.08222198   93.00949860    4.90999985    2.71000004
   13.09194374   92.45240021    4.90999985    2.71000004
   13.11083412   92.45240021    4.90999985    2.71000004
   13.12305546  104.16300201    4.90999985    2.71000004
   13.13277817   95.89250183    4.90999985    2.71000004
   13.14277744   92.66139984    4.90999985    2.71000004
   13.16166592   92.66139984    4.90999985    2.73000002
   13.17388916   90.84999847    4.90999985    2.71000004
   13.18361092   86.23930359    4.90999985    2.71000004
   13.19444466   97.56289673    4.90999985    2.73000002
   13.21333313   97.56289673    4.90999985    2.73000002
   13.22694397   93.85569763    4.90999985    2.71000004
   13.23666668   91.16079712    4.90999985    2.73000002
   13.24638939   95.70269775    4.90999985    2.73000002
   13.26527786   95.70269775    4.90999985    2.73000002
   13.27750015   96.16220093    4.90999985    2.73000002
   13.28722286   89.56860352    4.90999985    2.73000002
   13.31138897   89.56860352    4.90999985    2.73000002
   13.34333324   94.49539948    4.90999985    2.75000000
   13.36416721   94.49539948    4.90999985    2.75000000
   13.37777805   88.16519928    4.90999985    2.75000000
   13.39333344   97.05699921    4.90999985    2.75000000
   13.40277767   87.40720367    4.90999985    2.75000000
   13.42222214   87.40720367    4.90999985    2.73000002
   13.43305588   88.55000305    4.90999985    2.75000000
   13.44277763   91.02529907    4.90999985    2.75000000
   13.45249939   88.55729675    4.90999985    2.76999998
   13.47194386   88.55729675    4.90999985    2.75000000
   13.48416710   93.09980011    4.90999985    2.75000000
   13.49388885   87.75900269    4.90999985    2.76999998
   13.50361156   90.51370239    4.90999985    2.75000000
   13.53083324   90.51370239    4.90999985    2.76999998
   13.54305553   87.50920105    4.90999985    2.75000000
   13.55277824   98.73580170    4.90999985    2.75000000
   13.57833290   98.73580170    4.90999985    2.75000000
   13.59055519   97.17109680    4.90999985    2.76999998
   13.60027790   91.15499878    4.90999985    2.78999996
   13.61000061   88.42019653    4.90999985    2.76999998
   13.62916660   88.42019653    4.90999985    2.76999998
   13.64277744   86.73269653    4.90999985    2.76999998
   13.65249920   87.10330200    4.90999985    2.76999998
   13.66222191   83.54840088    4.90999985    2.75000000
   13.68249989   83.54840088    4.90999985    2.76999998
   13.69333363   82.63780212    4.90999985    2.78999996
   13.70305538   88.89230347    4.90999985    2.76999998
   13.71277714   84.56839752    4.90999985    2.76999998
   13.73166656   84.56839752    4.90999985    2.78999996
   13.74388885   89.95169830    4.90999985    2.78999996
   13.75361156   88.04329681    4.90999985    2.78999996
   13.76333332   90.34480286    4.90999985    2.78999996
   13.78388977   90.34480286    4.90999985    2.78999996
   13.79472256   88.62319946    4.90999985    2.76999998
   13.80444431   89.05719757    4.90999985    2.78999996
   13.82861137   89.05719757    4.90999985    2.78999996
   13.84138870   84.78250122    4.90999985    2.80999994
   13.85111141   81.68129730    4.90999985    2.78999996
   13.86083412   87.54139709    4.90999985    2.78999996
   13.87972260   87.54139709    4.90999985    2.78999996
   13.89194393   89.30549622    4.90999985    2.80999994
   13.90166664   85.12429810    4.90999985    2.80999994
   13.91138840   96.06800079    4.90999985    2.80999994
   13.93027782   96.06800079    4.90999985    2.78999996
   13.94250011   90.48349762    4.90999985    2.80999994
   13.95222187   87.15940094    4.90999985    2.80999994
   13.96194458   87.92910004    4.90999985    2.78999996
   13.98083305   87.92910004    4.90999985    2.78999996
   13.99305534   81.59719849    4.90999985    2.80999994
   14.00305557   86.17559814    4.90999985    2.78999996
   14.01694393   86.11879730    4.90999985    2.78999996
   14.03722286   86.11879730    4.90999985    2.80999994
   14.05083370   97.83460236    4.90999985    2.80999994
   14.06083393   80.97979736    4.90999985    2.80999994
   14.07611084   81.55069733    4.90999985    2.80999994
   14.09666634   81.55069733    4.90999985    2.80999994
   14.10888958   87.26789856    4.90999985    2.78999996
   14.11861134   83.36889648    4.90999985    2.78999996
   14.12833309   89.46469879    4.90999985    2.80999994
   14.14805508   89.46469879    4.90999985    2.82999992
   14.16027737   84.87599945    4.90999985    2.82999992
   14.17000008   95.10440063    4.90999985    2.82999992
   14.17972279  101.23000336    4.90999985    2.82999992
   14.19861126  101.23000336    4.90999985    2.82999992
   14.21222210   96.31639862    4.90999985    2.82999992
   14.22166634   94.74120331    4.90999985    2.82999992
   14.23138809   86.18710327    4.90999985    2.82999992
   14.25166702   86.18710327    4.90999985    2.82999992
   14.26277733   98.54910278    4.90999985    2.80999994
   14.27250004   95.31770325    4.90999985    2.82999992
   14.29666710   95.31770325    4.90999985    2.82999992
   14.30888939   84.74890137    4.90999985    2.82999992
   14.31861115   90.70880127    4.90999985    2.80999994
   14.32833290   83.53350067    4.90999985    2.82999992
   14.34722233   83.53350067    4.90999985    2.82999992
   14.35944462  105.36499786    4.90999985    2.82999992
   14.36916637   89.93779755    4.90999985    2.80999994
   14.37888908   97.79119873    4.90999985    2.82999992
   14.39916611   97.79119873    4.90999985    2.82999992
   14.41138840   98.52929688    4.90999985    2.82999992
   14.42305565   91.04660034    4.90999985    2.82999992
   14.43333340   86.26629639    4.90999985    2.84999990
   14.45222187   86.26629639    4.90999985    2.84999990
   14.46527767   86.46410370    4.90999985    2.82999992
   14.47583294   83.92680359    4.90999985    2.82999992
   14.48555565   87.87609863    4.90999985    2.82999992
   14.50583363   87.87609863    4.90999985    2.82999992
   14.52666664   89.30609894    4.90999985    2.84999990
   14.55222225   89.30609894    4.90999985    2.84999990
   14.56305599   93.82170105    4.90999985    2.82999992
   14.57277775   87.51629639    4.90999985    2.84999990
   14.58249950   88.71240234    4.90999985    2.82999992
   14.60222244   88.71240234    4.90999985    2.84999990
   14.61444473   90.92739868    4.90999985    2.84999990
   14.62416649  112.81199646    4.90999985    2.82999992
   14.66805553  112.81199646    4.90999985    2.84999990
   14.68027782   87.16259766    4.90999985    2.84999990
   14.69055557   94.47219849    4.90999985    2.82999992
   14.70472240   83.87969971    4.90999985    2.84999990
   14.72638798   83.87969971    4.90999985    2.86999989
   14.73861122  130.47200012    4.90999985    2.82999992
   14.74833393   99.29119873    4.90999985    2.86999989
   14.77250004   99.29119873    4.90999985    2.84999990
   14.78472233  114.62100220    4.90999985    2.84999990
   14.79444504  131.20799255    4.90999985    2.84999990
   14.80500031  111.95500183    4.90999985    2.84999990
   14.82388878  111.95500183    4.90999985    2.84999990
   14.83611107   96.87139893    4.90999985    2.84999990
   14.84583282  102.53800201    4.90999985    2.84999990
   14.85583401   97.68319702    4.90999985    2.84999990
   14.87472248   97.68319702    4.90999985    2.86999989
   14.88805580  108.70999908    4.90999985    2.84999990
   14.89777756   95.81040192    4.90999985    2.86999989
   14.90749931  101.05699921    4.90999985    2.84999990
   14.92861176  101.05699921    4.90999985    2.86999989
   14.94083309   89.99590302    4.90999985    2.86999989
   14.95055580   89.53359985    4.90999985    2.86999989
   14.96027756  101.02200317    4.90999985    2.84999990
   14.98055553  101.02200317    4.90999985    2.86999989
   14.99277782   93.24310303    4.90999985    2.84999990
   15.00249958  103.05599976    4.90999985    2.86999989
   15.03472233  103.05599976    4.90999985    2.84999990
   15.04722309  118.69300079    4.90999985    2.86999989
   15.05694485  101.18099976    4.90999985    2.84999990
   15.06666660   -1.00000000    4.90999985    2.84999990
   15.18555546   -1.00000000   -1.00000000   -1.00000000
   15.33111095   -1.00000000   -1.00000000   -1.00000000
   15.43861103   -1.00000000   -1.00000000   -1.00000000
   15.55555534   -1.00000000   -1.00000000   -1.00000000
   15.66833401   -1.00000000   -1.00000000   -1.00000000
   15.70916653   69.57520294    0.40000001    2.86999989
   15.71249962   98.68530273    0.40000001    2.86999989
   15.71583271   95.24310303    0.40000001    2.86999989
   15.71916580   93.41210175    0.40000001    2.86999989
   15.72222137  108.09600067    0.40000001    2.82999992
   15.72555542  118.64700317    0.40000001    2.84999990
   15.72972202  118.64700317    0.40000001    2.84999990
   15.73388958  110.55899811    0.40000001    2.86999989
   15.73694515  109.37999725    0.41999999    2.86999989
   15.74027824   93.57309723    0.41999999    2.84999990
   15.74250031  107.44799805    0.41999999    2.84999990
   15.74388885   98.93049622    0.44000000    2.86999989
   15.74722290   95.07420349    0.44000000    2.84999990
   15.75027752   88.84970093    0.44000000    2.84999990
   15.75361156   92.36830139    0.44000000    2.84999990
   15.75666714   94.45960236    0.44000000    2.84999990
   15.76000023   96.49279785    0.44000000    2.84999990
   15.76333332  104.36000061    0.44000000    2.86999989
   15.76638889   89.25499725    0.41999999    2.86999989
   15.77250004   89.25499725    0.41999999    2.86999989
   15.77666664  101.79900360    0.41999999    2.86999989
   15.77999973  101.10299683    0.41999999    2.84999990
   15.78305531   98.53450012    0.38000000    2.84999990
   15.78638935  103.68800354    0.38000000    2.84999990
   15.78972244   93.56310272    0.34000000    2.86999989
   15.79277802  102.94699860    0.34000000    2.84999990
   15.79611111   96.33489990    0.31999999    2.84999990
   15.79916668   88.10410309    0.30000001    2.86999989
   15.80249977   94.90670013    0.30000001    2.84999990
   15.80583382   81.53749847    0.30000001    2.86999989
   15.80888939   90.59549713    0.30000001    2.84999990
   15.80944443   94.38510132    0.30000001    2.84999990
   15.81527805   94.38510132    0.30000001    2.86999989
   15.81944466   83.73439789    0.30000001    2.84999990
   15.82277775   86.48580170    0.30000001    2.86999989
   15.82611084   81.20950317    0.30000001    2.86999989
   15.82916641   90.81600189    0.30000001    2.84999990
   15.83249950   82.83180237    0.30000001    2.84999990
   15.83555508   83.78160095    0.30000001    2.86999989
   15.83888817   88.35310364    0.31999999    2.84999990
   15.84222221   80.47540283    0.31999999    2.86999989
   15.84277725   81.46179962    0.31999999    2.86999989
   15.84583282   86.10540009    0.31999999    2.86999989
   15.84916592   95.22470093    0.31999999    2.84999990
   15.85222244   97.38870239    0.31999999    2.86999989
   15.85833359   97.38870239    0.31999999    2.84999990
   15.86250019   83.10729980    0.31999999    2.84999990
   15.86555576   80.63639832    0.31999999    2.86999989
   15.86888885   87.35810089    0.31999999    2.86999989
   15.87194443   89.86049652    0.31999999    2.84999990
   15.87527752   88.48889923    0.31999999    2.84999990
   15.87611103   83.61019897    0.31999999    2.84999990
   15.87888908   88.53949738    0.31999999    2.84999990
   15.88222218   83.62680054    0.31999999    2.82999992
   15.88527775   84.94789886    0.31999999    2.84999990
   15.88861084  100.90799713    0.31999999    2.86999989
   15.89166641   96.08339691    0.30000001    2.86999989
   15.89499950  105.87300110    0.30000001    2.84999990
   15.90111065  105.87300110    0.30000001    2.84999990
   15.90527725  112.12999725    0.30000001    2.84999990
   15.90833282  109.19699860    0.30000001    2.84999990
   15.90944386  102.90499878    0.30000001    2.86999989
   15.91222191  100.46600342    0.30000001    2.86999989
   15.91555500   97.54840088    0.30000001    2.84999990
   15.91861153  102.68800354    0.30000001    2.84999990
   15.92194462   94.60399628    0.30000001    2.84999990
   15.92500019   90.51609802    0.30000001    2.86999989
   15.92833328  103.62799835    0.28000000    2.84999990
   15.93166733   93.05390167    0.28000000    2.84999990
   15.93472195   90.43620300    0.28000000    2.84999990
   15.93805599   88.26570129    0.28000000    2.84999990
   15.94388866   88.26570129    0.30000001    2.84999990
   15.94805527   92.63179779    0.30000001    2.84999990
   15.95138836  102.08999634    0.30000001    2.86999989
   15.95444393   94.48970032    0.30000001    2.84999990
   15.95777798   96.69450378    0.30000001    2.84999990
   15.96111107   95.23549652    0.28000000    2.84999990
   15.96416664   82.35540009    0.28000000    2.84999990
   15.96749973  101.46199799    0.30000001    2.84999990
   15.97083282  106.10500336    0.30000001    2.84999990
   15.97388840   92.16909790    0.30000001    2.84999990
   15.97611046   94.43730164    0.30000001    2.84999990
   15.97749996  102.65000153    0.30000001    2.86999989
   15.98083305  101.95300293    0.30000001    2.84999990
   15.98666668  101.95300293    0.30000001    2.86999989
   15.99083328  100.93800354    0.30000001    2.84999990
   15.99416733  100.58000183    0.30000001    2.84999990
   15.99722290  108.90899658    0.30000001    2.84999990
   16.00055504   82.69360352    0.30000001    2.84999990
   16.00388908   81.52230072    0.30000001    2.84999990
   16.00694466   89.50039673    0.30000001    2.84999990
   16.00944519  112.22499847    0.30000001    2.86999989
   16.01055527  105.98100281    0.30000001    2.84999990
   16.01388931   94.97740173    0.30000001    2.84999990
   16.01694489   81.18229675    0.30000001    2.84999990
   16.02027702   79.21320343    0.30000001    2.84999990
   16.02333260  107.72599792    0.30000001    2.86999989
   16.02972221  107.72599792    0.30000001    2.86999989
   16.03361130  102.43499756    0.30000001    2.84999990
   16.03694344  110.50800323    0.30000001    2.84999990
   16.04027748  110.59500122    0.30000001    2.86999989
   16.04277802  102.78099823    0.30000001    2.86999989
   16.04388809  110.56500244    0.30000001    2.84999990
   16.04722214  110.12699890    0.31999999    2.86999989
   16.05027771  109.51999664    0.30000001    2.84999990
   16.05360985  101.02400208    0.31999999    2.84999990
   16.05666542   88.73549652    0.31999999    2.86999989
   16.05999947   98.39679718    0.31999999    2.84999990
   16.06333351  111.75299835    0.31999999    2.86999989
   16.06638718  107.28399658    0.31999999    2.86999989
   16.07250023  107.28399658    0.31999999    2.86999989
   16.07666779  125.07700348    0.31999999    2.86999989
   16.07972336  118.67600250    0.31999999    2.86999989
   16.08305550  129.15800476    0.31999999    2.86999989
   16.08638954  108.56300354    0.31999999    2.82999992
   16.08944511  112.86900330    0.31999999    2.84999990
   16.09277916   99.87729645    0.31999999    2.86999989
   16.09611130  138.75999451    0.31999999    2.84999990
   16.09916687  101.40399933    0.31999999    2.86999989
   16.10250092  122.88700104    0.31999999    2.84999990
   16.10555649  125.82199860    0.31999999    2.86999989
   16.10888863  114.21299744    0.31999999    2.84999990
   16.10944557  116.12699890    0.31999999    2.86999989
   16.11527824  116.12699890    0.31999999    2.84999990
   16.11944389  119.75000000    0.31999999    2.84999990
   16.12277794  131.65299988    0.31999999    2.86999989
   16.12583351  103.00599670    0.31999999    2.84999990
   16.12916756  114.99800110    0.31999999    2.86999989
   16.13249969   99.21250153    0.31999999    2.86999989
   16.13555527   97.74819946    0.31999999    2.84999990
   16.13888931   99.25879669    0.31999999    2.84999990
   16.14222145  100.02100372    0.31999999    2.84999990
   16.14277840  108.13700104    0.31999999    2.84999990
   16.14583397   88.49530029    0.31999999    2.84999990
   16.14916611   93.47959900    0.31999999    2.84999990
   16.15222168   99.85500336    0.31999999    2.84999990
   16.15805435   99.85500336    0.31999999    2.84999990
   16.16222191   95.65859985    0.31999999    2.84999990
   16.16555595   87.09889984    0.31999999    2.84999990
   16.16860962   91.79509735    0.31999999    2.84999990
   16.17194366   94.96230316    0.31999999    2.86999989
   16.17527771   89.74389648    0.31999999    2.84999990
   16.17611122   97.55899811    0.31999999    2.84999990
   16.17888832   96.13780212    0.31999999    2.84999990
   16.18222237   84.74610138    0.31999999    2.84999990
   16.18527603   89.18900299    0.31999999    2.86999989
   16.18861008   86.35389709    0.31999999    2.84999990
   16.19194412   97.15409851    0.31999999    2.84999990
   16.19499969   93.08319855    0.31999999    2.86999989
   16.20111275   93.08319855    0.31999999    2.84999990
   16.20499992   90.27249908    0.31999999    2.86999989
   16.20833397   86.29620361    0.31999999    2.86999989
   16.20944595   90.64830017    0.31999999    2.86999989
   16.21194458   84.52330017    0.31999999    2.84999990
   16.21527863   89.45700073    0.31999999    2.84999990
   16.21861076   90.59459686    0.31999999    2.84999990
   16.22166634   88.77809906    0.31999999    2.84999990
   16.22500038   93.09539795    0.31999999    2.84999990
   16.22833443   90.65080261    0.31999999    2.84999990
   16.23139000   87.38929749    0.31999999    2.86999989
   16.23472214   92.54509735    0.31999999    2.84999990
   16.23777771   85.38020325    0.31999999    2.84999990
   16.24388885   85.38020325    0.31999999    2.84999990
   16.24805641   87.83850098    0.31999999    2.84999990
   16.25111198   83.70709991    0.31999999    2.86999989
   16.25444412   79.80799866    0.31999999    2.86999989
   16.25777817   85.36540222    0.31999999    2.84999990
   16.26083374   82.86100006    0.31999999    2.86999989
   16.26416588   86.33730316    0.31999999    2.84999990
   16.26722145   85.10269928    0.31999999    2.84999990
   16.27055550   88.94860077    0.34000000    2.86999989
   16.27388954   84.38480377    0.34000000    2.86999989
   16.27611160   92.51619720    0.34000000    2.84999990
   16.27750015   84.27140045    0.34000000    2.84999990
   16.28083229   88.20500183    0.31999999    2.84999990
   16.28666687   88.20500183    0.31999999    2.86999989
   16.29083252   91.34860229    0.31999999    2.86999989
   16.29416656   90.15339661    0.31999999    2.86999989
   16.29722214   89.08480072    0.31999999    2.84999990
   16.30055428   91.01129913    0.31999999    2.84999990
   16.30388832   88.12930298    0.34000000    2.84999990
   16.30694389   94.43930054    0.34000000    2.86999989
   16.30944443   83.91369629    0.31999999    2.84999990
   16.31055450   92.73259735    0.31999999    2.84999990
   16.31388855   89.68550110    0.31999999    2.84999990
   16.31694603   86.97029877    0.31999999    2.84999990
   16.32027817   91.70989990    0.31999999    2.86999989
   16.32361221   90.19000244    0.31999999    2.84999990
   16.32944489   90.19000244    0.31999999    2.86999989
   16.33361244   87.71269989    0.31999999    2.86999989
   16.33694458   84.96089935    0.31999999    2.86999989
   16.34027863   92.39689636    0.31999999    2.84999990
   16.34305573   95.95970154    0.31999999    2.84999990
   16.34388924   86.83830261    0.31999999    2.86999989
   16.34722328   90.64389801    0.31999999    2.86999989
   16.35027885   84.30729675    0.31999999    2.84999990
   16.35361099   90.37979889    0.31999999    2.86999989
   16.35694504   85.11039734    0.31999999    2.86999989
   16.36000061   84.36260223    0.31999999    2.86999989
   16.36333466   83.56919861    0.31999999    2.86999989
   16.36666679   88.99559784    0.31999999    2.84999990
   16.37249947   88.99559784    0.31999999    2.86999989
   16.37638855   76.25080109    0.31999999    2.84999990
   16.37972260   81.20929718    0.31999999    2.86999989
   16.38305473   79.24440002    0.31999999    2.86999989
   16.38611031   90.07460022    0.31999999    2.86999989
   16.38944435   87.60130310    0.31999999    2.86999989
   16.39277840   81.29620361    0.31999999    2.82999992
   16.39583397   83.59510040    0.31999999    2.86999989
   16.39916611   86.81060028    0.31999999    2.86999989
   16.40222168   86.62860107    0.31999999    2.86999989
   16.40555573   99.49349976    0.31999999    2.84999990
   16.40888786   85.67539978    0.31999999    2.84999990
   16.40972137   91.32720184    0.31999999    2.86999989
   16.41527748   91.32720184    0.31999999    2.84999990
   16.41944313   85.14299774    0.31999999    2.86999989
   16.42249870   99.97250366    0.31999999    2.86999989
   16.42583275   89.19170380    0.31999999    2.86999989
   16.42916679   84.85759735    0.31999999    2.86999989
   16.43222237   83.34030151    0.31999999    2.84999990
   16.43555450   93.09709930    0.31999999    2.84999990
   16.43888855   92.98380280    0.31999999    2.84999990
   16.44194412   87.40940094    0.34000000    2.84999990
   16.44305420   85.34120178    0.34000000    2.86999989
   16.44555473   83.59480286    0.31999999    2.86999989
   16.44888878   77.91989899    0.31999999    2.86999989
   16.45222282   86.18810272    0.31999999    2.89000010
   16.45805550   86.18810272    0.31999999    2.84999990
   16.46222305   81.30349731    0.31999999    2.86999989
   16.46555710   81.16259766    0.31999999    2.86999989
   16.46861076   86.96869659    0.31999999    2.84999990
   16.47194481   81.62259674    0.31999999    2.86999989
   16.47527885   79.57649994    0.31999999    2.86999989
   16.47638893   82.90730286    0.31999999    2.84999990
   16.47888947   83.33429718    0.31999999    2.86999989
   16.48222351   80.76920319    0.34000000    2.86999989
   16.48527718   87.62899780    0.34000000    2.86999989
   16.48861122   83.20860291    0.36000001    2.86999989
   16.49194527   82.96399689    0.38000000    2.86999989
   16.49500084   88.70339966    0.38000000    2.86999989
   16.50083351   88.70339966    0.36000001    2.84999990
   16.50499916   80.16410065    0.36000001    2.84999990
   16.50833321   81.56999969    0.38000000    2.86999989
   16.50972176   87.66220093    0.40000001    2.84999990
   16.51194382   89.94899750    0.40000001    2.86999989
   16.51527786   91.16960144    0.41999999    2.84999990
   16.51833344   86.07679749    0.44000000    2.84999990
   16.52166557   98.52169800    0.44000000    2.84999990
   16.52499962   86.54429626    0.44000000    2.84999990
   16.52805519   82.43630219    0.38000000    2.86999989
   16.53138924   83.20189667    0.38000000    2.84999990
   16.53472137   92.68840027    0.36000001    2.86999989
   16.53777695   90.36990356    0.34000000    2.84999990
   16.54388809   90.36990356    0.34000000    2.86999989
   16.54777718   85.91639709    0.36000001    2.86999989
   16.55111122   83.47480011    0.40000001    2.86999989
   16.55444336   94.55639648    0.40000001    2.86999989
   16.55749893   99.38040161    0.36000001    2.84999990
   16.56083298   87.13819885    0.36000001    2.84999990
   16.56416512   80.81960297    0.36000001    2.84999990
   16.56722260   86.75150299    0.36000001    2.84999990
   16.57055664   84.80619812    0.36000001    2.84999990
   16.57361221   77.85890198    0.34000000    2.86999989
   16.57638931   81.24510193    0.36000001    2.84999990
   16.57722282   80.35579681    0.36000001    2.84999990
   16.58055687   86.64309692    0.40000001    2.86999989
   16.58666801   86.64309692    0.38000000    2.86999989
   16.59083366   92.64409637    0.38000000    2.86999989
   16.59388924   92.91459656    0.47999999    2.86999989
   16.59722328   97.18109894    0.40000001    2.86999989
   16.60055542   83.90859985    0.40000001    2.86999989
   16.60361099   75.54669952    0.61000001    2.86999989
   16.60694504   73.75489807    0.89999998    2.82999992
   16.60972214   86.17749786    0.75000000    2.84999990
   16.61055565   81.90689850    0.75000000    2.84999990
   16.61388969   76.89060211    1.00000000    2.82999992
   16.61722183   82.76560211    0.76999998    2.84999990
   16.62027740   90.40090179    0.69000000    2.84999990
   16.62361145   91.97869873    0.67000002    2.82999992
   16.62944412   91.97869873    0.95999998    2.84999990
   16.63361168   82.00710297    0.88000000    2.84999990
   16.63694382   90.60790253    0.69000000    2.84999990
   16.63999939   91.18029785    4.90999985    2.84999990
   16.64305496  163.84700012    4.90999985    2.55999994
   16.64361191   92.68979645    4.90999985    2.32999992
   16.64694405   84.99639893    4.90999985    2.67000008
   16.65027809   92.65119934    4.90999985    2.80999994
   16.65333366  113.48000336    0.51999998    2.84999990
   16.65666580  106.01599884    0.44000000    2.82999992
   16.65972137   88.20819855    0.36000001    2.86999989
   16.66305542   92.08540344    0.36000001    2.86999989
   16.66638756   97.83360291    0.36000001    2.84999990
   16.67222214   97.83360291    0.36000001    2.86999989
   16.67638779   87.72200012    0.34000000    2.84999990
   16.67972183   94.46929932    0.36000001    2.84999990
   16.68277740   96.95240021    0.38000000    2.84999990
   16.68610954  111.33799744    0.50000000    2.84999990
   16.68944359  113.88200378    0.88000000    2.82999992
   16.69249916  120.11000061    0.81999999    2.84999990
   16.69583321  107.04599762    0.61000001    2.84999990
   16.69916534  116.78399658    0.47999999    2.84999990
   16.70222282  101.33699799    0.52999997    2.84999990
   16.70555687  113.50000000    0.52999997    2.84999990
   16.70861244  110.52200317    0.44000000    2.84999990
   16.70972252  128.33200073    0.44000000    2.84999990
   16.73027802  128.33200073    0.86000001    2.84999990
   16.73444557  129.91000366    0.75000000    2.84999990
   16.73777771  124.49500275    0.61000001    2.84999990
   16.74083328  110.06999969    0.56999999    2.84999990
   16.74305534  100.59600067    0.55000001    2.84999990
   16.74444389  100.42500305    0.55000001    2.84999990
   16.74777794  122.00399780    0.55000001    2.84999990
   16.75111198  126.24600220    0.44000000    2.84999990
   16.75416756  104.00700378    0.41999999    2.84999990
   16.75749969  120.77999878    0.40000001    2.86999989
   16.76055527  136.55400085    0.40000001    2.84999990
   16.76388931  113.63600159    0.40000001    2.84999990
   16.76722145  124.81900024    0.38000000    2.86999989
   16.77305603  124.81900024    0.38000000    2.86999989
   16.77722168  123.71600342    0.38000000    2.86999989
   16.78055573  128.66400146    0.44000000    2.84999990
   16.78361130  118.50299835    0.41999999    2.86999989
   16.78694344  117.20300293    0.41999999    2.86999989
   16.79027748  129.34899902    0.41999999    2.86999989
   16.79333305  120.51999664    0.40000001    2.84999990
   16.79666710  112.73300171    0.40000001    2.84999990
   16.79972076  112.08999634    0.38000000    2.84999990
   16.80305481  103.39499664    0.40000001    2.84999990
   16.80638885  124.05500031    0.41999999    2.84999990
   16.80944443  107.68900299    0.41999999    2.84999990
   16.80999947  127.45999908    0.41999999    2.84999990
   16.81583214  127.45999908    0.40000001    2.84999990
   16.82000160  116.57800293    0.38000000    2.86999989
   16.82333374  110.73699951    0.40000001    2.86999989
   16.82666779  129.19299316    0.50000000    2.84999990
   16.82972336  119.20099640    0.55000001    2.84999990
   16.83305550  107.88500214    0.69000000    2.84999990
   16.83611107  125.50700378    0.67000002    2.84999990
   16.83944511  106.39600372    0.64999998    2.86999989
   16.84277916  117.96399689    0.64999998    2.84999990
   16.84333420  119.25099945    0.69000000    2.82999992
   16.84638977   94.64250183    0.63000000    2.86999989
   16.84972191  108.62799835    0.52999997    2.84999990
   16.85277748  108.00000000    0.52999997    2.86999989
   16.85888863  108.00000000    0.44000000    2.86999989
   16.86305618  101.09999847    0.46000001    2.84999990
   16.86611176  107.03500366    0.46000001    2.84999990
   16.86944389  116.49500275    0.40000001    2.84999990
   16.87249947  109.59400177    0.44000000    2.84999990
   16.87583351  100.65899658    0.44000000    2.86999989
   16.87666702  106.46900177    0.44000000    2.86999989
   16.87944412  110.99700165    0.47999999    2.84999990
   16.88277817  120.35399628    0.46000001    2.84999990
   16.88583374  112.55200195    0.40000001    2.84999990
   16.88916588  109.10900116    0.40000001    2.86999989
   16.89222145  115.60700226    0.40000001    2.84999990
   16.89555550  111.86199951    0.40000001    2.84999990
   16.90166664  111.86199951    0.40000001    2.86999989
   16.90583229  100.46499634    0.38000000    2.84999990
   16.90888786  116.10500336    0.40000001    2.84999990
   16.90999985  105.57399750    0.40000001    2.86999989
   16.91250038  104.99900055    0.40000001    2.84999990
   16.91583252   96.34940338    0.40000001    2.84999990
   16.91888809  111.46600342    0.38000000    2.84999990
   16.92222214  120.77400208    0.38000000    2.86999989
   16.92527771  111.16899872    0.40000001    2.84999990
   16.92860985  107.51000214    0.44000000    2.86999989
   16.93194389  115.23699951    0.41999999    2.84999990
   16.93499947  107.50000000    0.40000001    2.84999990
   16.93833160   97.44909668    0.38000000    2.84999990
   16.94444275   97.44909668    0.38000000    2.84999990
   16.94861031   96.47979736    0.38000000    2.84999990
   16.95194435   88.14990234    0.38000000    2.84999990
   16.95499992   78.43119812    0.40000001    2.84999990
   16.95833397   86.76290131    0.40000001    2.84999990
   16.96166801   90.13809967    0.40000001    2.84999990
   16.96472359   92.16419983    0.38000000    2.84999990
   16.96805573  100.87500000    0.38000000    2.84999990
   16.97111130   93.38079834    0.38000000    2.86999989
   16.97444534   91.42359924    0.38000000    2.86999989
   16.97666740   93.48719788    0.38000000    2.86999989
   16.97805595   97.29850006    0.38000000    2.86999989
   16.98139000   98.78019714    0.44000000    2.84999990
   16.98722267   98.78019714    0.40000001    2.84999990
   16.99138832  100.59899902    0.38000000    2.84999990
   16.99472237   95.39849854    0.38000000    2.84999990
   16.99777794   95.90609741    0.38000000    2.84999990
   17.00111198  103.61799622    0.38000000    2.84999990
   17.00444412  105.54699707    0.40000001    2.86999989
   17.00749969  100.43599701    0.38000000    2.84999990
   17.01000023  111.40200043    0.36000001    2.84999990
   17.01111031  104.32499695    0.38000000    2.84999990
   17.01444435   98.35479736    0.38000000    2.84999990
   17.01749992  104.11499786    0.36000001    2.84999990
   17.02083397   99.20210266    0.36000001    2.84999990
   17.02388954   98.59760284    0.36000001    2.84999990
   17.03027725   98.59760284    1.13000000    2.84999990
   17.03416634   90.91549683    0.75000000    2.84999990
   17.03750038  107.97799683    0.46000001    2.84999990
   17.04083252   96.67829895    0.40000001    2.84999990
   17.04333305   91.70359802    0.38000000    2.84999990
   17.04444313   96.56700134    0.38000000    2.84999990
   17.04777718   91.79399872    0.38000000    2.84999990
   17.05083275   95.66470337    0.41999999    2.84999990
   17.05416679   94.17639923    0.38000000    2.84999990
   17.05722237   96.43679810    0.38000000    2.84999990
   17.06055450  102.22599792    0.38000000    2.84999990
   17.06388855   90.97299957    0.38000000    2.84999990
   17.06722260   99.86879730    0.38000000    2.84999990
   17.07305717   99.86879730    0.40000001    2.84999990
   17.07722282   89.47280121    0.38000000    2.84999990
   17.08027840   91.02310181    0.40000001    2.84999990
   17.08361244   90.16280365    0.40000001    2.84999990
   17.08694458   89.04340363    0.40000001    2.84999990
   17.09000015   90.06500244    0.40000001    2.84999990
   17.09333420   82.24980164    0.41999999    2.84999990
   17.09638977   89.53769684    0.41999999    2.86999989
   17.09972191   81.01339722    0.44000000    2.84999990
   17.10305595   82.83959961    0.41999999    2.84999990
   17.10611153   85.13950348    0.44000000    2.84999990
   17.10944557   86.27490234    0.44000000    2.84999990
   17.11000061   82.82440186    0.44000000    2.84999990
   17.11583328   82.82440186    0.44000000    2.82999992
   17.12000084  103.09500122    0.44000000    2.84999990
   17.12333298   84.80819702    0.44000000    2.84999990
   17.12638855   85.21679688    0.44000000    2.84999990
   17.12972260   99.51670074    4.90999985    2.71000004
   17.13277817   89.50270081    4.90999985    2.75000000
   17.13611031  212.06500244    4.90999985    2.46000004
   17.13944435  107.63999939    4.90999985    2.40000010
   17.14249992   92.72129822    4.90999985    2.59999990
   17.14333344   95.51460266    4.90999985    2.59999990
   17.14611053  104.99500275    4.90999985    2.59999990
   17.14944458   95.52780151    4.90999985    2.69000006
   17.15250015   90.91560364    4.90999985    2.89000010
   17.15861130   90.91560364    0.56999999    2.84999990
   17.16277695  103.62999725    0.50000000    2.84999990
   17.16611099   91.21399689    0.47999999    2.84999990
   17.16916656   93.57119751    0.46000001    2.84999990
   17.17249870  104.19300079    0.47999999    2.84999990
   17.17583275   99.65440369    0.50000000    2.84999990
   17.17666626   98.82890320    0.41999999    2.84999990
   17.17944336   96.21510315    0.41999999    2.84999990
   17.18277740  104.20400238    0.41999999    2.84999990
   17.18583298   92.07319641    0.41999999    2.84999990
   17.18916512   98.02149963    0.40000001    2.84999990
   17.19249916   88.22360229    0.40000001    2.84999990
   17.19555473   86.82720184    0.40000001    2.84999990
   17.20166779   86.82720184    0.40000001    2.84999990
   17.20555687   93.24130249    0.40000001    2.86999989
   17.20888901   93.21040344    0.41999999    2.84999990
   17.21000099   91.83119965    0.41999999    2.84999990
   17.21250153   90.01049805    0.41999999    2.84999990
   17.21583366   89.01329803    0.41999999    2.84999990
   17.21888924   96.89409637    0.41999999    2.84999990
   17.22222328   88.45140076    0.47999999    2.84999990
   17.22555542   78.48010254    0.47999999    2.84999990
   17.22861099   83.96939850    0.52999997    2.84999990
   17.23194504   79.89440155    0.55000001    2.84999990
   17.23527718   81.23179626    0.55000001    2.82999992
   17.23833275   83.51229858    0.56999999    2.84999990
   17.24444389   83.51229858    0.55000001    2.84999990
   17.24861145   89.04579926    0.55000001    2.82999992
   17.25166702   87.32730103    0.51999998    2.84999990
   17.25499916   85.55169678    0.50000000    2.84999990
   17.25833321   88.23249817    0.47999999    2.84999990
   17.26138878   81.80719757    0.50000000    2.84999990
   17.26472282   86.08460236    0.50000000    2.84999990
   17.26777840   85.31690216    0.51999998    2.84999990
   17.27111053   84.27980042    0.61000001    2.84999990
   17.27444458   84.60070038    0.63000000    2.84999990
   17.27666664   87.10399628    0.61000001    2.84999990
   17.27805519   86.58570099    0.58999997    2.84999990
   17.28138924   88.09089661    0.55000001    2.84999990
   17.28722191   88.09089661    0.55000001    2.84999990
   17.29138756   83.44650269    0.55000001    2.84999990
   17.29472160   82.35399628    0.69000000    2.84999990
   17.29777718  124.76000214    4.90999985    2.84999990
   17.30111122  101.89499664    4.90999985    1.85000002
   17.30416679   95.42489624    0.88000000    2.86999989
   17.30749893  100.67199707    0.47999999    2.86999989
   17.30999947   93.78309631    0.46000001    2.84999990
   17.31110954   95.68299866    0.46000001    2.84999990
   17.31444359   88.95410156    2.09999990    2.84999990
   17.31777954   85.36239624    0.58999997    2.84999990
   17.32083511   90.87640381    0.52999997    2.84999990
   17.32416725   90.42510223    0.51999998    2.82999992
   17.33000183   90.42510223    0.51999998    2.86999989
   17.33416748   89.29759979    0.50000000    2.84999990
   17.33750153   82.33599854    1.28999996    2.82999992
   17.34055710   91.54180145    0.44000000    2.84999990
   17.34333420  101.35099792    0.44000000    2.86999989
   17.34416771   84.84899902    0.44000000    2.86999989
   17.34749985   86.39810181    0.61000001    2.86999989
   17.35055542   93.76280212    1.61000001    2.84999990
   17.35388947   92.81839752    0.89999998    2.84999990
   17.35722351   92.37840271    0.75000000    2.84999990
   17.36027908  108.85600281    0.67000002    2.84999990
   17.36361122  115.76699829    0.47999999    2.84999990
   17.36666679   94.84739685    0.55000001    2.84999990
   17.37305641   94.84739685    0.50000000    2.84999990
   17.37722206   79.65889740    0.50000000    2.84999990
   17.38027763   87.65339661    0.46000001    2.84999990
   17.38361168   92.19390106    0.46000001    2.82999992
   17.38666725  101.03199768    0.50000000    2.84999990
   17.38999939  122.41100311    2.28999996    2.86999989
   17.39333344   -1.00000000    4.90999985    1.09000003
   17.39638901   -1.00000000    4.90999985    0.31999999
   17.39972115  101.61100006    4.90999985    1.28999996
   17.40305519   83.66639709    4.90999985    2.76999998
   17.40611076   93.67870331    0.47999999    2.84999990
   17.40944481   76.18289948    0.47999999    2.84999990
   17.40999985   77.57730103    0.47999999    2.82999992
   17.41583252   77.57730103    0.47999999    2.84999990
   17.42000008   94.12920380    0.47999999    2.84999990
   17.42305565  108.60800171    0.47999999    2.84999990
   17.42638779   96.78130341    0.47999999    2.84999990
   17.42972183  105.09600067    0.47999999    2.82999992
   17.43277740  111.22000122    0.47999999    2.82999992
   17.43610954   97.56639862    0.47999999    2.82999992
   17.43944359  101.05599976    0.47999999    2.84999990
   17.44249916  106.17299652    0.47999999    2.82999992
   17.44333267   99.16580200    0.47999999    2.82999992
   17.44610977   93.37380219    0.47999999    2.82999992
   17.44944382   87.20469666    0.47999999    2.82999992
   17.45250130   90.42729950    0.47999999    2.82999992
   17.45861244   90.42729950    0.52999997    2.84999990
   17.46277809   94.60420227    0.50000000    2.86999989
   17.46611214   87.76550293    0.47999999    2.84999990
   17.46916771   96.18080139    0.47999999    2.84999990
   17.47249985   87.91929626    0.47999999    2.84999990
   17.47583389   89.57630157    0.50000000    2.84999990
   17.47694588   89.66040039    0.50000000    2.84999990
   17.47916794   88.63590240    0.56999999    2.84999990
   17.48250008   80.68090057    0.52999997    2.84999990
   17.48555565   89.13249969    0.52999997    2.84999990
   17.48888969   82.64119720    0.64999998    2.84999990
   17.49222183   90.83390045    0.51999998    2.84999990
   17.49527740   93.91310120    0.51999998    2.82999992
   17.50138855   93.91310120    0.52999997    2.86999989
   17.50555611   83.26699829    0.52999997    2.84999990
   17.50888824   91.80680084    0.52999997    2.86999989
   17.51027870   83.63320160    0.52999997    2.84999990
   17.51250076   90.31469727    0.52999997    2.86999989
   17.51583290   85.84500122    1.44000006    2.82999992
   17.51888847   78.13110352    3.50000000    2.76999998
   17.52222252   79.22250366    2.57999992    2.78999996
   17.52555466   76.06880188    1.80999994    2.80999994
   17.52861023   88.20349884    2.09999990    2.80999994
   17.53194427   94.76909637    1.53999996    2.82999992
   17.53527641   95.83730316    1.30999994    2.84999990
   17.53833199   80.90489960    0.76999998    2.84999990
   17.54444313   80.90489960    0.63000000    2.82999992
   17.54833221   95.11789703    0.63000000    2.73000002
   17.55166626   93.74909973    0.79000002    2.82999992
   17.55499840   97.85679626    0.79000002    2.82999992
   17.55805397  102.14800262    0.88000000    2.86999989
   17.56138802   92.17630005    0.52999997    2.84999990
   17.56472206   88.16950226    0.52999997    2.82999992
   17.56777954   95.18340302    0.52999997    2.86999989
   17.57111168   88.32959747    0.51999998    2.82999992
   17.57444572   82.66020203    0.52999997    2.84999990
   17.57694626   86.51979828    0.52999997    2.84999990
   17.57805634   82.31549835    0.52999997    2.84999990
   17.58139038   80.61849976    0.52999997    2.82999992
   17.58722305   80.61849976    0.56999999    2.84999990
   17.59138870   79.94779968    0.61000001    2.84999990
   17.59444427   81.91380310    0.61000001    2.84999990
   17.59777832   83.88539886    0.61000001    2.84999990
   17.60111237   91.17469788    0.58999997    2.84999990
   17.60416794   92.78900146    0.58999997    2.84999990
   17.60750008   88.59989929    0.58999997    2.84999990
   17.61027908   82.39620209    0.56999999    2.82999992
   17.61111069   85.39109802    0.56999999    2.84999990
   17.61444473   94.72650146    0.56999999    2.82999992
   17.61777878   82.21739960    0.56999999    2.82999992
   17.62083435   86.78510284    0.55000001    2.84999990
   17.62416649   92.01100159    0.55000001    2.84999990
   17.63000107   92.01100159    0.55000001    2.84999990
   17.63416672   86.50800323    0.55000001    2.84999990
   17.63750076   88.91529846    0.56999999    2.84999990
   17.64055634   84.29489899    0.56999999    2.84999990
   17.64361191   90.24040222    0.55000001    2.84999990
   17.64416695   84.18560028    0.56999999    2.84999990
   17.64749908   83.43750000    0.56999999    2.82999992
   17.65083313   84.12870026    0.55000001    2.84999990
   17.65388870   78.49649811    0.56999999    2.84999990
   17.65722275   85.23200226    0.70999998    2.84999990
   17.66027832   85.60620117    0.80000001    2.84999990
   17.66361046   84.55429840    0.92000002    2.82999992
   17.66694450   83.33180237    0.79000002    2.84999990
   17.67277718   83.33180237    0.75000000    2.84999990
   17.67694473   84.94210052    0.55000001    2.82999992
   17.68027687   84.86730194    0.52999997    2.82999992
   17.68333244   82.72530365    0.52999997    2.84999990
   17.68666649   81.94640350    0.52999997    2.84999990
   17.68999863   81.47920227    0.52999997    2.84999990
   17.69305420   87.92400360    0.52999997    2.84999990
   17.69638824   91.81289673    0.52999997    2.82999992
   17.69972038   75.16429901    0.52999997    2.82999992
   17.70277786   87.83329773    0.52999997    2.84999990
   17.70611191   85.97229767    0.52999997    2.82999992
   17.70916748   92.48400116    0.52999997    2.82999992
   17.71027946   93.08110046    0.52999997    2.82999992
   17.71583366   93.08110046    0.52999997    2.82999992
   17.71972275   91.78600311    0.52999997    2.84999990
   17.72305679   90.80549622    0.52999997    2.84999990
   17.72638893   93.51869965    0.52999997    2.84999990
   17.74388885   93.19180298    0.52999997    2.82999992
   17.74638939   85.56050110    0.55000001    2.84999990
   17.74944496   85.91929626    0.55000001    2.82999992
   17.75277710   99.50910187    0.55000001    2.84999990
   17.75861168   99.50910187    0.55000001    2.84999990
   17.76277733   88.67369843    0.55000001    2.82999992
   17.76611137   97.74759674    0.55000001    2.82999992
   17.76944351  103.34899902    0.55000001    2.82999992
   17.77249908   87.72589874    0.52999997    2.82999992
   17.77583313   95.14369965    0.52999997    2.82999992
   17.77722168   99.95909882    0.52999997    2.82999992
   17.77944374  102.09700012    0.52999997    2.82999992
   17.78277779   92.24859619    0.55000001    2.82999992
   17.78610992   82.84130096    0.55000001    2.82999992
   17.78916550   94.50530243    0.55000001    2.82999992
   17.79249954   95.55590057    0.55000001    2.84999990
   17.79583359   90.12819672    0.55000001    2.82999992
   17.80166626   90.12819672    0.55000001    2.84999990
   17.80583191   83.62030029    0.55000001    2.84999990
   17.80888748   83.58159637    1.11000001    2.84999990
   17.81055450   92.75769806    4.90999985    2.78999996
   17.81250000   96.23349762    3.11999989    2.84999990
   17.81583214   82.23970032    0.55000001    2.82999992
   17.81916809   86.97029877    0.55000001    2.82999992
   17.82222366   95.57520294    0.56999999    2.82999992
   17.82555580   89.77200317    0.63000000    2.82999992
   17.82888985   88.11199951    0.63000000    2.82999992
   17.83194542   86.35630035    0.80000001    2.84999990
   17.83527756   89.61720276    0.86000001    2.82999992
   17.83861160   88.16619873    0.98000002    2.82999992
   17.84444427   88.16619873    1.80999994    2.82999992
   17.84861183   79.11319733    1.26999998    2.84999990
   17.85166740   84.02449799    3.97000003    2.84999990
   17.85499954   76.58950043    4.90999985    2.86999989
   17.85833359   85.14849854    4.90999985    2.03999996
   17.86138916   77.85250092    4.90999985    2.91000009
   17.86472321   80.17070007    0.81999999    2.84999990
   17.86805534   91.64600372    0.70999998    2.82999992
   17.87111092   88.65489960    0.70999998    2.82999992
   17.87444496   85.57019806    0.73000002    2.84999990
   17.87722206   88.49770355    0.79000002    2.82999992
   17.87777710   86.92400360    0.76999998    2.84999990
   17.88111115   82.41390228    0.70999998    2.84999990
   17.88722229   82.41390228    0.70999998    2.82999992
   17.89138794   87.61849976    0.69000000    2.82999992
   17.89472198  101.14600372    0.69000000    2.82999992
   17.89777756   87.81980133    0.69000000    2.82999992
   17.90111160   90.55429840    0.69000000    2.82999992
   17.90444374   91.61430359    0.69000000    2.82999992
   17.90749931  100.54900360    0.69000000    2.84999990
   17.91055489   91.81719971    0.64999998    2.82999992
   17.91138840   92.43029785    0.64999998    2.84999990
   17.91444397   90.48320007    0.64999998    2.82999992
   17.91777802   98.45490265    0.67000002    2.82999992
   17.92111015   90.51629639    0.67000002    2.82999992
   17.92416573   87.83309937    0.67000002    2.82999992
   17.93000031   87.83309937    0.67000002    2.84999990
   17.93416595   89.43569946    0.67000002    2.82999992
   17.93750000   89.54270172    0.69000000    2.82999992
   17.94083214   99.94110107    0.67000002    2.84999990
   17.94388771   84.68470001    0.67000002    2.82999992
   17.94416618   91.16259766    0.67000002    2.82999992
   17.94749832   92.56140137    0.69000000    2.82999992
   17.95083427   86.11589813    0.69000000    2.82999992
   17.95388985   84.53649902    0.69000000    2.82999992
   17.95722389   88.89440155    0.70999998    2.84999990
   17.96055603   75.43920135    0.69000000    2.82999992
   17.96361160   87.06659698    0.70999998    2.82999992
   17.96694565   92.99220276    0.70999998    2.82999992
   17.97305679   92.99220276    0.70999998    2.82999992
   17.97722244   86.11949921    0.69000000    2.82999992
   17.97750092   91.87689972    0.69000000    2.82999992
   17.98083305   85.95649719    0.69000000    2.84999990
   17.98416710   95.21820068    0.67000002    2.82999992
   17.98722267   90.20200348    0.67000002    2.82999992
   17.99055672   82.56710052    0.67000002    2.82999992
   17.99388885   82.12969971    0.67000002    2.82999992
   17.99694443   75.55760193    1.16999996    2.82999992
   18.00027847   91.76989746    2.03999996    2.82999992
   18.00361061   85.13670349    4.90999985    2.86999989
   18.00666618   92.68080139    4.90999985    2.03999996
   18.01000023   89.15399933    4.90999985    2.39000010
   18.01055527   99.82140350    4.90999985    2.39000010
   18.01972198   -1.00000000    4.90999985    0.07000000
   18.02305603   -1.00000000    4.90999985    0.13000000
   18.02638817   86.33940125    4.90999985    0.69000000
   18.02944374   84.84059906    4.90999985    2.86999989
   18.03277779   94.84929657    0.92000002    2.82999992
   18.03610992   89.39939880    0.80000001    2.82999992
   18.03916550   86.64009857    0.73000002    2.82999992
   18.04249954   95.44390106    0.70999998    2.82999992
   18.04388809   91.73120117    0.70999998    2.82999992
   18.04611015  104.71199799    0.70999998    2.82999992
   18.04916573   93.55500031    4.90999985    2.89000010
   18.05249977   84.47969818    4.90999985    1.71000004
   18.05861092   84.47969818    4.90999985    2.59999990
   18.06277657   90.71299744    2.00000000    2.82999992
   18.06611061   83.51699829    1.00000000    2.82999992
   18.06916809   90.82319641    0.79000002    2.82999992
   18.07250023   89.67130280    0.79000002    2.82999992
   18.07555580   92.54570007    0.76999998    2.82999992
   18.07722282   94.36879730    0.76999998    2.82999992
   18.07916832   86.86419678    0.76999998    2.82999992
   18.08250046   85.53839874    1.36000001    2.82999992
   18.08583450   82.51429749    2.91000009    2.17000008
   18.08889008   87.08930206    0.92000002    2.82999992
   18.09222221   86.64080048    0.88000000    2.78999996
   18.09555626   87.68240356    0.79000002    2.82999992
   18.10138893   87.68240356    0.79000002    2.82999992
   18.10555649   82.81009674    0.79000002    2.82999992
   18.10888863   87.54280090    0.79000002    2.82999992
   18.11055565   88.31050110    0.79000002    2.82999992
   18.11250114   85.04350281    0.79000002    2.82999992
   18.11555672   81.77179718    0.76999998    2.82999992
   18.11888885   87.77660370    0.76999998    2.82999992
   18.12194443   92.95079803    0.76999998    2.82999992
   18.12527847   85.53630066    0.79000002    2.82999992
   18.12861061   80.59259796    0.79000002    2.82999992
   18.13166618   84.21910095    0.79000002    2.82999992
   18.13500023   89.11250305    0.79000002    2.82999992
   18.13805580   85.29489899    0.76999998    2.82999992
   18.14444351   85.29489899    0.80000001    2.82999992
   18.14861107   85.30180359    1.69000006    2.82999992
   18.15166664   84.79010010    2.25000000    2.82999992
   18.15499878   84.56800079    0.80000001    2.82999992
   18.15805435   87.63539886    0.80000001    2.82999992
   18.16138840   94.23410034    0.76999998    2.82999992
   18.16472244   95.16310120    0.76999998    2.82999992
   18.16777802   89.52380371    0.75000000    2.82999992
   18.17111015   84.24269867    0.73000002    2.82999992
   18.17444420   93.32990265    0.73000002    2.80999994
   18.17722130   86.36299896    0.73000002    2.82999992
   18.17805481   87.63240051    0.73000002    2.82999992
   18.18138885   93.43150330    0.75000000    2.82999992
   18.18722153   93.43150330    0.76999998    2.82999992
   18.19138718   88.81359863    0.76999998    2.82999992
   18.19444275   86.95140076    0.79000002    2.82999992
   18.19777679   88.17469788    0.79000002    2.82999992
   18.20111275   88.86409760    0.80000001    2.82999992
   18.20416832   89.24729919    0.80000001    2.82999992
   18.20750046   88.22370148    0.81999999    2.82999992
   18.21055603   86.87200165    0.83999997    2.82999992
   18.21111107   86.05049896    0.83999997    2.82999992
   18.21416664   90.03970337    0.83999997    2.80999994
   18.21750069   94.09790039    0.83999997    2.82999992
   18.22055626   90.62889862    0.83999997    2.82999992
   18.22389030   90.04149628    0.83999997    2.82999992
   18.23000145   90.04149628    0.83999997    2.82999992
   18.23416710   91.35829926    0.83999997    2.80999994
   18.23750114   85.32440186    0.83999997    2.82999992
   18.24055672   89.18579865    0.81999999    2.80999994
   18.24388885   87.68789673    0.81999999    2.80999994
   18.24444389   85.83940125    0.81999999    2.82999992
   18.24749947   85.23349762    0.81999999    2.82999992
   18.25083351   83.43609619    0.81999999    2.80999994
   18.25388908   84.33300018    1.03999996    2.82999992
   18.25722313   77.16439819    1.00000000    2.82999992
   18.26055527   72.01210022    1.00000000    2.82999992
   18.26361084   84.11779785    0.88000000    2.82999992
   18.26694489   84.31169891    0.83999997    2.80999994
   18.27305603   84.31169891    0.88000000    2.80999994
   18.27694511   87.22360229    0.88000000    2.80999994
   18.27750015   83.23979950    0.88000000    2.82999992
   18.28083229   89.01909637    0.76999998    2.80999994
   18.28416634   89.90039825    0.76999998    2.82999992
   18.28722191   90.43890381    0.79000002    2.82999992
   18.29055595   87.70690155    0.76999998    2.82999992
   18.29388809   91.37339783    0.75000000    2.82999992
   18.29694366   83.44090271    0.75000000    2.82999992
   18.30027771   83.78150177    0.73000002    2.82999992
   18.30333328   89.91909790    0.73000002    2.82999992
   18.30666542   88.05030060    0.73000002    2.82999992
   18.30999947   87.04759979    0.70999998    2.82999992
   18.31083298   90.37699890    0.70999998    2.80999994
   18.31583214   90.37699890    0.70999998    2.80999994
   18.32000160   91.31909943    0.69000000    2.80999994
   18.32305717   89.40989685    0.69000000    2.82999992
   18.32638931   87.70379639    0.69000000    2.82999992
   18.32972336   79.71540070    0.69000000    2.80999994
   18.33277893   89.54519653    0.69000000    2.80999994
   18.33611107   84.76000214    0.73000002    2.80999994
   18.33944511   85.71410370    0.73000002    2.80999994
   18.34250069   84.82430267    0.73000002    2.80999994
   18.34416771   84.80149841    0.70999998    2.82999992
   18.34611130   83.03450012    0.70999998    2.80999994
   18.34944534   85.14279938    0.70999998    2.80999994
   18.35250092   83.58650208    0.70999998    2.80999994
   18.35861206   83.58650208    0.70999998    2.82999992
   18.36277771   86.03179932    0.70999998    2.82999992
   18.36611176   84.06140137    0.73000002    2.82999992
   18.36916733   85.27870178    0.73000002    2.82999992
   18.37249947   89.90149689    0.73000002    2.82999992
   18.37555504   86.88449860    0.73000002    2.80999994
   18.37750053   86.44629669    0.73000002    2.80999994
   18.37916756   91.48280334    0.73000002    2.82999992
   18.38249969   85.35880280    0.73000002    2.80999994
   18.38555527   84.36019897    0.73000002    2.80999994
   18.38888931   84.43830109    0.70999998    2.80999994
   18.39222145   86.05940247    0.70999998    2.82999992
   18.39527702   89.25849915    0.73000002    2.82999992
   18.40138817   89.25849915    0.73000002    2.82999992
   18.40555573   86.42910004    0.70999998    2.82999992
   18.40888786   92.59300232    0.70999998    2.80999994
   18.41110992   85.98650360    0.70999998    2.80999994
   18.41250038   83.85959625    0.73000002    2.82999992
   18.41583252   81.39230347    0.73000002    2.80999994
   18.41888809   86.27870178    0.73000002    2.82999992
   18.42222214   81.47290039    0.75000000    2.82999992
   18.42555428   87.21189880    0.75000000    2.80999994
   18.42860985   88.89219666    0.76999998    2.80999994
   18.43194389   85.18779755    0.76999998    2.82999992
   18.43527603   91.32510376    4.90999985    2.84999990
   18.43833160   83.56079865    4.90999985    2.82999992
   18.44416618   83.56079865    0.81999999    2.80999994
   18.44833183   93.49160004    0.80000001    2.80999994
   18.45166779   87.48220062    0.81999999    2.80999994
   18.45499992   87.46849823    0.81999999    2.78999996
   18.45805550   86.22920227    0.83999997    2.82999992
   18.46138954   95.72869873    0.83999997    2.82999992
   18.46444511   92.45980072    0.80000001    2.80999994
   18.46777916   90.95210266    0.79000002    2.80999994
   18.47111130   95.28489685    0.76999998    2.80999994
   18.47416687   88.30650330    0.75000000    2.82999992
   18.47750092   91.01789856    0.75000000    2.80999994
   18.47944450   91.24659729    0.76999998    2.80999994
   18.48111153   93.50160217    0.76999998    2.80999994
   18.48722267   93.50160217    0.79000002    2.80999994
   18.49138832   92.45230103    0.79000002    2.82999992
   18.49444389   92.25939941    0.79000002    2.80999994
   18.49777794   89.51750183    0.80000001    2.80999994
   18.50111198   87.30799866    0.80000001    2.80999994
   18.50416756   91.25309753    0.81999999    2.80999994
   18.50749969   91.31980133    0.81999999    2.82999992
   18.51055527   89.04129791    0.81999999    2.82999992
   18.51277733   88.29350281    0.81999999    2.82999992
   18.51416588   92.02829742    0.81999999    2.82999992
   18.51749992   91.54630280    0.83999997    2.80999994
   18.52083397   90.06220245    0.89999998    2.80999994
   18.52388954   86.13639832    0.89999998    2.80999994
   18.53000069   86.13639832    0.89999998    2.80999994
   18.53416634   88.49469757    0.88000000    2.82999992
   18.53722191   95.46160126    0.89999998    2.80999994
   18.54055595   89.93769836    0.89999998    2.80999994
   18.54388809   91.79429626    0.94000000    2.82999992
   18.54611015   80.35140228    0.94000000    2.80999994
   18.54749870   86.82389832    0.94000000    2.80999994
   18.55083275   83.77619934    0.94000000    2.80999994
   18.55388832   84.80419922    0.95999998    2.80999994
   18.55722237   85.22550201    0.98000002    2.80999994
   18.56055450   91.85600281    0.92000002    2.80999994
   18.56361008   94.89320374    0.89999998    2.80999994
   18.56694603   86.80139923    0.89999998    2.80999994
   18.57277870   86.80139923    0.88000000    2.82999992
   18.57694626   83.59960175    0.88000000    2.80999994
   18.57944489   99.44660187    0.88000000    2.80999994
   18.58055687   98.28459930    0.88000000    2.80999994
   18.58388901   86.67479706    0.89999998    2.80999994
   18.58694458  100.35399628    0.89999998    2.80999994
   18.59027863  109.82599640    0.89999998    2.80999994
   18.59333420   90.77690125    0.89999998    2.80999994
   18.59666824   95.59999847    0.89999998    2.80999994
   18.60000038   82.24549866    0.83999997    2.80999994
   18.60305595   83.76290131    0.86000001    2.78999996
   18.60639000   92.11109924    0.88000000    2.80999994
   18.60972214   99.70780182    0.83999997    2.80999994
   18.61555672   99.70780182    0.81999999    2.80999994
   18.61972237   94.52369690    0.81999999    2.78999996
   18.62305641   89.52189636    0.81999999    2.80999994
   18.62611198   91.29280090    0.81999999    2.80999994
   18.62944412   81.87809753    0.81999999    2.80999994
   18.63277817   88.96040344    0.81999999    2.80999994
   18.63583374   87.72100067    0.81999999    2.80999994
   18.63916588   95.07740021    0.81999999    2.78999996
   18.64249992   94.74299622    0.81999999    2.80999994
   18.64555550   86.13430023    0.81999999    2.80999994
   18.64666748   87.82939911    0.81999999    2.80999994
   18.64916611   90.25610352    0.83999997    2.80999994
   18.65250015   85.52690125    0.86000001    2.82999992
   18.65861130   85.52690125    0.83999997    2.78999996
   18.66250038   82.90450287    0.83999997    2.80999994
   18.66583252   86.31629944    0.83999997    2.80999994
   18.66916656   91.50050354    0.83999997    2.80999994
   18.67222214   90.90859985    0.83999997    2.80999994
   18.67555428   92.15679932    0.86000001    2.78999996
   18.67888832   90.91979980    0.86000001    2.80999994
   18.68000031   88.28500366    0.86000001    2.80999994
   18.68249893   84.89900208    0.88000000    2.80999994
   18.68583298   86.88980103    0.88000000    2.78999996
   18.68916512   86.11160278    0.88000000    2.80999994
   18.69222069   85.19680023    0.88000000    2.80999994
   18.69555473   87.99440002    0.83999997    2.80999994
   18.70138931   87.99440002    0.80000001    2.80999994
   18.70555687   87.98549652    0.80000001    2.80999994
   18.70861244   87.56330109    0.80000001    2.80999994
   18.71194458   91.90589905    0.79000002    2.82999992
   18.71333504   94.49500275    0.80000001    2.82999992
   18.71555710   86.58519745    0.79000002    2.80999994
   18.71888924   90.13310242    0.79000002    2.80999994
   18.72194481   89.52120209    0.79000002    2.80999994
   18.72527885   97.04340363    0.79000002    2.80999994
   18.72861099   97.56809998    0.80000001    2.80999994
   18.73166656   74.64669800    0.81999999    2.78999996
   18.73500061  104.74099731    0.83999997    2.80999994
   18.73805618   97.33660126    0.83999997    2.80999994
   18.74416733   97.33660126    0.88000000    2.80999994
   18.76250076  104.95300293    0.81999999    2.78999996
   18.76583290  106.40699768    0.83999997    2.78999996
   18.76916695  100.77200317    0.83999997    2.80999994
   18.77222252   94.46489716    0.86000001    2.78999996
   18.77555466   90.07240295    0.86000001    2.78999996
   18.77861023   83.03530121    0.86000001    2.80999994
   18.78194427   90.55419922    0.86000001    2.78999996
   18.78722191   90.55419922    0.89999998    2.78999996
   18.79138756   92.74169922    0.89999998    2.78999996
   18.79472160   88.34880066    0.89999998    2.78999996
   18.79555511   91.94400024    0.89999998    2.78999996
   18.79833221   91.34739685    0.89999998    2.80999994
   18.80166626  100.40299988    0.83999997    2.80999994
   18.80472183   94.62770081    0.83999997    2.78999996
   18.80805397   84.86450195    0.83999997    2.78999996
   18.81110954   91.61360168    0.83999997    2.78999996
   18.81444359   99.24279785    0.83999997    2.78999996
   18.81777954   90.18280029    0.83999997    2.78999996
   18.82083511   88.45220184    0.83999997    2.78999996
   18.82416725   91.77050018    0.83999997    2.80999994
   18.83027840   91.77050018    0.83999997    2.78999996
   18.83416748   95.94409943    0.83999997    2.80999994
   18.83750153   93.23729706    0.83999997    2.80999994
   18.84083366   92.09490204    0.80000001    2.78999996
   18.84388924   95.71260071    0.81999999    2.78999996
   18.84722328   90.78269958    0.81999999    2.78999996
   18.85027885  102.10500336    0.81999999    2.78999996
   18.85361099   95.54180145    0.81999999    2.78999996
   18.85694504   92.71959686    0.81999999    2.78999996
   18.86000061  103.86599731    0.81999999    2.78999996
   18.86222267   87.74770355    0.81999999    2.78999996
   18.86361122   81.31900024    0.83999997    2.80999994
   18.86694527   92.32379913    0.83999997    2.80999994
   18.87305641   92.32379913    0.86000001    2.78999996
   18.87722206   92.58719635    0.88000000    2.78999996
   18.88027763  100.34200287    0.88000000    2.78999996
   18.88361168  103.17900085    0.88000000    2.78999996
   18.88694382  106.80000305    0.88000000    2.78999996
   18.88999939  101.44100189    0.86000001    2.78999996
   18.89333344  105.79799652    0.86000001    2.78999996
   18.89555550   99.53260040    0.86000001    2.78999996
   18.89694405  105.76799774    0.86000001    2.78999996
   18.90027809  106.61100006    0.86000001    2.78999996
   18.90333366  115.11799622    0.86000001    2.78999996
   18.90666580  115.48600006    0.86000001    2.78999996
   18.90972137  110.35600281    0.86000001    2.78999996
   18.91583252  110.35600281    0.83999997    2.78999996
   18.92000008  113.12599945    0.83999997    2.78999996
   18.92333221  103.09999847    0.83999997    2.78999996
   18.92638779  118.91400146    0.83999997    2.78999996
   18.92888832  118.95999908    0.86000001    2.78999996
   18.93000031  110.99099731    0.86000001    2.78999996
   18.93333244  101.84500122    0.86000001    2.78999996
   18.93638802  113.32499695    0.88000000    2.78999996
   18.93972206  116.82399750    0.86000001    2.78999996
   18.94305420  128.76100159    0.86000001    2.78999996
   18.94610977  109.37999725    0.86000001    2.78999996
   18.94944382  110.47200012    0.86000001    2.78999996
   18.95250130  121.75499725    0.86000001    2.78999996
   18.95861244  121.75499725    0.86000001    2.78999996
   18.96277809   89.19439697    0.86000001    2.78999996
   18.96611214  116.25700378    0.86000001    2.78999996
   18.96916771   96.54489899    0.86000001    2.78999996
   18.97249985  102.58300018    0.86000001    2.76999998
   18.97583389   91.25409698    0.86000001    2.76999998
   18.97888947  100.89900208    0.86000001    2.78999996
   18.98222351   97.75430298    0.86000001    2.78999996
   18.98555565  108.07800293    0.86000001    2.78999996
   18.98861122  102.44200134    0.86000001    2.78999996
   18.99194527  114.23100281    0.86000001    2.78999996
   18.99500084  105.64099884    0.88000000    2.78999996
   18.99555588  110.89399719    0.86000001    2.78999996
   19.00166702  110.89399719    0.86000001    2.78999996
   19.00555611  105.34600067    0.83999997    2.76999998
   19.00888824  108.80500031    0.81999999    2.78999996
   19.01222229  103.26499939    0.83999997    2.78999996
   19.01527786  101.57800293    0.83999997    2.78999996
   19.01861000  108.52999878    0.83999997    2.78999996
   19.02194405  106.94100189    0.86000001    2.78999996
   19.02499962  101.50399780    0.83999997    2.78999996
   19.02833366  103.09700012    0.83999997    2.78999996
   19.02888870   97.47859955    0.81999999    2.76999998
   19.03194427   92.14959717    0.83999997    2.78999996
   19.03527641  105.13999939    0.86000001    2.78999996
   19.03833199   97.95919800    0.86000001    2.78999996
   19.04444313   97.95919800    0.86000001    2.78999996
   19.04861069  105.07099915    0.88000000    2.78999996
   19.05166626  100.32599640    0.88000000    2.78999996
   19.05499840   89.27179718    0.88000000    2.76999998
   19.05833244   99.93930054    0.88000000    2.76999998
   19.06138802  104.16600037    0.88000000    2.76999998
   19.06222153  106.50099945    0.88000000    2.76999998
   19.06499863   95.69149780    0.88000000    2.78999996
   19.06833458  103.00700378    0.88000000    2.76999998
   19.07139015   88.71640015    0.88000000    2.76999998
   19.07472229   93.11540222    0.88000000    2.76999998
   19.07805634   86.39550018    0.86000001    2.78999996
   19.08111191  104.07399750    0.86000001    2.76999998
   19.08722305  104.07399750    0.83999997    2.76999998
   19.09138870   86.11669922    0.86000001    2.78999996
   19.09444427   93.45359802    0.86000001    2.78999996
   19.09555626   89.25199890    0.86000001    2.78999996
   19.09805679   92.26889801    0.83999997    2.76999998
   19.10138893   89.47840118    0.86000001    2.78999996
   19.10444450   93.82530212    0.86000001    2.78999996
   19.10777855   86.15740204    0.86000001    2.76999998
   19.11111069   90.99469757    0.88000000    2.78999996
   19.11416626   85.31950378    0.88000000    2.76999998
   19.11750031   93.39240265    0.89999998    2.78999996
   19.12055588   85.45359802    1.07000005    2.76999998
   19.12388992   90.76470184    0.98000002    2.78999996
   19.13000107   90.76470184    1.01999998    2.78999996
   19.13416672   91.73529816    1.03999996    2.76999998
   19.13750076   93.46299744    1.09000003    2.76999998
   19.14055634   80.61250305    1.11000001    2.76999998
   19.14388847   81.94409943    1.07000005    2.76999998
   19.14722252   85.13569641    1.14999998    2.76999998
   19.15027809   84.05690002    1.16999996    2.76999998
   19.15361023   87.87840271    1.07000005    2.76999998
   19.15694427   81.54940033    1.07000005    2.76999998
   19.15999985   83.84980011    1.21000004    2.76999998
   19.16222191   86.04149628    1.28999996    2.76999998
   19.16361046   89.41529846    1.28999996    2.76999998
   19.16694450   80.29409790    0.98000002    2.76999998
   19.17305565   80.29409790    1.00000000    2.76999998
   19.17694473   88.89409637    1.00000000    2.76999998
   19.18027687   83.32209778    0.98000002    2.76999998
   19.18361092   79.37359619    0.95999998    2.76999998
   19.18666649   84.82980347    0.98000002    2.76999998
   19.18999863   85.96540070    0.95999998    2.78999996
   19.19333267   86.05519867    0.98000002    2.76999998
   19.19555473   88.38890076    0.98000002    2.76999998
   19.19722176   88.69979858    0.98000002    2.76999998
   19.20027924   91.80460358    0.98000002    2.75000000
   19.20361137   96.35030365    0.95999998    2.75000000
   19.20666695   88.73459625    0.95999998    2.75000000
   19.21000099   84.65480042    0.98000002    2.75000000
   19.21583366   84.65480042    1.00000000    2.76999998
   19.22000122   82.63050079    1.00000000    2.76999998
   19.22305679   83.81320190    1.01999998    2.75000000
   19.22638893   88.53910065    1.01999998    2.75000000
   19.22916794   87.75319672    1.00000000    2.76999998
   19.23000145   93.85639954    1.00000000    2.76999998
   19.23333359   87.32009888    0.98000002    2.76999998
   19.23666763   89.04579926    0.94000000    2.76999998
   19.23999977   92.28019714    0.92000002    2.76999998
   19.24305534   89.18409729    0.92000002    2.76999998
   19.24638939   89.53309631    0.92000002    2.76999998
   19.24972153   84.20570374    0.88000000    2.76999998
   19.25277710   84.18930054    0.88000000    2.76999998
   19.25861168   84.18930054    0.88000000    2.75000000
   19.26277733   89.71759796    0.89999998    2.75000000
   19.26611137   93.89510345    0.89999998    2.75000000
   19.26916695   78.97149658    0.89999998    2.76999998
   19.27249908   83.01629639    0.89999998    2.75000000
   19.27583313   90.05809784    1.86000001    2.78999996
   19.27888870   87.60299683    4.90999985    2.80999994
   19.28222275   83.51010132    4.90999985    2.75000000
   19.28527641   87.78839874    4.90999985    2.75000000
   19.28861046   92.77880096    1.75000000    2.76999998
   19.29194450  148.24499512    4.90999985    2.86999989
   19.29500008   -1.00000000    4.90999985    0.83999997
   19.30138779   -1.00000000    4.90999985    2.76999998
   19.30555534   82.84059906    1.33000004    2.75000000
   19.30888748   96.66429901    0.86000001    2.76999998
   19.31194305   87.78269958    0.88000000    2.76999998
   19.31527710   86.11930084    0.89999998    2.76999998
   19.31861115   93.78220367    0.94000000    2.76999998
   19.32166672   89.48179626    0.94000000    2.76999998
   19.32500076   89.82900238    0.92000002    2.76999998
   19.32805634   87.21320343    0.92000002    2.76999998
   19.32916832   86.90480042    0.94000000    2.75000000
   19.33166695   85.95960236    0.94000000    2.75000000
   19.33500099   94.85919952    0.94000000    2.76999998
   19.33805656   86.35849762    0.92000002    2.76999998
   19.34444427   86.35849762    0.92000002    2.75000000
   19.34833336   88.26799774    0.89999998    2.76999998
   19.35166740   91.70919800    0.88000000    2.76999998
   19.35499954   82.84600067    0.88000000    2.76999998
   19.35805511   85.75279999    0.88000000    2.76999998
   19.36138916   81.69930267    0.88000000    2.76999998
   19.36250114   77.84439850    0.88000000    2.75000000
   19.36499977   79.47850037    0.89999998    2.75000000
   19.36833382   83.09919739    0.89999998    2.75000000
   19.37138939   88.76730347    0.89999998    2.75000000
   19.37472153   80.71009827    0.92000002    2.75000000
   19.37805557   84.54029846    4.90999985    2.75000000
   19.38111115   91.16030121    4.90999985    2.76999998
   19.38722229   91.16030121    4.40999985    2.76999998
   19.39138794   91.74549866    3.07999992    2.76999998
   19.39444351   84.53399658    4.90999985    2.75000000
   19.39583397   91.14170074    4.90999985    2.76999998
   19.39805603   96.56250000    4.90999985    2.80999994
   19.40138817  122.55599976    4.90999985    2.44000006
   19.40444374   94.96170044    4.90999985    2.67000008
   19.40777779   99.70439911    4.90999985    2.64000010
   19.41110992   87.92089844    2.93000007    2.73000002
   19.41416550   93.62809753    1.14999998    2.75000000
   19.41749954  101.33300018    1.00000000    2.75000000
   19.42083359   98.80509949    0.95999998    2.75000000
   19.42388916   89.30629730    0.95999998    2.75000000
   19.43000031   89.30629730    1.00000000    2.75000000
   19.43416595   89.18599701    1.00000000    2.75000000
   19.43722153   90.66899872    1.00000000    2.75000000
   19.44055557   94.14510345    1.00000000    2.75000000
   19.44388771   82.76750183    1.00000000    2.76999998
   19.44694328   85.96399689    1.00000000    2.75000000
   19.45027924   98.80339813    1.00000000    2.75000000
   19.45361137  104.42500305    1.00000000    2.75000000
   19.45666695   97.88120270    1.00000000    2.75000000
   19.46000099   86.51180267    1.00000000    2.75000000
   19.46250153   92.32620239    1.01999998    2.75000000
   19.46361160   86.01260376    1.00000000    2.75000000
   19.46694565   88.47820282    1.00000000    2.75000000
   19.47277832   88.47820282    0.98000002    2.75000000
   19.47694588   86.73079681    0.98000002    2.75000000
   19.48027802   85.29070282    0.98000002    2.75000000
   19.48333359   82.97499847    0.98000002    2.75000000
   19.48666763   89.79199982    0.98000002    2.75000000
   19.48999977   91.41950226    1.00000000    2.75000000
   19.49305534   89.91680145    1.00000000    2.75000000
   19.49583435   87.16709900    1.36000001    2.75000000
   19.49666786   88.23480225    1.03999996    2.75000000
   19.50000000  102.92800140    1.01999998    2.75000000
   19.50305557   98.16999817    1.01999998    2.75000000
   19.50638962   98.38400269    1.01999998    2.75000000
   19.50972176   94.52110291    1.01999998    2.75000000
   19.51555634   94.52110291    1.01999998    2.75000000
   19.51972198   92.31169891    1.01999998    2.73000002
   19.52305603   84.81099701    1.01999998    2.75000000
   19.52638817   89.26689911    1.01999998    2.75000000
   19.52916718   97.44029999    1.03999996    2.75000000
   19.52972221   91.43990326    1.01999998    2.75000000
   19.53305435   90.95709991    1.03999996    2.75000000
   19.53610992   91.17019653    1.03999996    2.75000000
   19.53944397   92.70829773    1.05999994    2.75000000
   19.54277802   78.55580139    1.05999994    2.75000000
   19.54583359   84.47440338    1.05999994    2.75000000
   19.54916573   91.06310272    1.05999994    2.75000000
   19.55249977   95.15650177    1.07000005    2.75000000
   19.55861092   95.15650177    4.90999985    0.44000000
   19.56277657   95.12729645    4.90999985    2.76999998
   19.56583214   94.60649872    1.16999996    2.75000000
   19.56916809   88.03320313    1.11000001    2.73000002
   19.57250023   88.68340302    1.19000006    2.73000002
   19.57555580   88.31320190    1.13000000    2.73000002
   19.57888985   93.16349792    1.11000001    2.73000002
   19.58194542   83.45529938    1.11000001    2.73000002
   19.58527756   88.20089722    1.14999998    2.73000002
   19.58861160   93.79250336    1.13000000    2.73000002
   19.59166718   88.13539886    1.13000000    2.73000002
   19.59500122   88.06569672    1.11000001    2.73000002
   19.59583473   87.82810211    1.11000001    2.73000002
   19.60138893   87.82810211    1.09000003    2.73000002
   19.60555649   84.60240173    1.07000005    2.75000000
   19.60861206   86.35320282    1.07000005    2.73000002
   19.61194420   88.67549896    1.05999994    2.73000002
   19.61527824   90.75209808    1.05999994    2.73000002
   19.61861038   97.44390106    1.05999994    2.73000002
   19.62166595   97.91619873    1.05999994    2.75000000
   19.62500000   98.04620361    1.05999994    2.73000002
   19.62805557   91.70149994    1.05999994    2.73000002
   19.62916756   87.72219849    1.05999994    2.73000002
   19.63166618   88.04450226    1.05999994    2.73000002
   19.63500023   86.79989624    1.07000005    2.75000000
   19.63833237   88.69840240    1.07000005    2.73000002
   19.64416695   88.69840240    1.11000001    2.73000002
   19.64833260   85.98259735    1.11000001    2.73000002
   19.65166664   93.09259796    1.13000000    2.75000000
   19.65472221   94.47859955    1.19000006    2.73000002
   19.65805435   91.17320251    1.19000006    2.71000004
   19.66138840   92.43879700    1.16999996    2.71000004
   19.66250038   93.89890289    1.16999996    2.71000004
   19.66472244   93.04699707    1.16999996    2.71000004
   19.66805458   93.29630280    1.21000004    2.73000002
   19.67138863  101.40399933    1.21000004    2.73000002
   19.67444420   95.62049866    1.23000002    2.71000004
   19.67777634   93.03859711    1.23000002    2.73000002
   19.68083191  104.05599976    1.23000002    2.71000004
   19.68694305  104.05599976    1.23000002    2.71000004
   19.69111061   92.63510132    1.23000002    2.73000002
   19.69444275   89.70909882    1.23000002    2.73000002
   19.69583321   89.23090363    1.19000006    2.71000004
   19.69805527   98.69650269    1.19000006    2.71000004
   19.70138931   88.75810242    1.16999996    2.71000004
   19.70472336  100.91500092    1.16999996    2.71000004
   19.70777893   95.35199738    1.13000000    2.73000002
   19.71111107   85.41929626    1.11000001    2.73000002
   19.71444511  101.48500061    1.11000001    2.71000004
   19.71750069   94.98979950    1.11000001    2.71000004
   19.72083473   98.94719696    1.11000001    2.73000002
   19.72389030   93.51550293    1.13000000    2.71000004
   19.73000145   93.51550293    1.13000000    2.73000002
   19.73416710   85.19349670    1.14999998    2.71000004
   19.73722267   85.26730347    1.16999996    2.73000002
   19.74055672   82.88970184    1.19000006    2.71000004
   19.74361229   84.70079803    1.19000006    2.73000002
   19.74694443   84.77040100    1.19000006    2.73000002
   19.75027847   88.84369659    1.19000006    2.73000002
   19.75333405   92.29090118    1.19000006    2.71000004
   19.75666618   95.00279999    1.19000006    2.71000004
   19.76000023   86.01799774    1.21000004    2.71000004
   19.76250076   93.91790009    1.21000004    2.73000002
   19.78305435   93.91790009    1.26999998    2.71000004
   19.78722191   92.78820038    1.39999998    2.71000004
   19.79055595   92.40139771    1.41999996    2.71000004
   19.79361153   99.56230164    1.41999996    2.71000004
   19.79583359   91.35209656    1.41999996    2.71000004
   19.79749870   96.47820282    1.41999996    2.71000004
   19.80055428   94.94499969    1.48000002    2.71000004
   19.80388832   88.14399719    1.46000004    2.71000004
   19.80694389   79.97750092    1.46000004    2.71000004
   19.81027794   88.07890320    1.44000006    2.71000004
   19.81361008   80.68800354    1.46000004    2.71000004
   19.81666756   85.47560120    1.44000006    2.69000006
   19.82000160   88.10890198    1.41999996    2.71000004
   19.82583427   88.10890198    1.41999996    2.71000004
   19.83000183   85.06230164    1.46000004    2.71000004
   19.83305550   83.04299927    1.46000004    2.71000004
   19.83638954   94.68499756    1.48000002    2.71000004
   19.83972359   90.50229645    1.58000004    2.69000006
   19.84277916   96.08319855    1.63000000    2.69000006
   19.84611130   98.50409698    1.78999996    2.69000006
   19.84944534   92.07939911    1.80999994    2.69000006
   19.85250092   86.22840118    1.75000000    2.71000004
   19.85583305   91.66870117    1.71000004    2.71000004
   19.85888863   98.67440033    1.64999998    2.71000004
   19.86222267   97.15299988    1.61000001    2.69000006
   19.86277771   91.90769958    1.60000002    2.69000006
   19.86861038   91.90769958    1.55999994    2.69000006
   19.87277794   85.85430145    1.58000004    2.69000006
   19.87611198   95.79199982    1.60000002    2.69000006
   19.87916756   93.78150177    1.60000002    2.71000004
   19.88249969   91.03459930    1.58000004    2.69000006
   19.88583374   83.68679810    1.58000004    2.69000006
   19.88888931   89.74870300    1.58000004    2.69000006
   19.89222145   88.94989777    1.63000000    2.69000006
   19.89527702   90.97209930    1.63000000    2.69000006
   19.89611053   94.61589813    1.64999998    2.69000006
   19.89916611   95.10430145    1.64999998    2.69000006
   19.90222168   89.52649689    1.66999996    2.69000006
   19.90555573   84.93430328    1.69000006    2.69000006
   19.91138840   84.93430328    1.78999996    2.69000006
   19.91555595   95.00820160    1.85000002    2.69000006
   19.91888809   91.37789917    1.86000001    2.69000006
   19.92222214  102.79399872    1.86000001    2.69000006
   19.92527771   93.44270325    1.86000001    2.71000004
   19.92860985   87.84159851    1.86000001    2.69000006
   19.92944336   84.47609711    1.86000001    2.69000006
   19.93222237   89.83540344    1.78999996    2.69000006
   19.93527603   88.68139648    1.73000002    2.69000006
   19.93861008   88.48670197    1.64999998    2.69000006
   19.94194412   95.62239838    1.61000001    2.69000006
   19.94499969   96.12750244    1.58000004    2.69000006
   19.94833183   91.39969635    1.58000004    2.69000006
   19.95444489   91.39969635    1.60000002    2.69000006
   19.95861244   90.23850250    1.61000001    2.69000006
   19.96166801   90.19020081    1.61000001    2.69000006
   19.96277809  104.20500183    1.61000001    2.69000006
   19.96555710   94.32520294    1.61000001    2.69000006
   19.96861076   92.41850281    1.61000001    2.69000006
   19.97194481   94.78959656    1.58000004    2.69000006
   19.97527885   91.84929657    1.53999996    2.69000006
   19.97833443   89.06079865    1.48000002    2.69000006
   19.98166656   98.00810242    1.46000004    2.69000006
   19.98472214   91.86530304    1.44000006    2.67000008
   19.98805618   90.22450256    1.44000006    2.69000006
   19.99138832   90.32430267    1.44000006    2.69000006
   19.99722290   90.32430267    1.44000006    2.69000006
   20.00138855   87.15940094    1.46000004    2.67000008
   20.00444412   92.90509796    1.50000000    2.69000006
   20.00777817   87.75170135    1.50000000    2.69000006
   20.01111031   92.96559906    1.48000002    2.69000006
   20.01416588   90.15390015    1.44000006    2.69000006
   20.01749992   89.88169861    1.44000006    2.69000006
   20.02055550   90.73519897    1.41999996    2.67000008
   20.02388954   86.66300201    1.39999998    2.67000008
   20.02722168   88.36710358    1.39999998    2.69000006
   20.02944374   86.30239868    1.44000006    2.67000008
   20.03083229   88.70200348    1.53999996    2.69000006
   20.03388786   91.80670166    1.51999998    2.67000008
   20.03999901   91.80670166    1.50000000    2.69000006
   20.04416656   95.99030304    1.50000000    2.67000008
   20.04749870   82.96440125    1.51999998    2.67000008
   20.05055428   85.67099762    1.55999994    2.69000006
   20.05388832   92.79599762    1.58000004    2.67000008
   20.05722237   86.04930115    1.58000004    2.67000008
   20.06027794   91.30609894    1.58000004    2.67000008
   20.06277657   98.18029785    1.58000004    2.67000008
   20.06416512   91.33679962    1.58000004    2.67000008
   20.06722260   87.25240326    1.60000002    2.67000008
   20.07055664   88.48680115    1.60000002    2.67000008
   20.07389069   82.69920349    1.63000000    2.67000008
   20.07694626   85.30829620    1.69000006    2.67000008
   20.08277893   85.30829620    1.75000000    2.67000008
   20.08694458   87.73989868    1.80999994    2.67000008
   20.09027863   82.87169647    1.80999994    2.67000008
   20.09333420   85.81839752    1.83000004    2.67000008
   20.09611130   79.17379761    1.83000004    2.67000008
   20.09722328   84.85289764    1.83000004    2.67000008
   20.10027885   81.89710236    1.85000002    2.67000008
   20.10361099   84.35890198    1.78999996    2.67000008
   20.10694504   84.90350342    1.78999996    2.67000008
   20.11000061   83.54640198    1.78999996    2.67000008
   20.11333466   83.02449799    1.61000001    2.67000008
   20.11666679   90.25150299    1.61000001    2.67000008
   20.11972237   88.26909637    1.60000002    2.67000008
   20.12583351   88.26909637    1.60000002    2.67000008
   20.12972260   87.96880341    1.60000002    2.67000008
   20.13305473   98.11309814    1.60000002    2.67000008
   20.13638878   82.66280365    1.60000002    2.67000008
   20.13944435   91.99169922    1.55999994    2.67000008
   20.14277840   88.08139801    1.53999996    2.67000008
   20.14611053   87.32189941    1.53999996    2.67000008
   20.14916611   89.20230103    1.51999998    2.67000008
   20.15250015   89.30729675    1.51999998    2.67000008
   20.15555573   90.89759827    1.51999998    2.67000008
   20.15888786   90.67220306    1.51999998    2.67000008
   20.16222191   82.53690338    1.51999998    2.67000008
   20.16277695   86.08950043    1.51999998    2.67000008
   20.16860962   86.08950043    1.53999996    2.67000008
   20.17277718   76.66169739    1.55999994    2.66000009
   20.17583275   86.04049683    1.60000002    2.67000008
   20.17916679   86.87280273    1.61000001    2.66000009
   20.18249893   92.08809662    1.61000001    2.67000008
   20.18555450   90.93859863    1.61000001    2.66000009
   20.18888855   81.67479706    1.61000001    2.66000009
   20.19194412   81.88459778    1.61000001    2.66000009
   20.19527626   88.82109833    1.64999998    2.66000009
   20.19610977   84.49310303    1.64999998    2.66000009
   20.19888878   87.66580200    1.69000006    2.66000009
   20.20222282   82.20480347    1.73000002    2.66000009
   20.20527840   88.37830353    1.76999998    2.67000008
   20.21138954   88.37830353    1.61000001    2.66000009
   20.21555710   89.61009979    1.63000000    2.66000009
   20.21888924   86.89029694    1.61000001    2.66000009
   20.22194481   93.75679779    1.58000004    2.67000008
   20.22527885   92.44560242    1.55999994    2.66000009
   20.22833443   86.17350006    1.58000004    2.66000009
   20.22944450   87.81970215    1.58000004    2.66000009
   20.23222351   94.83979797    1.55999994    2.67000008
   20.23527718   87.33730316    1.60000002    2.66000009
   20.23861122   87.77269745    1.51999998    2.66000009
   20.24194527   90.59169769    1.51999998    2.66000009
   20.24500084   86.07009888    1.51999998    2.66000009
   20.24833298   91.73780060    1.51999998    2.66000009
   20.25416756   91.73780060    1.48000002    2.66000009
   20.25833321   94.42970276    1.46000004    2.67000008
   20.26166725   85.07129669    1.44000006    2.66000009
   20.26277733   88.04959869    1.44000006    2.66000009
   20.26527786   87.68840027    1.44000006    2.66000009
   20.26833344   85.26779938    1.41999996    2.66000009
   20.27166557   91.43849945    1.41999996    2.66000009
   20.27499962   89.11840057    1.41999996    2.66000009
   20.27805519   85.37750244    1.41999996    2.64000010
   20.28138924   93.39080048    1.39999998    2.66000009
   20.28472137   86.79709625    1.38000000    2.64000010
   20.28777695   91.37570190    1.38000000    2.66000009
   20.29111099   86.11990356    1.38000000    2.66000009
   20.29722214   86.11990356    1.44000006    2.66000009
   20.30111122   -1.00000000    1.46000004    2.66000009
   20.30444336   -1.00000000    1.46000004    2.66000009
   20.30777740   89.02610016    1.46000004    2.66000009
   20.31083298   91.64499664    1.46000004    2.64000010
   20.31416512  100.17700195    1.48000002    2.66000009
   20.31750107   88.00789642    1.48000002    2.66000009
   20.32055664   95.81880188    1.46000004    2.66000009
   20.32389069   98.87960052    1.48000002    2.64000010
   20.32694626   95.43019867    1.48000002    2.66000009
   20.32944489   90.19570160    1.50000000    2.64000010
   20.33083344   97.38009644    1.50000000    2.64000010
   20.33416748   88.70629883    1.53999996    2.66000009
   20.34000015   88.70629883    1.53999996    2.66000009
   20.34416771   90.47740173    1.64999998    2.64000010
   20.34722328   89.09940338    1.64999998    2.64000010
   20.35055542  101.54199982    1.66999996    2.64000010
   20.35388947   90.16860199    1.64999998    2.64000010
   20.35694504   94.91359711    1.60000002    2.64000010
   20.36027908   92.61209869    1.58000004    2.64000010
   20.36277771   95.39579773    1.58000004    2.64000010
   20.36388969   89.76850128    1.55999994    2.64000010
   20.36722183  113.38999939    1.53999996    2.64000010
   20.37027740  104.64499664    1.55999994    2.64000010
   20.37361145   84.83070374    1.55999994    2.64000010
   20.37666702   94.47139740    1.53999996    2.64000010
   20.38277817   94.47139740    1.50000000    2.64000010
   20.38694382  100.80100250    1.50000000    2.64000010
   20.39027786  101.99900055    1.48000002    2.64000010
   20.39361191  103.53500366    1.48000002    2.64000010
   20.39611053  112.26599884    1.48000002    2.64000010
   20.39722252  105.09799957    1.48000002    2.64000010
   20.40055466  113.67400360    1.46000004    2.64000010
   20.40361023  119.79699707    1.46000004    2.64000010
   20.40694427   92.92479706    1.44000006    2.64000010
   20.41027832  116.79199982    1.41999996    2.64000010
   20.41333389  109.42700195    1.41999996    2.64000010
   20.41666603   99.99369812    1.41999996    2.64000010
   20.41972160  104.20700073    1.39999998    2.64000010
   20.42555428  104.20700073    1.39999998    2.64000010
   20.42972183   93.46920013    1.39999998    2.64000010
   20.43305397  103.58499908    1.39999998    2.64000010
   20.43610954   88.40309906    1.41999996    2.64000010
   20.43944359   91.75469971    1.44000006    2.64000010
   20.44277763  107.40399933    1.41999996    2.64000010
   20.44583321   99.06690216    1.44000006    2.64000010
   20.44916534   95.81269836    1.50000000    2.64000010
   20.45250130  110.15499878    1.50000000    2.64000010
   20.45555687   99.66670227    1.51999998    2.64000010
   20.45888901   99.47250366    1.50000000    2.64000010
   20.46194458  132.16900635    1.48000002    2.64000010
   20.46277809  134.52799988    1.44000006    2.64000010
   20.46861076  134.52799988    1.41999996    2.64000010
   20.47277832  241.36999512    1.39999998    2.61999989
   20.47583389  249.16499329    1.39999998    2.64000010
   20.47916794  292.74899292    1.39999998    2.64000010
   20.48222351  307.97000122    1.39999998    2.64000010
   20.48444557  263.15100098    1.39999998    2.61999989
   20.48555565  232.10400391    1.39999998    2.64000010
   20.48583412  292.74899292    1.39999998    2.64000010
   20.48583412  307.97000122    1.39999998    2.64000010
   20.48583412   95.81269836    1.50000000    2.64000010
   20.48611069  110.15499878    1.50000000    2.64000010
   20.48611069   99.66670227    1.51999998    2.64000010
   20.48638916   99.47250366    1.50000000    2.64000010
   20.48638916  132.16900635    1.48000002    2.64000010
   20.48638916  241.36999512    1.39999998    2.61999989
   20.48666763  249.16499329    1.39999998    2.64000010
   20.48750114  153.70199585    1.38000000    2.64000010
   20.49055672   -1.00000000    1.38000000    2.61999989
   20.49388885   -1.00000000    1.38000000    2.64000010
   20.49694443   -1.00000000    1.38000000    2.64000010
   20.50027847   -1.00000000    1.38000000    2.64000010
   20.51055527   -1.00000000    1.38000000    2.61999989
   20.51388931   -1.00000000    1.38000000    2.61999989
   20.51694489   -1.00000000    1.39999998    2.61999989
   20.52055550   -1.00000000    1.39999998    2.61999989
   20.52361107   -1.00000000    1.39999998    2.61999989
   20.52694511   -1.00000000    1.39999998    2.61999989
   20.53027725   -1.00000000    1.41999996    2.61999989
   20.53333282   -1.00000000    1.44000006    2.61999989
   20.53666687   -1.00000000    1.46000004    2.61999989
   20.53972244   -1.00000000    1.46000004    2.61999989
   20.54305458   -1.00000000    1.46000004    2.61999989
   20.55333328   -1.00000000    1.50000000    2.61999989
   20.55666542   -1.00000000    1.48000002    2.61999989
   20.55972099   -1.00000000    1.48000002    2.61999989
   20.56305504   -1.00000000    1.50000000    2.59999990
   20.56638718   -1.00000000    1.50000000    2.61999989
   20.56944466   -1.00000000    1.50000000    2.59999990
   20.57277870   -1.00000000    1.50000000    2.59999990
   20.57611275   -1.00000000    1.50000000    2.59999990
   20.57916832   -1.00000000    1.51999998    2.59999990
   20.58250046   -1.00000000    1.53999996    2.59999990
   20.58555603   -1.00000000    1.53999996    2.59999990
   20.59611130   -1.00000000    1.53999996    2.59999990
   20.59944534   -1.00000000    1.53999996    2.59999990
   20.60277748   -1.00000000    1.53999996    2.59999990
   20.60583305   -1.00000000    1.53999996    2.59999990
   20.60916710   -1.00000000    1.55999994    2.59999990
   20.61250114   -1.00000000    1.55999994    2.59999990
   20.61555672   -1.00000000    1.55999994    2.59999990
   20.61888885   -1.00000000    1.55999994    2.59999990
   20.62249947   -1.00000000    1.55999994    2.59999990
   20.62555504   -1.00000000    1.58000004    2.59999990
   20.62888908   -1.00000000    1.60000002    2.59999990
   20.63916588   -1.00000000    1.61000001    2.59999990
   20.64222145   -1.00000000    1.63000000    2.57999992
   20.64555550   -1.00000000    1.63000000    2.59999990
   20.64888954   -1.00000000    1.63000000    2.59999990
   20.65194321   -1.00000000    1.63000000    2.59999990
   20.65555573   -1.00000000    1.66999996    2.57999992
   20.65861130   -1.00000000    1.66999996    2.57999992
   20.66194344   -1.00000000    1.66999996    2.57999992
   20.66527748   -1.00000000    1.66999996    2.59999990
   20.66833305   -1.00000000    1.66999996    2.57999992
   20.67166519   -1.00000000    1.69000006    2.57999992
   20.68194389   -1.00000000    1.71000004    2.57999992
   20.68527603   -1.00000000    1.73000002    2.59999990
   20.68888855   -1.00000000    1.76999998    2.57999992
   20.69194412   -1.00000000    1.76999998    2.57999992
   20.69527626   -1.00000000    1.80999994    2.57999992
   20.69861031   -1.00000000    1.85000002    2.59999990
   20.70166779   -1.00000000    1.88000000    2.57999992
   20.70499992   -1.00000000    1.91999996    2.57999992
   20.70833397   -1.00000000    2.01999998    2.55999994
   20.71138954   -1.00000000    2.03999996    2.57999992
   20.71472359   -1.00000000    2.05999994    2.57999992
   20.72472191   -1.00000000    2.09999990    2.55999994
   20.72805595   -1.00000000    2.09999990    2.55999994
   20.73111153   -1.00000000    2.09999990    2.57999992
   20.73444557   -1.00000000    2.11999989    2.57999992
   20.73777771   -1.00000000    2.09999990    2.55999994
   20.74083328   -1.00000000    2.09999990    2.57999992
   20.74416733   -1.00000000    2.09999990    2.55999994
   20.74749947   -1.00000000    2.09999990    2.57999992
   20.75055504   -1.00000000    2.03999996    2.55999994
   20.75416756   -1.00000000    2.00000000    2.55999994
   20.75722313   -1.00000000    1.94000006    2.55999994
   20.76749992   -1.00000000    1.88000000    2.55999994
   20.77083397   -1.00000000    1.75000000    2.55999994
   20.77416611   -1.00000000    1.75000000    2.57999992
   20.77722168   -1.00000000    1.75000000    2.57999992
   20.79722214   -1.00000000    1.75000000    2.55999994
   20.80027771   -1.00000000    1.71000004    2.55999994
   20.81055450   -1.00000000    1.75000000    2.55999994
   20.81361008   -1.00000000    1.75000000    2.55999994
   20.81694603   -1.00000000    1.75000000    2.55999994
   20.82027817   -1.00000000    1.78999996    2.55999994
   20.82333374   -1.00000000    1.83000004    2.55999994
   20.82666779   -1.00000000    1.83000004    2.55999994
   20.83000183   -1.00000000    1.78999996    2.55999994
   20.83333397   -1.00000000    1.76999998    2.55999994
   20.83666801   -1.00000000    1.85000002    2.55999994
   20.83972359   -1.00000000    1.66999996    2.55999994
   20.84305573   -1.00000000    1.66999996    2.55999994
   20.85333443   -1.00000000    1.73000002    2.55999994
   20.85666656   -1.00000000    1.73000002    2.55999994
   20.85972214   -1.00000000    1.71000004    2.53999996
   20.86333466   -1.00000000    1.66999996    2.53999996
   20.86666679   -1.00000000    1.69000006    2.53999996
   20.87000084   -1.00000000    1.69000006    2.53999996
   20.87305641   -1.00000000    1.66999996    2.53999996
   20.87638855   -1.00000000    1.66999996    2.53999996
   20.87944412   -1.00000000    1.64999998    2.53999996
   20.88277817   -1.00000000    1.63000000    2.53999996
   20.88611031   -1.00000000    1.63000000    2.53999996
   20.89611053   -1.00000000    1.73000002    2.53999996
   20.89944458   -1.00000000    1.69000006    2.53999996
   20.90250015   -1.00000000    1.69000006    2.53999996
   20.90583229   -1.00000000    1.76999998    2.53999996
   20.90916634   -1.00000000    1.83000004    2.53999996
   20.91222191   -1.00000000    1.85000002    2.51999998
   20.91555595   -1.00000000    1.85000002    2.51999998
   20.91888809   -1.00000000    1.91999996    2.51999998
   20.92194366   -1.00000000    1.89999998    2.51999998
   20.92527771   -1.00000000    1.91999996    2.51999998
   20.92833328   -1.00000000    1.91999996    2.51999998
   20.93916512   -1.00000000    1.89999998    2.51999998
   20.94222069   -1.00000000    1.88000000    2.51999998
   20.94555473   -1.00000000    2.01999998    2.51999998
   20.94861031   -1.00000000    2.23000002    2.51999998
   20.95194435   -1.00000000    2.30999994    2.51999998
   20.95527840   -1.00000000    2.36999989    2.50000000
   20.95833397   -1.00000000    2.44000006    2.51999998
   20.96166801   -1.00000000    2.67000008    2.50000000
   20.96500015   -1.00000000    2.96000004    2.50000000
   20.96833420   -1.00000000    3.25000000    2.48000002
   20.97166634   -1.00000000    3.30999994    2.48000002
   20.98194504   -1.00000000    3.30999994    2.50000000
   20.98500061   -1.00000000    3.43000007    2.48000002
   20.98833275   -1.00000000    3.75000000    2.48000002
   20.99138832   -1.00000000    3.78999996    2.48000002
   20.99472237   -1.00000000    3.82999992    2.50000000
   20.99805641   -1.00000000    4.90999985    2.57999992
   21.00138855   -1.00000000    0.28000000    0.51999998
   21.00472260   -1.00000000    0.15000001    0.25000000
   21.00777817   -1.00000000    0.09000000    0.03000000
   21.01111031   -1.00000000    0.09000000    0.03000000
   21.01444435   -1.00000000    0.09000000    0.03000000
   21.02472115   -1.00000000    0.09000000    0.03000000
   21.02777672   -1.00000000    0.09000000    0.03000000
   21.03138924   -1.00000000    0.09000000    0.03000000
   21.03472137   -1.00000000    0.09000000    0.03000000
   21.03805542   -1.00000000    0.09000000    0.03000000
   21.04111099   -1.00000000    0.09000000    0.03000000
   21.04444313   -1.00000000    0.09000000    0.03000000
   21.04777718   -1.00000000    0.09000000    0.03000000
   21.05083275   -1.00000000    0.09000000    0.03000000
   21.05416679   -1.00000000    0.09000000    0.03000000
   21.05722237   -1.00000000    0.09000000    0.03000000
   21.06750107   -1.00000000    0.09000000    0.03000000
   21.07083511   -1.00000000    0.09000000    0.03000000
   21.07389069   -1.00000000    0.09000000    0.03000000
