    HOUR (UT)   FLARE FACTOR    SKY TESTER    SUN TESTER
   11.90472221   -1.00000000   -1.00000000   -1.00000000
   11.92666721  118.89199829    3.39000010    1.83000004
   11.93249989  123.28500366    3.39000010    1.83000004
   11.93611145  121.17299652    3.41000009    1.85000002
   11.93944454  119.34100342    3.39000010    1.85000002
   11.94250011  118.69599915    3.41000009    1.85000002
   11.94694424  107.32199860    3.39000010    1.86000001
   11.94999981  112.83599854    3.41000009    1.86000001
   11.95333290  110.20999908    3.41000009    1.86000001
   11.95666695  108.81600189    3.41000009    1.86000001
   11.96000004  108.64499664    3.41000009    1.88000000
   11.96027756  110.37200165    3.41000009    1.88000000
   11.96361065  112.88899994    3.39000010    1.88000000
   11.96694374  105.19599915    3.41000009    1.88000000
   11.96999931  108.01100159    3.41000009    1.89999998
   11.97333336  107.88800049    3.41000009    1.89999998
   11.97638798  107.49600220    3.41000009    1.89999998
   11.97972202  106.84200287    3.43000007    1.89999998
   11.98305511  104.34999847    3.41000009    1.89999998
   11.98611164  101.83699799    3.39000010    1.89999998
   11.98944473  113.27500153    3.39000010    1.89999998
   11.99250031  106.10700226    3.41000009    1.89999998
   11.99333382   99.93350220    3.41000009    1.89999998
   11.99611092   98.15350342    3.36999989    1.91999996
   11.99944496   97.89409637    3.39000010    1.91999996
   12.00277805  102.10900116    3.36999989    1.91999996
   12.00583363   99.99919891    3.39000010    1.91999996
   12.00916672   99.88939667    3.36999989    1.94000006
   12.01222229  102.72599792    3.39000010    1.94000006
   12.01555538  102.81900024    3.34999990    1.94000006
   12.01888847   95.87249756    3.36999989    1.94000006
   12.02194405  101.67199707    3.34999990    1.94000006
   12.02527714  102.34100342    3.34999990    1.94000006
   12.02666664   98.42199707    3.36999989    1.94000006
   12.02888870  101.03900146    3.36999989    1.96000004
   12.03222179  102.20700073    3.36999989    1.96000004
   12.03527832   99.77850342    3.36999989    1.98000002
   12.03861141  105.30400085    3.39000010    1.96000004
   12.04194450   97.65959930    3.39000010    1.96000004
   12.04500008  101.13700104    3.36999989    1.98000002
   12.04833412  103.15499878    3.36999989    1.98000002
   12.05166721   94.38839722    3.36999989    1.98000002
   12.05472279  101.74299622    3.36999989    1.98000002
   12.05805588  102.41699982    3.41000009    1.98000002
   12.06000042   97.66500092    3.39000010    1.98000002
   12.06166649  102.80400085    3.43000007    2.00000000
   12.06500053   99.73750305    3.50000000    2.00000000
   12.06805515   94.41999817    3.53999996    2.00000000
   12.07138920  100.28600311    3.57999992    2.01999998
   12.07472229  101.24099731    3.61999989    2.01999998
   12.07777786  101.51499939    3.66000009    2.01999998
   12.08111095  101.71800232    3.70000005    2.01999998
   12.08444405   90.92620087    3.76999998    2.01999998
   12.08749962   91.60119629    3.76999998    2.03999996
   12.09083271   95.89790344    3.91000009    2.01999998
   12.09333324   95.01249695    3.99000001    2.03999996
   12.09444427   89.82089996    4.09999990    2.03999996
   12.09777737   94.73840332    4.26999998    2.03999996
   12.10083389   94.38400269    4.44999981    2.03999996
   12.10416698   97.60250092    4.57999992    2.05999994
   12.10750008   91.29190063    4.71999979    2.05999994
   12.11055565   91.87419891    4.80999994    2.05999994
   12.11388969   92.53569794    4.86999989    2.05999994
   12.11722279   88.51210022    4.84999990    2.05999994
   12.12027836   92.57779694    4.82999992    2.05999994
   12.12361145   96.94059753    4.80000019    2.05999994
   12.12666702   92.28060150    4.80000019    2.05999994
   12.12722206   93.55149841    4.80000019    2.05999994
   12.13055611   88.32369995    4.80000019    2.05999994
   12.13361073   97.44509888    4.80999994    2.07999992
   12.13694477   89.35810089    4.80999994    2.07999992
   12.14027786   91.18450165    4.82999992    2.07999992
   12.14333344   91.56549835    4.90999985    2.07999992
   12.14666653   92.36679840    4.90999985    2.07999992
   12.14999962   91.83609772    4.90999985    2.07999992
   12.15305519   90.21170044    4.90999985    2.07999992
   12.15638828   94.58319855    4.90999985    2.07999992
   12.15944386   90.06289673    4.90999985    2.07999992
   12.15999985   89.27749634    4.90999985    2.07999992
   12.16333294   94.09639740    4.90999985    2.07999992
   12.16666698   91.27770233    4.90999985    2.05999994
   12.16972256   86.83740234    4.90999985    2.07999992
   12.17305565   88.98280334    4.90999985    2.09999990
   12.17611122   94.72039795    4.90999985    2.09999990
   12.17944431  121.73100281    4.90999985    2.05999994
   12.18277836  102.39600372    4.90999985    1.98000002
   12.18583298  120.56300354    4.90999985    2.00000000
   12.18916702  104.61399841    4.90999985    1.94000006
   12.19250011  122.14099884    4.90999985    1.98000002
   12.19333363  197.78799438    4.90999985    1.98000002
   12.19611073  118.07700348    4.90999985    1.94000006
   12.19944477  117.93199921    4.90999985    1.94000006
   12.20249939  120.43299866    4.90999985    1.94000006
   12.20583344  101.23000336    4.90999985    1.94000006
   12.20916653   93.94670105    4.90999985    2.01999998
   12.21222210   99.19909668    4.90999985    2.09999990
   12.21555519   95.82869720    4.90999985    2.09999990
   12.21861076   95.29869843    4.90999985    2.05999994
   12.22194386  100.99600220    4.90999985    2.05999994
   12.22527695   95.70980072    4.90999985    2.05999994
   12.22666645  101.95999908    4.90999985    2.05999994
   12.22888851   88.13909912    4.90999985    2.05999994
   12.23222160   89.48600006    4.90999985    2.09999990
   12.23527813   90.44979858    4.90999985    2.11999989
   12.23861122   86.90560150    4.90999985    2.13000011
   12.24194431   86.99019623    4.90999985    2.15000010
   12.24499989  103.58599854    4.90999985    2.13000011
   12.24833393  106.97100067    4.90999985    2.01999998
   12.25138855   87.33000183    4.90999985    2.01999998
   12.25472260   95.78980255    4.90999985    2.05999994
   12.25805569   94.56939697    4.90999985    2.09999990
   12.26000023  104.09899902    4.90999985    2.07999992
   12.26166630   94.70549774    4.90999985    2.09999990
   12.26500034   94.35649872    4.90999985    2.13000011
   12.26805496  100.31700134    4.90999985    2.09999990
   12.27138901   91.34600067    4.90999985    2.09999990
   12.27472210   95.08630371    4.90999985    2.09999990
   12.27777767   99.57599640    4.90999985    2.09999990
   12.28111076  102.32800293    4.90999985    2.05999994
   12.28416729  112.62999725    4.90999985    2.01999998
   12.28750038  102.26300049    4.90999985    2.01999998
   12.29083347  103.76499939    4.90999985    2.03999996
   12.29333401   95.42729950    4.90999985    2.09999990
   12.29444504   94.45860291    4.90999985    2.09999990
   12.29777813  123.13700104    4.90999985    2.07999992
   12.30083370  156.29699707    4.90999985    1.98000002
   12.30416679  123.31800079    4.90999985    1.89999998
   12.30749989  102.07900238    4.90999985    1.96000004
   12.31055546   97.48529816    4.90999985    2.05999994
   12.31388950  105.63999939    4.90999985    2.05999994
   12.31694412  117.34700012    4.90999985    2.01999998
   12.32027817  104.92900085    4.90999985    2.00000000
   12.32361126  124.09100342    4.90999985    1.91999996
   12.32666683  112.59300232    4.90999985    1.96000004
   12.32722187  111.36299896    4.90999985    2.01999998
   12.33055592   99.05740356    4.90999985    2.01999998
   12.33361053  105.40000153    4.90999985    2.07999992
   12.33694458   96.36879730    4.90999985    2.05999994
   12.34027767   95.34359741    4.90999985    2.07999992
   12.34333324   95.19090271    4.90999985    2.05999994
   12.34666634   86.51080322    4.90999985    2.09999990
   12.34972191   91.11810303    4.90999985    2.13000011
   12.35527802   90.33170319    4.90999985    2.19000006
   12.35861111   90.11080170    4.90999985    2.21000004
   12.36000061   90.34660339    4.90999985    2.19000006
   12.36222267   98.99590302    4.90999985    2.13000011
   12.36555576  119.79000092    4.90999985    1.98000002
   12.36861134  102.28299713    4.90999985    1.98000002
   12.37194443  103.43199921    4.90999985    2.09999990
   12.37527752   94.18080139    4.90999985    2.09999990
   12.37833309  107.23000336    4.90999985    2.13000011
   12.38166714  154.04200745    4.90999985    1.96000004
   12.38638878  137.94400024    4.90999985    1.96000004
   12.38972187   97.62139893    4.90999985    1.91999996
   12.39305496   85.27320099    4.90999985    2.11999989
   12.39361095   89.38739777    4.90999985    2.11999989
   12.39638901   96.74929810    4.90999985    2.17000008
   12.39972210   94.85130310    4.90999985    2.07999992
   12.40277767   90.23419952    4.90999985    2.13000011
   12.40611076  111.60099792    4.90999985    2.19000006
   12.40944386  100.61299896    4.90999985    2.09999990
   12.41249943  145.69500732    4.90999985    2.09999990
   12.41583252  127.08999634    4.90999985    1.94000006
   12.41916656  119.19699860    4.90999985    2.03999996
   12.42222214  108.23300171    4.90999985    1.98000002
   12.42555618  131.79600525    4.90999985    2.05999994
   12.42694473  407.24499512    4.90999985    1.98000002
   12.42916679  106.25000000    4.90999985    1.88000000
   12.43249989  109.35500336    4.90999985    2.07999992
   12.43555546  104.81900024    4.90999985    2.01999998
   12.43888855   97.42379761    4.90999985    2.05999994
   12.44222260   99.78600311    4.90999985    2.11999989
   12.44527817  117.00800323    4.90999985    2.09999990
   12.44861126  119.64800262    4.90999985    2.05999994
   12.45194435  124.70099640    4.90999985    2.03999996
   12.45499992   93.40550232    4.90999985    2.07999992
   12.45833302  101.19100189    4.90999985    2.05999994
   12.46027756  102.59999847    4.90999985    2.05999994
   12.46194458   94.32170105    4.90999985    2.09999990
   12.46527767   95.37180328    4.90999985    2.11999989
   12.46833324   86.60150146    4.90999985    2.17000008
   12.47166634  100.11799622    4.90999985    2.17000008
   12.47499943  120.20500183    4.90999985    2.03999996
   12.47805500  106.03700256    4.90999985    1.96000004
   12.48138809  104.13999939    4.90999985    2.01999998
   12.48472214  102.45300293    4.90999985    2.07999992
   12.48777771  106.53900146    4.90999985    2.01999998
   12.49111176   89.38710022    4.90999985    2.05999994
   12.49361134   93.75460052    4.90999985    2.11999989
   12.49472237   86.03959656    4.90999985    2.17000008
   12.49805546   87.51020050    4.90999985    2.23000002
   12.50111103   99.12809753    4.90999985    2.21000004
   12.50444412  112.82299805    4.90999985    2.07999992
   12.50777817  206.28100586    4.90999985    1.91999996
   12.51083374  127.84899902    4.90999985    1.91999996
   12.51416683  149.87100220    4.90999985    1.94000006
   12.51749992  137.99600220    4.90999985    1.91999996
   12.52055550  142.59700012    4.90999985    1.94000006
   12.52388859  160.77499390    4.90999985    1.88000000
   12.52694416  169.38999939    4.90999985    1.85000002
   12.52750015  126.40299988    4.90999985    1.85000002
   12.53083324   98.74520111    4.90999985    2.01999998
   12.53388977  113.80799866    4.90999985    2.07999992
   12.53722286  134.03500366    4.90999985    2.01999998
   12.54055595  169.85899353    4.90999985    1.91999996
   12.54361153  147.74200439    4.90999985    1.88000000
   12.54694462  157.07000732    4.90999985    1.98000002
   12.55027771  193.65699768    4.90999985    1.86000001
   12.55333328  134.21000671    4.90999985    1.78999996
   12.55666733  157.00999451    4.90999985    1.96000004
   12.55972195  194.25100708    4.90999985    1.86000001
   12.56027794   82.99990082    4.90999985    1.86000001
   12.56361103   -1.00000000   -1.00000000   -1.00000000
   12.56694412  189.75300598    4.90999985    1.76999998
   12.56999969  149.10099792    4.90999985    1.88000000
   12.57333374  176.60099792    4.90999985    1.96000004
   12.57666683  112.02200317    4.90999985    2.00000000
   12.57972240  122.05799866    4.90999985    2.05999994
   12.58305550   -1.00000000    4.90999985    1.89999998
   12.58611107   -1.00000000    4.90999985    1.66999996
   12.58944416  100.43099976    4.90999985    1.63000000
   12.59277725  166.83700562    4.90999985    1.75000000
   12.59361076  155.06100464    4.90999985    1.78999996
   12.59638882  201.80799866    4.90999985    1.86000001
   12.59972191   -1.00000000    4.90999985    1.83000004
   12.60277843   -1.00000000    4.90999985    1.63000000
   12.60611153   95.51540375    4.90999985    1.60000002
   12.60944462  198.54899597    4.90999985    1.76999998
   12.61250019  117.90699768    4.90999985    1.94000006
   12.61583328  108.64600372    4.90999985    2.09999990
   12.61888885  109.18900299    4.90999985    2.05999994
   12.62222195  124.09300232    4.90999985    2.03999996
   12.62555599  113.77100372    4.90999985    2.01999998
   12.62694454  170.97700500    4.90999985    2.00000000
   12.62916660  194.02999878    4.90999985    1.91999996
   12.63249969  159.51800537    4.90999985    1.80999994
   12.63555527  133.63200378    4.90999985    1.88000000
   12.63888836  116.43199921    4.90999985    1.96000004
   12.64222240  126.06099701    4.90999985    2.01999998
   12.64527798  116.01000214    4.90999985    1.98000002
   12.64861107  114.62999725    4.90999985    2.07999992
   12.65166664  201.51199341    4.90999985    1.98000002
   12.65499973  148.08799744    4.90999985    1.88000000
   12.65833282  151.64399719    4.90999985    1.98000002
   12.66027737  160.22900391    4.90999985    1.98000002
   12.66194439  171.64300537    4.90999985    2.00000000
   12.66527748  175.97300720    4.90999985    1.89999998
   12.66833401  160.90499878    4.90999985    1.75000000
   12.67166710  146.18800354    4.90999985    1.98000002
   12.67500019  107.82099915    4.90999985    2.01999998
   12.67805576   96.07610321    4.90999985    2.07999992
   12.68138885  110.97799683    4.90999985    2.17000008
   12.68444443  169.98699951    4.90999985    1.96000004
   12.68777752  122.08100128    4.90999985    1.80999994
   12.69111156  128.33299255    4.90999985    1.80999994
   12.69361115  116.12599945    4.90999985    1.96000004
   12.69472218  118.35299683    4.90999985    1.98000002
   12.69805527   97.25740051    4.90999985    2.07999992
   12.70111084  100.51000214    4.90999985    2.09999990
   12.70444393   94.61630249    4.90999985    2.11999989
   12.70777798   84.48269653    4.90999985    2.23000002
   12.71083355   91.25299835    4.90999985    2.39000010
   12.71416664   87.60959625    4.90999985    2.32999992
   12.71722221   95.70089722    4.90999985    2.32999992
   12.72055531  102.67900085    4.90999985    2.15000010
   12.72388840  255.37899780    4.90999985    2.01999998
   12.72694397  172.10200500    4.90999985    1.83000004
   12.72749996  184.13600159    4.90999985    1.86000001
   12.73083305  130.82699585    4.90999985    1.94000006
   12.73388958  125.13300323    4.90999985    1.89999998
   12.73722267  197.24800110    4.90999985    1.91999996
   12.74055576  133.21899414    4.90999985    1.89999998
   12.74361134  106.24400330    4.90999985    1.88000000
   12.74694443   88.53630066    4.90999985    2.15000010
   12.75000000   81.47720337    4.90999985    2.39000010
   12.75333309   82.91410065    4.76000023    2.44000006
   12.75666714   83.37950134    4.71999979    2.44000006
   12.76000023   88.01809692    4.82999992    2.40000010
   12.76027775   79.83689880    4.90999985    2.40000010
   12.76333332   88.98529816    4.90999985    2.28999996
   12.76666641   83.10260010    4.90999985    2.25000000
   12.76972198   81.05259705    4.61999989    2.32999992
   12.77305508   81.07160187    4.57999992    2.44000006
   12.77638817   84.61730194    4.55999994    2.39000010
   12.77944374   84.09130096    4.34999990    2.42000008
   12.78277779   78.38420105    3.78999996    2.42000008
   12.78611183   79.15640259    3.43000007    2.46000004
   12.78916740   79.86319733    3.34999990    2.48000002
   12.79250050   80.89640045    3.23000002    2.48000002
   12.79388905   80.65889740    3.23000002    2.48000002
   12.79611111   82.91290283    3.21000004    2.48000002
   12.79944515   79.08180237    3.34999990    2.48000002
   12.80249977   81.40879822    3.45000005    2.48000002
   12.80583382   79.60240173    3.70000005    2.48000002
   12.80916691   84.22930145    4.07999992    2.48000002
   12.81222248   82.19950104    4.26999998    2.36999989
   12.81555557   79.30200195    4.03999996    2.44000006
   12.81888866   80.47209930    4.26000023    2.48000002
   12.82194424   81.50420380    4.80999994    2.46000004
   12.82527733   80.34329987    4.90999985    2.44000006
   12.82722187   80.79049683    4.90999985    2.46000004
   12.82888889   88.48979950    4.90999985    2.44000006
   12.83222198   83.08740234    4.90999985    2.39000010
   12.83527756   86.58260345    4.90999985    2.36999989
   12.83861065   87.69519806    4.90999985    2.36999989
   12.84194374   94.59140015    4.90999985    2.32999992
   12.84499931   94.22049713    4.90999985    2.21000004
   12.84833336   91.97760010    4.90999985    2.26999998
   12.85166740   85.15959930    4.90999985    2.23000002
   12.85472298   98.24169922    4.90999985    2.26999998
   12.85805607  126.35900116    4.90999985    2.25000000
   12.86055565   92.04409790    4.90999985    2.05999994
   12.86166668   90.93730164    4.90999985    2.11999989
   12.86500072   86.76809692    4.90999985    2.34999990
   12.86805534   83.32330322    4.90999985    2.36999989
   12.87138939   82.60590363    4.90999985    2.44000006
   12.87472248   81.17369843    4.90999985    2.44000006
   12.87777805   79.10209656    4.90999985    2.39000010
   12.88111115   81.52749634    4.90999985    2.48000002
   12.88444424   83.54270172    4.90999985    2.44000006
   12.88749981   88.57710266    4.90999985    2.40000010
   12.89083290   81.97499847    4.90999985    2.30999994
   12.89388847   83.07949829    4.90999985    2.39000010
   12.89444447   90.34179688    4.90999985    2.40000010
   12.89777756   83.60340118    4.90999985    2.36999989
   12.90083313   79.48040009    4.90999985    2.42000008
   12.90416622   85.17289734    4.90999985    2.46000004
   12.90749931   79.28189850    4.90999985    2.44000006
   12.91055489   86.55169678    4.90999985    2.48000002
   12.91388893   82.42819977    4.90999985    2.32999992
   12.91722298   79.00569916    4.53000021    2.40000010
   12.92027855   82.56390381    4.63999987    2.51999998
   12.92361164   88.34600067    4.86999989    2.40000010
   12.94305515   85.75050354    4.90999985    2.40000010
   12.94361115   79.34609985    4.88999987    2.40000010
   12.94694424   83.25509644    4.67999983    2.48000002
   12.94999981   88.05850220    4.46999979    2.48000002
   12.95333290   80.72910309    4.40999985    2.48000002
   12.95666695   79.92659760    3.97000003    2.48000002
   12.95972157   83.31179810    3.78999996    2.50000000
   12.96305561   84.41840363    3.78999996    2.48000002
   12.96611118   83.96910095    3.76999998    2.46000004
   12.96944427   84.20050049    3.57999992    2.46000004
   12.97277737   83.63780212    3.41000009    2.51999998
   12.97583294   82.49240112    3.20000005    2.55999994
   12.97694397   79.87640381    3.16000009    2.55999994
   12.97972202   80.72969818    3.18000007    2.55999994
   12.98277760   84.32369995    3.41000009    2.55999994
   12.98611164   81.10169983    4.23999977    2.51999998
   12.98944473   86.06639862    4.90999985    2.50000000
   12.99250031   87.09190369    4.90999985    2.51999998
   12.99583340   97.01380157    4.90999985    2.44000006
   12.99916649   91.38600159    4.90999985    2.21000004
   13.00222206  105.57299805    4.90999985    2.28999996
   13.00555515  183.21400452    4.90999985    2.09999990
   13.00861073  104.28199768    4.90999985    1.78999996
   13.01027775   82.44020081    4.90999985    2.05999994
   13.01249981   82.55090332    4.90999985    2.28999996
   13.01555538   79.48989868    4.90999985    2.42000008
   13.01888847   84.89279938    4.90999985    2.51999998
   13.02222157   81.58799744    4.90999985    2.48000002
   13.02527714   84.00019836    4.90999985    2.55999994
   13.02861118   86.66580200    4.90999985    2.42000008
   13.03194427   92.56729889    4.90999985    2.30999994
   13.03500080   81.66419983    4.90999985    2.40000010
   13.03833389   87.41549683    4.90999985    2.48000002
   13.04138947   88.78959656    4.90999985    2.50000000
   13.04361153   87.74739838    4.90999985    2.40000010
   13.04527855   97.92320251    4.90999985    2.34999990
   13.04833412   88.16989899    4.90999985    2.44000006
   13.05166721   87.54560089    4.90999985    2.39000010
   13.05500031   94.32219696    4.90999985    2.39000010
   13.05805588  101.28600311    4.90999985    2.36999989
   13.06138897   83.14839935    4.90999985    2.30999994
   13.06472206   81.94280243    4.90999985    2.39000010
   13.06777763   85.93379974    4.90999985    2.44000006
   13.07111073   82.87200165    4.90999985    2.48000002
   13.07416630   91.93589783    4.42999983    2.51999998
   13.07694435   79.55509949    4.63999987    2.51999998
   13.07805538   87.59690094    4.86999989    2.51999998
   13.08111095   84.87689972    4.90999985    2.50000000
   13.08444405   81.08489990    4.84999990    2.39000010
   13.08777714   84.89340210    4.53000021    2.40000010
   13.09083271   83.84899902    4.42999983    2.44000006
   13.09416676   80.44450378    4.53999996    2.50000000
   13.09749985   81.00650024    3.99000001    2.53999996
   13.10055637   81.64630127    3.80999994    2.55999994
   13.10388947   82.13330078    3.80999994    2.55999994
   13.10694504   79.28179932    4.01999998    2.55999994
   13.11027813   79.98290253    4.84999990    2.53999996
   13.11083412   82.15470123    4.84999990    2.53999996
   13.11388969   84.70610046    4.90999985    2.48000002
   13.11722279   86.24160004    4.90999985    2.42000008
   13.12055588   89.31549835    4.90999985    2.32999992
   13.12361145   83.98190308    4.90999985    2.28999996
   13.12694454   82.73290253    4.90999985    2.36999989
   13.13027763   87.19290161    4.90999985    2.48000002
   13.13333321   88.04489899    4.90999985    2.44000006
   13.13666630   83.56390381    4.90999985    2.40000010
   13.13972187   89.79869843    4.90999985    2.40000010
   13.14305496   79.18350220    4.90999985    2.40000010
   13.14361095   82.39790344    4.90999985    2.40000010
   13.14666653   87.88140106    4.90999985    2.46000004
   13.14972210   90.18150330    4.90999985    2.39000010
   13.15305519   91.79470062    4.90999985    2.30999994
   13.15638828   82.62049866    4.90999985    2.30999994
   13.15944386   89.10910034    4.90999985    2.36999989
   13.16277695  102.10900116    4.90999985    2.40000010
   13.16611099  123.37999725    4.90999985    2.01999998
   13.16916656   90.95040131    4.90999985    2.40000010
   13.17250061   83.23570251    4.90999985    2.28999996
   13.17555618   91.34030151    4.90999985    2.34999990
   13.17694473   84.42949677    4.90999985    2.25000000
   13.17944431   87.05580139    4.90999985    2.42000008
   13.18277836   93.09570313    4.90999985    2.42000008
   13.18583298  102.38200378    4.90999985    2.42000008
   13.18916702   82.37599945    4.90999985    2.42000008
   13.19222260   76.40049744    4.38999987    2.57999992
   13.19555569   80.32309723    3.30999994    2.55999994
   13.19888878   75.98880005    3.18000007    2.57999992
   13.20194435   79.42729950    2.86999989    2.61999989
   13.20527744   80.83470154    2.86999989    2.59999990
   13.20861053   79.84709930    3.25000000    2.61999989
   13.21027756   84.12789917    3.41000009    2.55999994
   13.21222210   79.87010193    3.26999998    2.53999996
   13.21555519   81.74759674    2.67000008    2.53999996
   13.21861076   81.85790253    2.44000006    2.61999989
   13.22194386   80.14620209    2.44000006    2.59999990
   13.22499943   85.10929871    2.19000006    2.59999990
   13.22833252   79.47699738    2.42000008    2.61999989
   13.23166656   80.19760132    2.32999992    2.59999990
   13.23472214   80.02040100    2.07999992    2.61999989
   13.23805618   82.56590271    2.15000010    2.61999989
   13.24138927   79.01249695    2.03999996    2.64000010
   13.24361134   79.23079681    2.09999990    2.64000010
   13.24499989   78.22699738    2.26999998    2.64000010
   13.24833393   78.98670197    2.39000010    2.61999989
   13.25138855   78.04779816    2.34999990    2.61999989
   13.25472260   79.46880341    2.50000000    2.57999992
   13.25777817   80.21829987    2.61999989    2.59999990
   13.26111126   80.54049683    2.75000000    2.57999992
   13.26444435   81.74310303    3.07999992    2.57999992
   13.26749992   84.40080261    3.01999998    2.61999989
   13.27083302   77.09369659    3.25000000    2.61999989
   13.27416611   79.37830353    3.82999992    2.57999992
   13.27694416   80.43000031    4.38999987    2.55999994
   13.27777767   78.19349670    4.51000023    2.55999994
   13.28111076   84.15969849    4.44999981    2.53999996
   13.28416729   79.66239929    4.30999994    2.51999998
   13.28750038   77.10849762    3.89000010    2.53999996
   13.29055595   75.84169769    3.70000005    2.55999994
   13.29388905   78.60150146    3.95000005    2.59999990
   13.29722309   80.37270355    4.44999981    2.57999992
   13.30027771   78.83300018    4.03999996    2.55999994
   13.30361176   77.06700134    3.91000009    2.55999994
   13.30694485   76.67330170    2.86999989    2.57999992
   13.31000042   75.50109863    2.11999989    2.64000010
   13.31055546   76.83730316    1.98000002    2.61999989
   13.31388950   75.66249847    2.57999992    2.64000010
   13.31694412   79.52799988    2.76999998    2.66000009
   13.32027817   78.89550018    2.73000002    2.61999989
   13.32361126   76.51020050    2.71000004    2.64000010
   13.32666683   75.81610107    2.71000004    2.64000010
   13.32999992   76.20770264    2.75000000    2.64000010
   13.33333302   78.17449951    2.80999994    2.64000010
   13.33638859   76.91790009    2.86999989    2.64000010
   13.33972168   79.97959900    2.80999994    2.64000010
   13.34277725   77.31839752    2.75000000    2.64000010
   13.34388828   77.70549774    2.71000004    2.64000010
   13.34666634   79.35250092    2.69000006    2.64000010
   13.34972191   78.28959656    2.69000006    2.64000010
   13.35305595   79.68470001    2.75000000    2.64000010
   13.35638905   77.65110016    2.76999998    2.66000009
   13.35944462   79.26959991    3.26999998    2.64000010
   13.36277771   80.51119995    3.57999992    2.61999989
   13.36611176   82.93160248    3.89000010    2.59999990
   13.36916637   84.87950134    4.13999987    2.59999990
   13.37250042   86.47299957    4.90999985    2.48000002
   13.37555599   81.37840271    4.90999985    2.46000004
   13.37722206   79.40160370    4.90999985    2.53999996
   13.37944412   82.17250061    4.57999992    2.55999994
   13.38249969   77.61209869    3.89000010    2.61999989
   13.38583279   83.01200104    3.45000005    2.64000010
   13.50472260   -1.00000000   -1.00000000   -1.00000000
   13.59749985   -1.00000000   -1.00000000   -1.00000000
   13.69277763   -1.00000000   -1.00000000   -1.00000000
   13.78472233   -1.00000000   -1.00000000   -1.00000000
   13.87861156   -1.00000000   -1.00000000   -1.00000000
   13.97749996   -1.00000000   -1.00000000   -1.00000000
   14.07055569   -1.00000000   -1.00000000   -1.00000000
   14.16416645   -1.00000000   -1.00000000   -1.00000000
   14.26305580   -1.00000000   -1.00000000   -1.00000000
   14.29166698   72.52549744    4.90999985    2.48000002
   14.29472256   91.54979706    4.90999985    2.57999992
   14.29805565   97.88359833    4.90999985    2.51999998
   14.30138874   96.02390289    4.90999985    2.40000010
   14.30444431   97.10959625    4.90999985    2.44000006
   14.30777836   90.65329742    4.90999985    2.48000002
   14.31194496   90.65329742    4.90999985    2.55999994
   14.31611156   96.98290253    4.90999985    2.51999998
   14.31916618   94.64939880    4.90999985    2.42000008
   14.32250023  113.86900330    4.90999985    2.40000010
   14.32472229   93.96209717    4.90999985    2.34999990
   14.32611084   88.94300079    4.90999985    2.39000010
   14.32944393   88.61479950    4.90999985    2.48000002
   14.33249950   92.43769836    4.90999985    2.51999998
   14.33583260   96.63050079    4.90999985    2.50000000
   14.33916664   90.92109680    4.90999985    2.42000008
   14.34222221  124.78600311    4.90999985    2.40000010
   14.34555531   97.79750061    4.90999985    2.39000010
   14.34861088   97.98519897    4.90999985    2.48000002
   14.35472298   97.98519897    4.90999985    2.44000006
   14.35888958   91.25569916    4.90999985    2.39000010
   14.36222267   90.95570374    4.90999985    2.48000002
   14.36527824   91.60130310    4.90999985    2.53999996
   14.36861134   99.45449829    4.90999985    2.55999994
   14.37166691  105.40100098    4.90999985    2.34999990
   14.37500000  102.74800110    4.90999985    2.39000010
   14.37833309   98.64790344    4.90999985    2.50000000
   14.38138866   90.06569672    4.90999985    2.53999996
   14.38472176   90.96150208    4.90999985    2.55999994
   14.38805580   94.80699921    4.90999985    2.61999989
   14.39111137   87.63449860    4.90999985    2.66000009
   14.39166641   88.83889771    4.90999985    2.66000009
   14.39750004   88.83889771    4.90999985    2.59999990
   14.40166664   86.89610291    4.90999985    2.66000009
   14.40499973   98.98670197    4.90999985    2.55999994
   14.40805531   85.17209625    4.90999985    2.51999998
   14.41138840  111.43800354    4.90999985    2.50000000
   14.41472149  100.44300079    4.90999985    2.39000010
   14.41777802  125.85700226    4.90999985    2.32999992
   14.42111111  105.72599792    4.90999985    2.21000004
   14.42444515  111.76399994    4.90999985    2.44000006
   14.42500019  127.70700073    4.90999985    2.36999989
   14.42805576  107.19100189    4.90999985    2.23000002
   14.43138885  159.99400330    4.90999985    2.17000008
   14.43444443  165.62899780    4.90999985    2.01999998
   14.44055557  165.62899780    4.90999985    2.32999992
   14.44444466  129.36500549    4.90999985    2.39000010
   14.44777775  113.66799927    4.90999985    2.21000004
   14.45111084  132.51499939    4.90999985    2.21000004
   14.45416641  156.47599792    4.90999985    2.21000004
   14.45749950  133.55499268    4.90999985    2.19000006
   14.45833302  117.97799683    4.90999985    2.28999996
   14.46111107  131.98199463    4.90999985    2.19000006
   14.46583271  363.56799316    4.90999985    2.15000010
   14.46777725  191.41200256    4.90999985    2.15000010
   14.46805477  159.99400330    4.90999985    2.17000008
   14.46805477  165.62899780    4.90999985    2.01999998
   14.46805477  129.36500549    4.90999985    2.39000010
   14.46833324  113.66799927    4.90999985    2.21000004
   14.46833324  132.51499939    4.90999985    2.21000004
   14.46833324  156.47599792    4.90999985    2.21000004
   14.46861076  133.55499268    4.90999985    2.19000006
   14.46861076  131.98199463    4.90999985    2.19000006
   14.46861076  363.56799316    4.90999985    2.15000010
   14.47027779  210.55799866    4.90999985    2.17000008
   14.47416592  189.18299866    4.90999985    2.03999996
   14.47749996  137.19500732    4.90999985    2.09999990
   14.48111057  109.88400269    4.90999985    2.36999989
   14.48472214   97.24700165    4.90999985    2.36999989
   14.48888874   97.24700165    4.90999985    2.39000010
   14.49305534  111.65399933    4.90999985    2.39000010
   14.49611092  111.39299774    4.90999985    2.28999996
   14.49944496   92.73439789    4.90999985    2.26999998
   14.50166702  107.00900269    4.90999985    2.32999992
   14.50305557   93.34999847    4.90999985    2.30999994
   14.50638866  103.52600098    4.90999985    2.32999992
   14.50944424   95.08650208    4.90999985    2.42000008
   14.51277733   96.84369659    4.90999985    2.28999996
   14.51611137   82.87129974    4.90999985    2.53999996
   14.51916599   92.83850098    4.90999985    2.55999994
   14.52250004   96.94290161    4.90999985    2.51999998
   14.52555561   97.20149994    4.90999985    2.53999996
   14.53166676   97.20149994    4.90999985    2.50000000
   14.53583336   88.69480133    4.90999985    2.51999998
   14.53916740  104.31600189    4.90999985    2.44000006
   14.54222298  103.46600342    4.90999985    2.34999990
   14.54555607   89.44560242    4.90999985    2.48000002
   14.54888916  103.60600281    4.90999985    2.51999998
   14.55194473  179.20899963    4.90999985    2.28999996
   14.55527782  116.81700134    4.90999985    2.15000010
   14.55833340  108.80300140    4.90999985    2.34999990
   14.56166649  107.72399902    4.90999985    2.32999992
   14.56500053   99.06449890    4.90999985    2.48000002
   14.56805515   92.70529938    4.90999985    2.46000004
   14.56861115   87.04119873    4.90999985    2.48000002
   14.57444477   87.04119873    4.90999985    2.15000010
   14.57861137   73.71710205    4.90999985    2.07999992
   14.58194447  245.97999573    4.90999985    1.75000000
   14.58527756  110.93499756    4.90999985    2.13000011
   14.58833313  101.22599792    4.90999985    2.32999992
   14.59166622   86.83170319    4.90999985    2.40000010
   14.59472179   90.24949646    4.90999985    2.55999994
   14.59805489   90.26409912    4.90999985    2.59999990
   14.60138893   98.93920135    4.90999985    2.59999990
   14.60194492   90.06800079    4.90999985    2.55999994
   14.60500050  102.23500061    4.90999985    2.46000004
   14.60833359  126.40299988    4.90999985    2.32999992
   14.61138916  110.93399811    4.90999985    2.25000000
   14.61750031  110.93399811    4.90999985    2.26999998
   14.62166691   99.49349976    4.90999985    2.21000004
   14.62472248   92.57350159    4.90999985    2.32999992
   14.62805557  100.01599884    4.90999985    2.40000010
   14.63111115   86.44419861    4.90999985    2.42000008
   14.63444424   90.95619965    4.90999985    2.51999998
   14.63527775   92.55130005    4.90999985    2.55999994
   14.63805580   -1.00000000   -1.00000000   -1.00000000
   14.64138889  228.06799316    4.90999985    1.88000000
   14.64444447  195.41999817    4.90999985    1.96000004
   14.64777756  143.19299316    4.90999985    2.01999998
   14.65083313  131.70399475    4.90999985    1.96000004
   14.65416622   90.01010132    4.90999985    2.00000000
   14.66027737   90.01010132    4.90999985    1.96000004
   14.66444397   -1.00000000    4.90999985    1.88000000
   14.66750050  141.82600403    4.90999985    1.96000004
   14.66861153  158.16600037    4.90999985    2.00000000
   14.67138958   94.44650269    4.90999985    2.23000002
   14.67472267  106.96199799    4.90999985    2.05999994
   14.67777824  274.99200439    4.90999985    2.30999994
   14.68111134  174.65199280    4.90999985    1.89999998
   14.68416691  176.10000610    4.90999985    2.01999998
   14.68750000  107.19799805    4.90999985    2.17000008
   14.69083309  120.59999847    4.90999985    2.23000002
   14.69388866  119.66300201    4.90999985    2.28999996
   14.69722271  102.20400238    4.90999985    2.36999989
   14.70305538  102.20400238    4.90999985    2.03999996
   14.70722198  182.35800171    4.90999985    1.78999996
   14.71055508  187.42599487    4.90999985    2.15000010
   14.71361065  161.60400391    4.90999985    2.05999994
   14.71694374   -1.00000000    4.90999985    2.00000000
   14.72027779   -1.00000000    4.90999985    1.58000004
   14.72333336   -1.00000000    4.90999985    1.60000002
   14.72666645   -1.00000000    4.90999985    1.64999998
   14.72972202   -1.00000000    4.90999985    1.85000002
   14.73305511   -1.00000000    4.90999985    1.78999996
   14.73527813  168.36700439    4.90999985    1.83000004
   14.73666668  105.53299713    4.90999985    1.98000002
   14.74000072  222.44400024    4.90999985    1.91999996
   14.74583340  222.44400024    4.90999985    2.13000011
   14.75000000  205.65899658    4.90999985    2.09999990
   14.75333309   -1.00000000    4.90999985    1.89999998
   14.75666714  181.05599976    4.90999985    1.86000001
   14.75972176   -1.00000000    4.90999985    2.00000000
   14.76305580   -1.00000000    4.90999985    1.73000002
   14.76611137   -1.00000000   -1.00000000   -1.00000000
   14.76999950   -1.00000000    4.90999985    1.86000001
   14.77305508   -1.00000000    4.90999985    1.88000000
   14.77638817  137.53799438    4.90999985    1.78999996
   14.77972221  164.03900146    4.90999985    2.07999992
   14.78277779   -1.00000000    4.90999985    1.89999998
   14.78888893   -1.00000000    4.90999985    1.91999996
   14.79305553  175.06199646    4.90999985    2.11999989
   14.79611111   -1.00000000    4.90999985    2.01999998
   14.79944515  196.47000122    4.90999985    1.69000006
   14.80194473  182.47999573    4.90999985    1.94000006
   14.80305576  139.55999756    4.90999985    2.05999994
   14.80638885  134.13299561    4.90999985    2.21000004
   14.80944443  118.62799835    4.90999985    2.19000006
   14.81277752  100.17900085    4.90999985    2.21000004
   14.81583309   93.30670166    4.90999985    2.40000010
   14.81916618   94.18099976    4.90999985    2.46000004
   14.82250023   90.69740295    4.90999985    2.48000002
   14.82555580   88.58809662    4.90999985    2.44000006
   14.83166695   88.58809662    4.90999985    2.44000006
   14.83583260   99.24269867    4.90999985    2.57999992
   14.83888817  153.40800476    4.90999985    2.15000010
   14.84222221   88.44499969    4.90999985    1.96000004
   14.84555531  106.75900269    4.90999985    2.51999998
   14.84861088  135.38299561    4.90999985    2.36999989
   14.85194492  116.80500031    4.90999985    2.09999990
   14.85527802  115.63099670    4.90999985    2.30999994
   14.85833359  127.44300079    4.90999985    2.13000011
   14.86166668  130.22200012    4.90999985    2.23000002
   14.86472225  122.25399780    4.90999985    2.17000008
   14.86805534  124.50199890    4.90999985    2.17000008
   14.86861134  142.97999573    4.90999985    2.15000010
   14.87444496  142.97999573    4.90999985    2.34999990
   14.87861156  100.03700256    4.90999985    2.36999989
   14.88194466   87.20520020    4.90999985    2.50000000
   14.88500023  103.33999634    4.90999985    2.57999992
   14.88833332   92.41880035    4.90999985    2.55999994
   14.89166641  115.15799713    4.90999985    2.30999994
   14.89472198   89.77310181    4.90999985    2.32999992
   14.89805508  101.86900330    4.90999985    2.46000004
   14.90138817  117.68800354    4.90999985    2.40000010
   14.90194416  117.21099854    4.90999985    2.36999989
   14.90499973  174.77299500    4.90999985    2.15000010
   14.90833282  208.97900391    4.90999985    2.03999996
   14.91138840  176.99899292    4.90999985    1.98000002
   14.91722298  176.99899292    4.90999985    2.25000000
   14.92138958  112.70999908    4.90999985    2.21000004
   14.92472267   97.36799622    4.90999985    2.36999989
   14.92805576   93.97920227    4.90999985    2.30999994
   14.93111134  105.50900269    4.90999985    2.46000004
   14.93444443  105.13500214    4.90999985    2.25000000
   14.93527794  104.60399628    4.90999985    2.28999996
   14.93805599  144.50999451    4.90999985    2.28999996
   14.94138908  131.66299438    4.90999985    1.94000006
   14.94444466  110.81300354    4.90999985    2.25000000
   14.94777775   95.06939697    4.90999985    2.39000010
   14.95111084  228.59899902    4.90999985    2.26999998
   14.95416641  205.68400574    4.90999985    2.07999992
   14.96027756  205.68400574    4.90999985    1.86000001
   14.96416664   -1.00000000    4.90999985    1.85000002
   14.96749973   -1.00000000    4.90999985    1.64999998
   14.97111034   -1.00000000    4.90999985    1.66999996
   14.97416592   -1.00000000    4.90999985    1.66999996
   14.97749996   -1.00000000    4.90999985    1.86000001
   14.98083305   -1.00000000    4.90999985    1.91999996
   14.98388958   -1.00000000    4.90999985    1.64999998
   14.98722267   -1.00000000    4.90999985    1.34000003
   14.99027824   -1.00000000    4.90999985    1.53999996
   14.99361134   -1.00000000    4.90999985    1.89999998
   14.99694443   -1.00000000    4.90999985    1.58000004
   15.00305557   -1.00000000    4.90999985    1.64999998
   15.00722218   -1.00000000    4.90999985    1.51999998
   15.01027775   -1.00000000    4.90999985    1.83000004
   15.01361084  209.20700073    4.90999985    1.80999994
   15.01694393  213.58799744    4.90999985    1.91999996
   15.01999950  237.75500488    4.90999985    2.13000011
   15.02333355  173.48599243    4.90999985    1.86000001
   15.02666664  132.41799927    4.90999985    2.03999996
   15.02972221  139.07400513    4.90999985    2.19000006
   15.03305531  187.27299500    4.90999985    2.15000010
   15.03527832  116.90200043    4.90999985    2.03999996
   15.03666687  121.68499756    4.90999985    2.26999998
   15.04000092  103.24600220    4.90999985    2.30999994
   15.04583359  103.24600220    4.90999985    2.30999994
   15.05000019  149.23599243    4.90999985    2.15000010
   15.05333328  137.78500366    4.90999985    2.21000004
   15.05638885  218.93299866    4.90999985    2.25000000
   15.05972195  163.94900513    4.90999985    2.07999992
   15.06277752   -1.00000000    4.90999985    1.96000004
   15.06611156  205.81300354    4.90999985    1.75000000
   15.06861115  134.06399536    4.90999985    2.03999996
   15.06972218  215.67900085    4.90999985    2.19000006
   15.07305527  174.14199829    4.90999985    2.25000000
   15.07611084  125.51100159    4.90999985    2.26999998
   15.07944393  116.20400238    4.90999985    2.21000004
   15.08249950  106.35199738    4.90999985    2.44000006
   15.08861065  106.35199738    4.90999985    2.30999994
   15.09277725  163.54200745    4.90999985    2.11999989
   15.09611034  173.64100647    4.90999985    2.17000008
   15.09916592  133.32299805    4.90999985    1.98000002
   15.10194492   97.18160248    4.90999985    2.05999994
   15.10305595   -1.00000000    4.90999985    1.94000006
   15.10638905   -1.00000000    4.90999985    1.80999994
   15.10944462   -1.00000000    4.90999985    1.91999996
   15.11277771   76.97149658    4.90999985    1.76999998
   15.11583328  244.99899292    4.90999985    1.94000006
   15.11916637  120.90799713    4.90999985    2.13000011
   15.12250042  133.19400024    4.90999985    2.28999996
   15.12555599  116.29599762    4.90999985    2.42000008
   15.13166714  116.29599762    4.90999985    2.50000000
   15.13555527   86.72679901    4.90999985    2.53999996
   15.13888836   92.70819855    4.90999985    2.50000000
   15.14222240  115.95700073    4.90999985    2.55999994
   15.14527798   87.71199799    4.90999985    2.59999990
   15.14861107  101.13899994    4.90999985    2.59999990
   15.15194416   97.63719940    4.90999985    2.57999992
   15.15499973   91.56639862    4.90999985    2.64000010
   15.15833282  115.51799774    4.90999985    2.59999990
   15.16138840   82.59660339    4.90999985    2.51999998
   15.16472149   86.18129730    4.90999985    2.55999994
   15.16805553   88.50589752    4.90999985    2.55999994
   15.16861153   90.63289642    4.90999985    2.48000002
   15.17444515   90.63289642    4.90999985    2.48000002
   15.17861176   99.76889801    4.90999985    2.48000002
   15.18166733   97.97399902    4.90999985    2.48000002
   15.18500042   95.74069977    4.90999985    2.53999996
   15.18833351  101.47399902    4.90999985    2.42000008
   15.19138908  112.42400360    4.90999985    2.26999998
   15.19472218   95.29290009    4.90999985    2.36999989
   15.19805527   93.78700256    4.90999985    2.46000004
   15.20111084   92.58029938    4.90999985    2.51999998
   15.20194435   89.31690216    4.90999985    2.51999998
   15.20472240   92.87899780    4.90999985    2.44000006
   15.20805550  127.82800293    4.90999985    2.32999992
   15.21111107  185.50399780    4.90999985    2.17000008
   15.21722221  185.50399780    4.90999985    2.32999992
   15.22138882   97.06479645    4.90999985    2.44000006
   15.22472191  121.19899750    4.90999985    2.42000008
   15.22777748  133.84500122    4.90999985    2.25000000
   15.23111057  214.17700195    4.90999985    2.17000008
   15.23444462   -1.00000000    4.90999985    1.86000001
   15.23805618  191.57699585    4.90999985    1.78999996
   15.24138927   -1.00000000    4.90999985    2.00000000
   15.24444485  142.03599548    4.90999985    1.91999996
   15.24777794  140.55200195    4.90999985    2.17000008
   15.25083351  119.27999878    4.90999985    2.34999990
   15.25416660  167.01499939    4.90999985    2.21000004
   15.26000023  167.01499939    4.90999985    2.07999992
   15.26416683  148.78100586    4.90999985    2.07999992
   15.26749992   -1.00000000    4.90999985    1.89999998
   15.27111053   -1.00000000    4.90999985    1.89999998
   15.27416611   -1.00000000    4.90999985    1.75000000
   15.27750015   -1.00000000    4.90999985    1.51999998
   15.28083324   -1.00000000    4.90999985    1.69000006
   15.28388977   -1.00000000    4.90999985    1.78999996
   15.28722286   -1.00000000    4.90999985    1.80999994
   15.29055595   -1.00000000    4.90999985    1.75000000
   15.31277752   -1.00000000    4.90999985    2.11999989
   15.31694412  123.45800018    4.90999985    2.09999990
   15.31999969  111.99900055    4.90999985    2.23000002
   15.32333374  104.20400238    4.90999985    2.44000006
   15.32666683  103.34600067    4.90999985    2.44000006
   15.32972240  100.87500000    4.90999985    2.40000010
   15.33305550  155.25999451    4.90999985    2.21000004
   15.33611107  224.90699768    4.90999985    2.01999998
   15.33944416  176.08999634    4.90999985    2.01999998
   15.34277725  110.46600342    4.90999985    2.17000008
   15.34361076  111.02899933    4.90999985    2.19000006
   15.34611034  162.64100647    4.90999985    2.17000008
   15.34944439  152.11999512    4.90999985    2.09999990
   15.35555553  152.11999512    4.90999985    1.76999998
   15.35972214   -1.00000000   -1.00000000   -1.00000000
   15.36277771   -1.00000000    4.90999985    1.86000001
   15.36611176  230.16099548    4.90999985    1.91999996
   15.36916637  106.41100311    4.90999985    2.05999994
   15.37250042   99.94570160    4.90999985    2.40000010
   15.37583351  101.04900360    4.90999985    2.48000002
   15.37694454   95.88739777    4.90999985    2.40000010
   15.37916660   92.51570129    4.90999985    2.42000008
   15.38249969  100.59999847    4.90999985    2.42000008
   15.38583279  103.53399658    4.90999985    2.26999998
   15.38888836   91.90560150    4.90999985    2.40000010
   15.39222240   92.25070190    4.90999985    2.40000010
   15.39833355   92.25070190    4.90999985    2.50000000
   15.40249920   87.14459991    4.90999985    2.61999989
   15.40555477   84.24530029    4.90999985    2.59999990
   15.40888882   82.76670074    4.90999985    2.66000009
   15.41055489  108.87999725    4.90999985    2.67000008
   15.41249943   35.97460175    4.90999985    2.46000004
   15.41583252   -1.00000000    4.90999985    1.51999998
   15.41888905  131.50100708    4.90999985    1.98000002
   15.42222214   -1.00000000    4.90999985    2.21000004
   15.42555618  159.36999512    4.90999985    2.15000010
   15.42861176   -1.00000000    4.90999985    2.00000000
   15.43194485  137.45500183    4.90999985    1.91999996
   15.43527794  109.77400208    4.90999985    1.94000006
   15.44111156  109.77400208    4.90999985    2.55999994
   15.44527817  141.14799500    4.90999985    2.32999992
   15.44861126  338.60000610    4.90999985    2.23000002
   15.45055580  137.45500183    4.90999985    1.91999996
   15.45055580  109.77400208    4.90999985    1.94000006
   15.45083332  141.14799500    4.90999985    2.32999992
   15.45083332  338.60000610    4.90999985    2.23000002
   15.45083332   -1.00000000    4.90999985    1.51999998
   15.45111084  131.50100708    4.90999985    1.98000002
   15.45111084   -1.00000000    4.90999985    2.21000004
   15.45111084  159.36999512    4.90999985    2.15000010
   15.45138836   -1.00000000    4.90999985    2.00000000
   15.45333290   -1.00000000    4.90999985    1.86000001
   15.45638847   -1.00000000    4.90999985    1.64999998
   15.45972157   -1.00000000    4.90999985    1.75000000
   15.46305561   -1.00000000    4.90999985    1.75000000
   15.46611118   -1.00000000    4.90999985    1.76999998
   15.47138882   -1.00000000    4.90999985    1.63000000
   15.47555542   -1.00000000    4.90999985    1.63000000
   15.47861099   -1.00000000    4.90999985    1.76999998
   15.48194408   -1.00000000    4.90999985    1.85000002
   15.48555565   -1.00000000    4.90999985    1.94000006
   15.48888874  191.59599304    4.90999985    1.88000000
   15.49194431   -1.00000000    4.90999985    2.11999989
   15.49527836  211.12399292    4.90999985    1.89999998
   15.49833393  197.16999817    4.90999985    2.07999992
   15.50166702  103.02500153    4.90999985    2.09999990
   15.50500011   96.70230103    4.90999985    2.28999996
   15.50805569   94.25289917    4.90999985    2.46000004
   15.51416683   94.25289917    4.90999985    2.53999996
   15.51833344   94.84449768    4.90999985    2.46000004
   15.52138901  106.25299835    4.90999985    2.40000010
   15.52472210  135.48300171    4.90999985    2.25000000
   15.52805519   -1.00000000   -1.00000000   -1.00000000
   15.53111076  154.04200745    4.90999985    1.98000002
   15.53472233   -1.00000000    4.90999985    1.96000004
   15.53805637  165.01199341    4.90999985    1.94000006
   15.54111195   -1.00000000    4.90999985    1.98000002
   15.54444504   -1.00000000    4.90999985    1.80999994
   15.54750061   -1.00000000    4.90999985    1.50000000
   15.55083370   -1.00000000   -1.00000000   -1.00000000
   15.55138874   -1.00000000   -1.00000000   -1.00000000
   15.55694485   -1.00000000   -1.00000000   -1.00000000
   15.56111145   -1.00000000    4.90999985    2.09999990
   15.56444454   82.63069916    4.90999985    1.71000004
   15.56750011  192.36399841    4.90999985    1.80999994
   15.57083321  146.86900330    4.90999985    2.01999998
   15.57388878  151.56100464    4.90999985    2.15000010
   15.57722187   98.64260101    4.90999985    2.15000010
   15.58055592  112.85299683    4.90999985    2.28999996
   15.58361053  107.67299652    4.90999985    2.30999994
   15.58472157   89.68910217    4.90999985    2.30999994
   15.58749962   89.40419769    4.90999985    2.28999996
   15.59055519   91.53170013    4.90999985    2.32999992
   15.59388828   90.94550323    4.90999985    2.42000008
   15.59972191   90.94550323    4.90999985    2.44000006
   15.60388947   89.86380005    4.90999985    2.51999998
   15.60722256  100.08000183    4.90999985    2.48000002
   15.61055565  104.40799713    4.90999985    2.36999989
   15.61361122  147.77000427    4.90999985    2.30999994
   15.61694431  171.34399414    4.90999985    2.17000008
   15.61805534  165.61199951    4.90999985    2.21000004
   15.62055588  226.20599365    4.90999985    2.09999990
   15.62361145   -1.00000000    4.90999985    2.09999990
   15.62694454   -1.00000000    4.90999985    1.76999998
   15.63027763   -1.00000000    4.90999985    1.58000004
   15.63333321   -1.00000000    4.90999985    1.36000001
   15.63666630   -1.00000000    4.90999985    1.66999996
   15.64277744   -1.00000000    4.90999985    1.80999994
   15.64666653   -1.00000000    4.90999985    1.61000001
   15.64999962   -1.00000000    4.90999985    1.21000004
   15.65333271   -1.00000000    4.90999985    1.16999996
   15.65666676   -1.00000000    4.90999985    1.64999998
   15.65999985   -1.00000000    4.90999985    1.26999998
   15.66305542   -1.00000000    4.90999985    1.46000004
   15.66638851   -1.00000000    4.90999985    1.83000004
   15.66944504   -1.00000000    4.90999985    1.61000001
   15.67277813   -1.00000000    4.90999985    1.88000000
   15.67611122   -1.00000000    4.90999985    1.60000002
   15.67916679   -1.00000000    4.90999985    1.09000003
   15.68555546   -1.00000000    4.90999985    1.78999996
   15.68972206   -1.00000000    4.90999985    1.86000001
   15.69277763   -1.00000000    4.90999985    1.60000002
   15.69611073   -1.00000000    4.90999985    1.60000002
   15.69944477   -1.00000000    4.90999985    1.91999996
   15.70249939  222.94500732    4.90999985    1.89999998
   15.70583344  104.39600372    4.90999985    2.19000006
   15.70916653  144.82699585    4.90999985    2.34999990
   15.71222210  167.78599548    4.90999985    2.17000008
   15.71555519  163.97300720    4.90999985    2.05999994
   15.71805477  199.25000000    4.90999985    2.19000006
   15.71916580  192.53100586    4.90999985    2.19000006
   15.72222137  237.57000732    4.90999985    2.28999996
   15.72833252  237.57000732    4.90999985    1.66999996
   15.73249912   -1.00000000    4.90999985    1.44000006
   15.73583317  225.91700745    4.90999985    1.94000006
   15.73888874   -1.00000000    4.90999985    1.71000004
   15.74222279   -1.00000000    4.90999985    1.34000003
   15.74527836   -1.00000000    4.90999985    1.13000000
   15.74861145   -1.00000000    4.90999985    1.66999996
   15.75194454   -1.00000000    4.90999985    1.66999996
   15.75527763  130.78399658    4.90999985    2.13000011
   15.75861073   75.07109833    4.90999985    2.01999998
   15.76166630   -1.00000000    4.90999985    1.64999998
   15.76500034   -1.00000000    4.90999985    1.76999998
   15.77111053   -1.00000000    4.90999985    1.89999998
   15.77527714   -1.00000000    4.90999985    2.00000000
   15.77861118   -1.00000000    4.90999985    1.69000006
   15.78194427   -1.00000000    4.90999985    1.78999996
   15.78527832   -1.00000000    4.90999985    1.58000004
   15.78861141   52.57080078    4.90999985    1.88000000
   15.79194450   71.46089935    4.90999985    1.88000000
   15.79500008  224.33299255    4.90999985    1.98000002
   15.79833412   91.28399658    4.90999985    2.19000006
   15.80166721   94.97109985    4.90999985    2.40000010
   15.80472279  100.47399902    4.90999985    2.46000004
   15.80805588  108.31300354    4.90999985    2.39000010
   15.81416702  108.31300354    4.90999985    1.91999996
   15.81805515  162.18499756    4.90999985    1.78999996
   15.82138920   -1.00000000    4.90999985    2.01999998
   15.82472229  178.35699463    4.90999985    1.88000000
   15.82777786   -1.00000000    4.90999985    1.89999998
   15.83111095  197.39999390    4.90999985    2.01999998
   15.83444405  210.94200134    4.90999985    2.17000008
   15.83749962   -1.00000000    4.90999985    1.98000002
   15.84083271  180.51300049    4.90999985    1.86000001
   15.84388828   -1.00000000    4.90999985    1.66999996
   15.84722233  107.60099792    4.90999985    1.94000006
   15.85055637  223.75900269    4.90999985    2.21000004
   15.85138893  205.72300720    4.90999985    2.13000011
   15.85694504  205.72300720    4.90999985    2.25000000
   15.86111164  150.66700745    4.90999985    2.01999998
   15.86416721  183.39399719    4.90999985    2.01999998
   15.86750031   -1.00000000    4.90999985    1.91999996
   15.87083340   -1.00000000    4.90999985    1.86000001
   15.87388897   -1.00000000    4.90999985    1.66999996
   15.87722206   -1.00000000    4.90999985    1.71000004
   15.88027763   -1.00000000    4.90999985    1.51999998
   15.88361073   -1.00000000    4.90999985    1.60000002
   15.88694477  199.91999817    4.90999985    1.69000006
   15.89027786  180.70199585    4.90999985    2.28999996
   15.89361095  118.93000031    4.90999985    1.75000000
   15.89972210  118.93000031    4.90999985    2.42000008
   15.90388870  136.84700012    4.90999985    2.51999998
   15.90722179   -1.00000000    4.90999985    2.23000002
   15.91027737  133.61999512    4.90999985    1.63000000
   15.91361046  154.10499573    4.90999985    2.28999996
   15.91666698  191.50900269    4.90999985    1.98000002
   15.91805553  100.73899841    4.90999985    2.17000008
   15.92055607  108.37699890    4.90999985    2.36999989
   15.92361164   94.46749878    4.90999985    2.26999998
   15.92694473   -1.00000000    4.90999985    2.05999994
   15.93027782  197.80000305    4.90999985    1.98000002
   15.93333340  174.80700684    4.90999985    1.98000002
   15.93666649  124.10299683    4.90999985    2.40000010
   15.94250011  124.10299683    4.90999985    2.23000002
   15.94666672   49.59180069    4.90999985    1.94000006
   15.94999981   38.47629929    4.90999985    1.91999996
   15.95333290   -1.00000000    4.90999985    1.83000004
   15.95666695   -1.00000000    4.90999985    1.66999996
   15.96000004   -1.00000000    4.90999985    1.75000000
   15.96305561   -1.00000000    4.90999985    1.76999998
   15.96638870   -1.00000000    4.90999985    1.88000000
   15.96972179   -1.00000000    4.90999985    1.39999998
   15.97277737   -1.00000000    4.90999985    1.88000000
   15.97611046  102.06400299    4.90999985    1.75000000
   15.97916603  120.05999756    4.90999985    2.17000008
   15.98555565  120.05999756    4.90999985    2.32999992
   15.98944473  104.83399963    4.90999985    2.28999996
   15.99277782  100.23899841    4.90999985    2.36999989
   15.99611092   86.80359650    4.90999985    2.25000000
   15.99916649   88.30390167    4.90999985    2.50000000
   16.00250053   85.69650269    4.90999985    2.55999994
   16.00583267   92.34210205    4.90999985    2.48000002
   16.00888824   81.44969940    4.90999985    2.50000000
   16.01222229   93.66030121    4.90999985    2.67000008
   16.01527786   82.89160156    4.90999985    2.51999998
   16.01805496   82.89820099    4.90999985    2.53999996
   16.01916695   82.26260376    4.90999985    2.64000010
   16.02249908   81.98410034    4.90999985    2.51999998
   16.02833366   81.98410034    4.90999985    2.48000002
   16.03249931   87.69589996    4.90999985    2.40000010
   16.03555489   98.76889801    4.90999985    2.53999996
   16.03888893   90.91709900    4.90999985    2.42000008
   16.04222107   92.82579803    4.90999985    2.55999994
   16.04527664   83.26670074    4.90999985    2.51999998
   16.04861069   82.19100189    4.90999985    2.64000010
   16.05138779   92.39360046    4.90999985    2.71000004
   16.05222130   87.42489624    4.90999985    2.61999989
   16.05555534   95.17310333    4.90999985    2.51999998
   16.05861092   85.56999969    4.90999985    2.36999989
   16.06194305   92.58760071    4.90999985    2.50000000
   16.06499863  227.01899719    4.90999985    2.34999990
   16.07111168  227.01899719    4.90999985    2.42000008
   16.07527924   93.88449860    4.90999985    2.30999994
   16.07861137  110.38800049    4.90999985    2.36999989
   16.08166695  114.56999969    4.90999985    2.34999990
   16.08472252   99.87129974    4.90999985    2.23000002
   16.08527756  102.04299927    4.90999985    2.23000002
   16.08861160  138.75100708    4.90999985    2.28999996
   16.09166718  103.95500183    4.90999985    2.15000010
   16.09500122  132.01899719    4.90999985    2.39000010
   16.09805679   97.92259979    4.90999985    2.11999989
   16.10138893  145.09100342    4.90999985    2.30999994
   16.10472298   94.93099976    4.90999985    2.46000004
   16.10777855  126.83599854    4.90999985    2.59999990
   16.11388969  126.83599854    4.90999985    2.36999989
   16.11805534   83.96739960    4.90999985    2.36999989
   16.12138939   86.32219696    4.90999985    2.61999989
   16.12444496   81.99579620    4.90999985    2.55999994
   16.12777710   89.29540253    4.90999985    2.48000002
   16.13111115  112.26000214    4.90999985    2.48000002
   16.13416672  158.20799255    4.90999985    1.89999998
   16.13750076   91.25730133    4.90999985    2.07999992
   16.14083290   84.85959625    4.90999985    2.42000008
   16.14388847   82.87069702    4.90999985    2.57999992
   16.14722252   81.86740112    4.82999992    2.80999994
   16.15027809   78.33820343    4.80999994    2.69000006
   16.15138817   83.20670319    4.51000023    2.76999998
   16.15694427   83.20670319    4.90999985    2.61999989
   16.16083336   80.33619690    4.36999989    2.69000006
   16.16416550   86.09940338    3.41000009    2.76999998
   16.16749954   82.12200165    2.61999989    2.80999994
   16.17055511   79.53800201    2.03999996    2.84999990
   16.17388916   84.79479980    3.36999989    2.69000006
   16.17722130   86.28019714    4.90999985    2.82999992
   16.18027687   89.86180115    4.90999985    2.67000008
   16.18361092  207.67599487    4.90999985    2.44000006
   16.18472099  167.38900757    4.90999985    2.25000000
   16.18722153  322.85598755    4.90999985    2.01999998
   16.18916512  346.98098755    4.90999985    2.11999989
   16.19055557  165.35800171    4.90999985    2.05999994
   16.19055557  322.85598755    4.90999985    2.01999998
   16.19083214   80.33619690    4.36999989    2.69000006
   16.19083214   86.09940338    3.41000009    2.76999998
   16.19083214   82.12200165    2.61999989    2.80999994
   16.19111061   79.53800201    2.03999996    2.84999990
   16.19111061   84.79479980    3.36999989    2.69000006
   16.19111061   86.28019714    4.90999985    2.82999992
   16.19138718   89.86180115    4.90999985    2.67000008
   16.19138718  207.67599487    4.90999985    2.44000006
   16.19249916  262.18600464    4.90999985    2.13000011
   16.19583321  233.55700684    4.90999985    2.26999998
   16.19888878  117.34400177    4.90999985    2.11999989
   16.20222282  110.04499817    4.90999985    2.59999990
   16.20555687  107.97100067    4.90999985    2.53999996
   16.21138954  107.97100067    2.19000006    2.78999996
   16.21555710  100.37400055    3.03999996    2.78999996
   16.21861076  111.10199738    4.90999985    2.66000009
   16.22194481   91.94960022    4.57999992    2.64000010
   16.22444534  103.33100128    4.00000000    2.71000004
   16.22583389   98.19480133    3.48000002    2.67000008
   16.22888947   86.16940308    2.39000010    2.78999996
   16.23222351   83.99980164    2.71000004    2.80999994
   16.23555565   88.55349731    3.14000010    2.75000000
   16.23861122   78.43859863    2.39000010    2.76999998
   16.24194527   81.87879944    3.23000002    2.76999998
   16.24500084   87.92259979    3.70000005    2.73000002
   16.24833298  102.26200104    4.34999990    2.78999996
   16.25416756  102.26200104    2.73000002    2.71000004
   16.25833321   96.13410187    2.51999998    2.67000008
   16.26166725   85.62000275    4.90999985    2.69000006
   16.26472282   97.95619965    2.40000010    2.84999990
   16.26805496   88.77590179    2.01999998    2.82999992
   16.27138901   84.57309723    2.19000006    2.82999992
   16.27444458   78.85009766    2.17000008    2.86999989
   16.27777672   77.99430084    2.25000000    2.84999990
   16.28083229   86.15930176    1.91999996    2.86999989
   16.28416634   78.89150238    2.11999989    2.86999989
   16.28750038   75.99259949    2.64000010    2.86999989
   16.29055595   77.44999695    2.51999998    2.86999989
   16.29111099   81.02140045    2.51999998    2.86999989
   16.29694366   81.02140045    3.00000000    2.86999989
   16.30111122   82.86289978    3.51999998    2.86999989
   16.30444336   76.70520020    3.86999989    2.84999990
   16.30777740   76.02799988    4.26000023    2.86999989
   16.32611275   82.48850250    4.90999985    2.82999992
   16.32750130   81.07399750    4.90999985    2.78999996
   16.33083344   83.08879852    4.90999985    2.75000000
   16.33388901   82.63179779    4.90999985    2.76999998
   16.34000015   82.63179779    4.90999985    2.69000006
   16.34416771   87.62270355    4.90999985    2.61999989
   16.34722328   82.08249664    4.90999985    2.78999996
   16.35055542   81.62570190    4.90999985    2.78999996
   16.35388947   83.03820038    3.00000000    2.75000000
   16.35694504   76.06600189    2.21000004    2.80999994
   16.35944557   80.70020294    1.88000000    2.84999990
   16.36083412   76.48870087    1.83000004    2.84999990
   16.36388969   80.50250244    1.66999996    2.86999989
   16.36722183   79.27860260    1.61000001    2.86999989
   16.37055588   79.96620178    1.60000002    2.84999990
   16.37361145   82.02339935    1.58000004    2.84999990
   16.37694550   78.86139679    1.46000004    2.86999989
   16.38277817   78.86139679    1.53999996    2.86999989
   16.38694382   86.91870117    1.48000002    2.86999989
   16.39027786   84.78420258    1.96000004    2.84999990
   16.39277840   82.90329742    2.15000010    2.86999989
   16.39388847   85.31050110    3.20000005    2.84999990
   16.39694405   81.87100220    4.38999987    2.78999996
   16.40027809   81.56020355    4.90999985    2.66000009
   16.40361023   78.32820129    4.90999985    2.59999990
   16.40666580   77.52359772    2.91000009    2.80999994
   16.40999985   81.08270264    2.76999998    2.82999992
   16.41333389   81.54370117    2.55999994    2.78999996
   16.41638756   82.59040070    2.30999994    2.86999989
   16.41972160   84.37960052    2.05999994    2.84999990
   16.42555428   84.37960052    2.00000000    2.89000010
   16.42972183   84.61519623    2.25000000    2.86999989
   16.43305397   82.93689728    2.13000011    2.86999989
   16.43638802   82.70410156    1.63000000    2.86999989
   16.43944359   81.67729950    1.46000004    2.86999989
   16.44277763   78.30660248    1.46000004    2.86999989
   16.44610977   84.78119659    1.46000004    2.86999989
   16.44916534   86.61630249    1.48000002    2.86999989
   16.45250130   83.94879913    1.83000004    2.84999990
   16.45555687   88.11180115    1.91999996    2.84999990
   16.45888901   82.81990051    1.96000004    2.82999992
   16.46083450   77.97799683    1.88000000    2.82999992
   16.46250153   79.79930115    1.88000000    2.84999990
   16.46861076   79.79930115    1.50000000    2.86999989
   16.47277832   81.99340057    1.41999996    2.86999989
   16.47583389   80.96829987    1.39999998    2.86999989
   16.47916794   81.29380035    1.39999998    2.86999989
   16.48222351   90.78410339    1.39999998    2.86999989
   16.48555565   84.65740204    1.44000006    2.86999989
   16.48888969   78.68019867    1.63000000    2.86999989
   16.49194527   79.94619751    2.07999992    2.84999990
   16.49416733   83.54429626    2.80999994    2.78999996
   16.49555588   85.21060181    3.11999989    2.75000000
   16.49888992   81.94940186    3.34999990    2.75000000
   16.50222206   84.12830353    3.73000002    2.78999996
   16.50527763   81.82920074    4.51000023    2.69000006
   16.51138878   81.82920074    2.03999996    2.82999992
   16.51555634   79.67109680    1.96000004    2.84999990
   16.51861000   79.12259674    1.76999998    2.86999989
   16.52194405   74.45970154    1.85000002    2.86999989
   16.52527809   87.37349701    1.61000001    2.86999989
   16.52750015   80.85780334    1.39999998    2.86999989
   16.52888870   81.17169952    1.39999998    2.86999989
   16.53222275   79.75219727    1.50000000    2.86999989
   16.53527641   83.89219666    1.44000006    2.89000010
   16.53861046   82.43080139    1.34000003    2.89000010
   16.54194450   81.57830048    1.33000004    2.89000010
   16.54500008   78.64099884    1.33000004    2.89000010
   16.54833221   82.50509644    1.38000000    2.86999989
   16.55416679   82.50509644    1.33000004    2.86999989
   16.55833244   78.79389954    1.30999994    2.86999989
   16.56083298   85.42929840    1.26999998    2.86999989
   16.56194305   84.36350250    1.28999996    2.89000010
   16.56527710   84.58170319    1.28999996    2.86999989
   16.56833458   81.99150085    1.30999994    2.86999989
   16.57166672   82.95030212    1.30999994    2.89000010
   16.57472229   80.20800018    1.30999994    2.86999989
   16.57805634   83.56069946    1.33000004    2.86999989
   16.58139038   85.41950226    1.33000004    2.86999989
   16.58444595   82.56900024    1.34000003    2.86999989
   16.58777809   80.64890289    1.36000001    2.86999989
   16.59111214   78.19380188    1.30999994    2.89000010
   16.59694481   78.19380188    1.30999994    2.89000010
   16.60111237   77.87509918    1.30999994    2.86999989
   16.60444450   81.29029846    1.44000006    2.86999989
   16.60750008   81.20629883    1.41999996    2.86999989
   16.61083412   82.20369720    1.34000003    2.86999989
   16.61416626   79.73049927    1.33000004    2.86999989
   16.61750031   79.85160065    1.39999998    2.86999989
   16.62055588   79.87039948    1.94000006    2.86999989
   16.62388992   82.18579865    2.17000008    2.84999990
   16.62694550   76.45300293    2.46000004    2.82999992
   16.62805557   77.24759674    2.50000000    2.80999994
   16.63055611   78.73609924    3.36999989    2.78999996
   16.63388824   85.82520294    4.32999992    2.76999998
   16.63999939   85.82520294    4.90999985    2.57999992
   16.64388847  108.57599640    4.90999985    2.39000010
   16.64722252  130.80900574    4.90999985    2.32999992
   16.65055466   83.61090088    4.90999985    2.55999994
   16.65361023   85.34919739    4.51000023    2.71000004
   16.65694427   80.42299652    3.09999990    2.78999996
   16.66027832   86.94889832    3.82999992    2.80999994
   16.66138840   86.91570282    4.21999979    2.73000002
   16.66361046   81.87229919    3.36999989    2.78999996
   16.66694450   84.20870209    2.67000008    2.82999992
   16.67027664   83.19020081    2.64000010    2.82999992
   16.67333221   87.69249725    4.65999985    2.75000000
   16.67666626   97.41100311    2.55999994    2.82999992
   16.68277740   97.41100311    1.98000002    2.84999990
   16.68694305   97.50509644    4.09999990    2.78999996
   16.68999863   87.52110291    4.36999989    2.69000006
   16.69333267   83.18640137    3.93000007    2.71000004
   16.69472122   91.70580292    3.93000007    2.71000004
   16.69694328   85.50700378    1.98000002    2.82999992
   16.70027924   89.23439789    1.55999994    2.86999989
   16.70333481   85.15090179    1.71000004    2.84999990
   16.70666695   89.94300079    1.71000004    2.86999989
   16.71000099   92.40249634    2.17000008    2.82999992
   16.71305656   86.58270264    2.39000010    2.80999994
   16.71638870   86.52839661    2.36999989    2.80999994
   16.71972275   85.28919983    1.53999996    2.86999989
   16.72555542   85.28919983    1.48000002    2.86999989
   16.72972298   89.23359680    1.58000004    2.86999989
   16.73305511   86.10119629    1.69000006    2.84999990
   16.73611069   86.59279633    1.71000004    2.84999990
   16.73944473   91.77999878    2.23000002    2.86999989
   16.74250031   82.90989685    2.25000000    2.84999990
   16.74583435   83.98519897    2.69000006    2.78999996
   16.74916649   87.65889740    1.98000002    2.84999990
   16.75222206   86.69680023    2.84999990    2.80999994
   16.75555611   87.95760345    3.46000004    2.76999998
   16.75888824   81.45629883    3.50000000    2.71000004
   16.76138878   84.12490082    2.32999992    2.78999996
   16.76250076   82.98950195    1.91999996    2.84999990
   16.76833344   82.98950195    1.33000004    2.89000010
   16.77249908   86.14040375    1.38000000    2.89000010
   16.77583313   83.48480225    1.61000001    2.86999989
   16.77888870   80.93260193    1.48000002    2.86999989
   16.78222275   80.13379669    1.39999998    2.86999989
   16.78555489   85.87079620    1.28999996    2.86999989
   16.78861046   83.47489929    1.25000000    2.86999989
   16.79194450   83.10820007    1.25000000    2.86999989
   16.79472160   81.66349792    1.25000000    2.86999989
   16.79555511   87.48619843    1.25000000    2.89000010
   16.79888916   84.88240051    1.25000000    2.86999989
   16.80194283   81.25810242    1.28999996    2.86999989
   16.80527687   84.96489716    1.30999994    2.86999989
   16.81138802   84.96489716    1.96000004    2.86999989
   16.81527710   90.03179932    3.23000002    2.78999996
   16.81861115   80.45570374    2.59999990    2.82999992
   16.82194519   81.98899841    2.44000006    2.84999990
   16.82500076   83.62640381    2.39000010    2.86999989
   16.82805634   84.64910126    3.73000002    2.84999990
   16.82861137   85.11360168    4.46999979    2.82999992
   16.83194542   93.42910004    4.90999985    2.71000004
   16.83500099   82.97820282    4.90999985    2.51999998
   16.83833313   82.65720367    4.36999989    2.76999998
   16.84166718   84.71309662    2.46000004    2.84999990
   16.84472275   88.71890259    2.01999998    2.86999989
   16.84805679   83.50859833    1.60000002    2.86999989
   16.85416794   83.50859833    1.36000001    2.86999989
   16.85833359   88.87709808    1.91999996    2.84999990
   16.86138916   82.99490356    2.07999992    2.86999989
   16.86194420   85.84169769    2.07999992    2.86999989
   16.86527824   83.15129852    1.50000000    2.86999989
   16.86833382   82.69519806    1.33000004    2.89000010
   16.87166595   80.86350250    1.38000000    2.89000010
   16.87500000   77.59980011    1.34000003    2.89000010
   16.87805557   81.15730286    1.38000000    2.89000010
   16.88138962   79.40940094    1.46000004    2.89000010
   16.88444519   80.84989929    1.89999998    2.82999992
   16.88777733   81.57530212    2.00000000    2.86999989
   16.89111137   85.05390167    1.71000004    2.84999990
   16.89694405   85.05390167    2.26999998    2.86999989
   16.90111160   89.19100189    2.69000006    2.78999996
   16.90444374   84.23059845    2.71000004    2.84999990
   16.90749931   87.02469635    2.59999990    2.86999989
   16.91083336   91.08999634    4.15999985    2.76999998
   16.91388893   83.84819794    4.63999987    2.75000000
   16.91722107   84.39029694    4.61999989    2.76999998
   16.92055511   85.44550323    4.90999985    2.73000002
   16.92361069   84.94539642    4.86999989    2.64000010
   16.92694473   91.29930115    4.90999985    2.71000004
   16.92805481   86.33239746    4.90999985    2.71000004
   16.93055534   85.52140045    4.88999987    2.73000002
   16.93388748   84.06179810    4.90999985    2.75000000
   16.93972206   84.06179810    4.53999996    2.75000000
   16.94388771   82.89630127    4.36999989    2.73000002
   16.94722176   86.47389984    4.32999992    2.78999996
   16.95055580   83.58219910    4.48999977    2.80999994
   16.95361137   91.38539886    4.90999985    2.73000002
   16.95694542   97.33670044    4.90999985    2.67000008
   16.96000099  100.13300323    4.90999985    2.51999998
   16.96166801  104.49099731    4.90999985    2.44000006
   16.96361160   92.47540283    4.90999985    2.39000010
   16.96694565   79.71630096    4.90999985    2.55999994
   16.97027779   78.43070221    4.32999992    2.80999994
   16.97333336   80.57250214    3.91000009    2.76999998
   16.97666740   80.64399719    4.78000021    2.78999996
   16.98277855   80.64399719    3.48000002    2.75000000
   16.98666763   80.79530334    3.51999998    2.82999992
   16.98999977   83.58020020    2.19000006    2.82999992
   16.99333382   80.90650177    3.32999992    2.82999992
   16.99500084   79.94640350    2.53999996    2.78999996
   16.99694443   81.07959747    2.76999998    2.78999996
   17.00000000   79.27369690    2.09999990    2.84999990
   17.00333405   76.95220184    1.69000006    2.84999990
   17.00666618   73.04460144    1.75000000    2.86999989
   17.00972176   78.55650330    1.51999998    2.86999989
   17.01305580   75.23570251    1.55999994    2.86999989
   17.01638794   77.74720001    1.71000004    2.86999989
   17.01944351   81.01200104    3.32999992    2.80999994
   17.02555466   81.01200104    3.03999996    2.76999998
   17.02972221   82.32460022    2.96000004    2.80999994
   17.03277779   86.53970337    3.68000007    2.75000000
   17.03610992   81.89489746    3.23000002    2.78999996
   17.03944397   85.29290009    3.55999994    2.75000000
   17.04249954   86.77210236    4.01999998    2.76999998
   17.04583359   83.27349854    4.59999990    2.71000004
   17.04888916   81.04489899    4.76000023    2.67000008
   17.05222130   84.30989838    4.59999990    2.73000002
   17.05555534   77.92720032    4.90999985    2.75000000
   17.05861092   82.29260254    4.90999985    2.73000002
   17.06166649   88.02050018    4.90999985    2.71000004
   17.06250000   81.51159668    4.90999985    2.64000010
   17.06833458   81.51159668    3.76999998    2.78999996
   17.07250023   79.88590240    4.32999992    2.76999998
   17.07583427   84.63939667    4.90999985    2.71000004
   17.07888985   83.45989990    4.90999985    2.71000004
   17.08222389   88.49479675    4.69999981    2.76999998
   17.08527756   81.95559692    4.90999985    2.80999994
   17.08861160   88.19809723    4.90999985    2.75000000
   17.09194565   84.77269745    4.90999985    2.71000004
   17.09500122   84.51930237    4.90999985    2.69000006
   17.09555626   88.10150146    4.90999985    2.67000008
   17.09889030   85.72930145    4.90999985    2.76999998
   17.10194397   84.53919983    4.90999985    2.80999994
   17.10527802   77.93800354    4.90999985    2.82999992
   17.11111069   77.93800354    4.90999985    2.82999992
   17.11527824   80.45929718    4.90999985    2.82999992
   17.11861038   78.10659790    4.90999985    2.84999990
   17.12166595   83.12550354    4.90999985    2.84999990
   17.12500000   79.73480225    4.90999985    2.82999992
   17.12833405   76.69000244    4.90999985    2.84999990
   17.12888908   75.37920380    4.90999985    2.82999992
   17.13194466   80.01950073    4.90999985    2.84999990
   17.13527679   88.82309723    4.90999985    2.82999992
   17.13861084   81.32620239    4.90999985    2.82999992
   17.14166641   76.77110291    4.90999985    2.84999990
   17.14500046   83.04049683    4.90999985    2.84999990
   17.14805603   80.60500336    4.90999985    2.80999994
   17.15416718   80.60500336    4.90999985    2.82999992
   17.15805435   82.34580231    4.90999985    2.80999994
   17.16138840   85.52030182    4.90999985    2.82999992
   17.16222191   83.25489807    4.90999985    2.82999992
   17.16499901   84.68569946    4.90999985    2.82999992
   17.16833305   85.53420258    4.90999985    2.78999996
   17.17166519   83.00090027    4.90999985    2.76999998
   17.17472076   81.77600098    4.90999985    2.76999998
   17.17805481   84.97229767    4.90999985    2.69000006
   17.18111038   85.11239624    4.90999985    2.76999998
   17.18444443   89.58080292    4.90999985    2.64000010
   17.18777657   85.65319824    4.90999985    2.67000008
   17.19083214   90.84970093    4.90999985    2.71000004
   17.19694328   90.84970093    4.90999985    2.78999996
   17.20111275   86.10299683    4.90999985    2.76999998
   17.20416832   84.63379669    4.90999985    2.66000009
   17.20750046   86.07260132    4.90999985    2.53999996
   17.21055603   91.54979706    4.90999985    2.50000000
   17.21389008   91.38220215    4.90999985    2.48000002
   17.21722221   93.96160126    4.90999985    2.44000006
   17.22027779   91.94989777    4.90999985    2.48000002
   17.22361183   90.05460358    4.90999985    2.51999998
   17.22694588  105.26799774    4.90999985    2.36999989
   17.22888947   92.46489716    4.90999985    2.39000010
   17.23027802   86.32910156    4.90999985    2.50000000
   17.23361206   88.77100372    4.90999985    2.53999996
   17.23972321   88.77100372    4.90999985    2.57999992
   17.24388885   83.98059845    4.90999985    2.55999994
   17.24722290   84.44509888    4.90999985    2.55999994
   17.25027847   88.07430267    4.90999985    2.64000010
   17.25361061   78.75029755    1.73000002    1.78999996
   17.25666618   80.61699677    0.88000000    0.44000000
   17.26000023   78.60919952    0.52999997    0.41999999
   17.26222229   83.53730011    0.40000001    0.38000000
   17.26361084   78.89759827    0.38000000    0.25000000
   17.26694489   78.32119751    0.25999999    0.03000000
   17.27027702   80.55639648    0.25999999    0.03000000
   17.27333260   84.62079620    0.25999999    0.03000000
   17.27666664   80.86399841    0.25999999    0.03000000
   17.28249931   80.86399841    0.25999999    0.03000000
   17.28666687   83.66020203    0.25999999    0.03000000
   17.28999901   83.74970245    0.25999999    0.03000000
   17.29305458   90.17279816    0.25999999    0.03000000
   17.29555511   92.47250366    0.25999999    0.03000000
   17.29666710   90.24710083    0.25999999    0.03000000
   17.29999924   94.48239899    0.25999999    0.03000000
   17.30333328   89.28070068    0.25999999    0.03000000
   17.30638885   95.20939636    0.25999999    0.03000000
   17.30972099   89.31379700    0.25999999    0.03000000
   17.31277657   83.36920166    0.25999999    0.03000000
   17.31611061   85.34200287    0.25999999    0.03000000
   17.31944466   85.79470062    0.25999999    0.03000000
   17.32555580   85.79470062    0.25999999    0.03000000
   17.34388924  103.31700134    0.25999999    0.03000000
   17.34694481   91.87059784    0.25999999    0.03000000
   17.35027885   90.92530060    0.25999999    0.03000000
   17.35361099   86.08290100    0.25999999    0.03000000
   17.35666656   83.66020203    0.25999999    0.03000000
   17.36000061   88.01860046    0.25999999    0.03000000
   17.36333466   87.23509979    0.25999999    0.03000000
   17.36861038   87.23509979    0.25999999    0.03000000
   17.37277794   81.86350250    0.25999999    0.03000000
   17.37583351   85.81800079    0.25999999    0.03000000
   17.37694550   86.77639771    0.25999999    0.03000000
   17.37944412   85.97419739    0.25999999    0.03000000
   17.38277817   97.28330231    0.25999999    0.03000000
   17.38611031   92.12390137    0.25999999    0.03000000
   17.38916588   91.01789856    0.25999999    0.03000000
   17.39249992   93.24479675    0.25999999    0.03000000
   17.39583397  100.73500061    0.25999999    0.03000000
   17.39888954   92.66840363    0.25999999    0.03000000
   17.40222168  105.16899872    0.25999999    0.03000000
   17.40555573  102.41500092    0.25999999    0.03000000
   17.41138840  102.41500092    0.25999999    0.03000000
   17.41555595   91.81390381    0.25999999    0.03000000
   17.41860962   85.74420166    0.25999999    0.03000000
   17.42194366   91.56109619    0.25999999    0.03000000
   17.42527771   85.10649872    0.25999999    0.03000000
   17.42833328   85.14499664    0.25999999    0.03000000
   17.43166542   82.15339661    0.25999999    0.03000000
   17.43499947   91.80429840    0.25999999    0.03000000
   17.43805504   83.80780029    0.25999999    0.03000000
   17.44138718   84.88050079    0.25999999    0.03000000
   17.44361115   97.10209656    0.25999999    0.03000000
   17.44472122   85.17669678    0.25999999    0.03000000
   17.44805527   86.68250275    0.25999999    0.03000000
   17.45416832   86.68250275    0.25999999    0.03000000
   17.45833397   86.50689697    0.25999999    0.03000000
   17.46166801   83.79640198    0.25999999    0.03000000
   17.46472359   90.00530243    0.25999999    0.03000000
   17.46805573   90.40290070    0.25999999    0.03000000
   17.47138977   84.12920380    0.25999999    0.03000000
   17.47444534   86.88420105    0.25999999    0.03000000
   17.47694588   85.07589722    0.25999999    0.03000000
   17.47805595   82.69760132    0.25999999    0.03000000
   17.48139000   83.09300232    0.25999999    0.03000000
   17.48472214  102.52500153    0.25999999    0.03000000
   17.48777771   91.05039978    0.25999999    0.03000000
   17.49111176   95.41400146    0.25999999    0.03000000
   17.49722290   95.41400146    0.25999999    0.03000000
   17.50138855  109.16300201    0.25999999    0.03000000
   17.50444412  126.08899689    0.25999999    0.03000000
   17.50777817  132.69500732    0.25999999    0.03000000
   17.51083374   89.36479950    0.25999999    0.03000000
   17.51305580   84.70429993    0.25999999    0.03000000
   17.51638794   82.61599731    0.25999999    0.03000000
   17.51972198   82.99490356    0.25999999    0.03000000
   17.52277756   85.46679688    0.25999999    0.03000000
   17.52611160   84.36640167    0.25999999    0.03000000
   17.52944374   79.62740326    0.25999999    0.03000000
   17.53249931   81.69629669    0.25999999    0.03000000
   17.53583336   88.21980286    0.25999999    0.03000000
   17.53999901   88.21980286    0.25999999    0.03000000
   17.54416656   83.60459900    0.25999999    0.03000000
   17.54444313   82.90090179    0.25999999    0.03000000
   17.54777718   88.08689880    0.25999999    0.03000000
   17.55111122   78.95480347    0.25999999    0.03000000
   17.55416679   85.67720032    0.25999999    0.03000000
   17.55749893   90.58429718    0.25999999    0.03000000
   17.56055450   83.30999756    0.25999999    0.03000000
   17.56388855   91.25469971    0.25999999    0.03000000
   17.56722260   86.54409790    0.25999999    0.03000000
   17.57027817   82.08519745    0.25999999    0.03000000
   17.57361221   84.47119904    0.25999999    0.03000000
   17.57694626   80.42549896    0.25999999    0.03000000
   17.57750130   80.72149658    0.25999999    0.03000000
   17.58277893   80.72149658    0.25999999    0.03000000
   17.58694458   82.75749969    0.25999999    0.03000000
   17.59000015   84.20339966    0.25999999    0.03000000
   17.59333420   87.46759796    0.25999999    0.03000000
   17.59666824   76.41339874    0.25999999    0.03000000
   17.59972191   78.19689941    0.25999999    0.03000000
   17.60305595   74.59110260    0.25999999    0.03000000
   17.60639000   77.94190216    0.25999999    0.03000000
   17.60944557   85.21330261    0.25999999    0.03000000
   17.61083412   83.77680206    0.25999999    0.03000000
   17.61305618   82.81610107    0.25999999    0.03000000
   17.61638832   92.60959625    0.25999999    0.03000000
