    HOUR (UT)   FLARE FACTOR    SKY TESTER    SUN TESTER
   12.13583279   -1.00000000   -1.00000000   -1.00000000
   12.21333313   -1.00000000    4.90999985    0.52999997
   12.21666622   -1.00000000    4.90999985    0.69000000
   12.21972179   -1.00000000    4.90999985    0.56999999
   12.22305489   -1.00000000    4.90999985    0.50000000
   12.22611046   -1.00000000    4.90999985    0.52999997
   12.23055553   -1.00000000    4.90999985    0.61000001
   12.23472214   -1.00000000    4.90999985    0.52999997
   12.23777771   -1.00000000    4.90999985    0.28000000
   12.24111176   -1.00000000    4.90999985    0.07000000
   12.24472237   -1.00000000    4.90999985    0.03000000
   12.24777794   -1.00000000    4.90999985    0.03000000
   12.25111103   -1.00000000    4.90999985    0.07000000
   12.25444412   -1.00000000    4.90999985    0.07000000
   12.25749969   -1.00000000    4.90999985    0.07000000
   12.26083374   -1.00000000    4.90999985    0.07000000
   12.26416683   -1.00000000    4.90999985    0.05000000
   12.26722240   -1.00000000    4.90999985    0.05000000
   12.27722168   -1.00000000    4.90999985    0.07000000
   12.28055573   -1.00000000    4.90999985    0.11000000
   12.28388977   -1.00000000    4.90999985    0.25999999
   12.28694534   -1.00000000    4.90999985    0.47999999
   12.29027843   -1.00000000    4.90999985    0.79000002
   12.29333401   -1.00000000    4.90999985    0.81999999
   12.29666710   -1.00000000    4.90999985    0.73000002
   12.30000019   -1.00000000    4.90999985    0.86000001
   12.30305576   -1.00000000    4.90999985    0.92000002
   12.30638885   -1.00000000    4.90999985    0.80000001
   12.30972195  233.44299316    4.90999985    0.86000001
   12.31027794  199.42999268    4.90999985    0.86000001
   12.31611156  199.42999268    4.90999985    1.53999996
   12.32027817  163.35600281    4.90999985    1.53999996
   12.32361126  148.72300720    4.90999985    1.36000001
   12.32666683  184.41900635    4.90999985    1.19000006
   12.32999992  243.17799377    4.90999985    1.14999998
   12.33305550  239.81399536    4.90999985    1.33000004
   12.33638859  151.97399902    4.90999985    1.33000004
   12.33972168  165.45300293    4.90999985    1.14999998
   12.34277725  271.85900879    4.90999985    1.16999996
   12.34361076  242.27400208    4.90999985    1.26999998
   12.34638882  208.36000061    4.90999985    1.64999998
   12.34972191  202.01699829    4.90999985    1.85000002
   12.35305595  266.75000000    4.90999985    1.64999998
   12.35888958  266.75000000    4.90999985    1.48000002
   12.36305618  204.64399719    4.90999985    1.78999996
   12.36638927  211.59399414    4.90999985    1.96000004
   12.36944485  206.71800232    4.90999985    2.01999998
   12.37277794  218.09500122    4.90999985    2.03999996
   12.37611103  216.71400452    4.90999985    2.03999996
   12.37694454  210.30099487    4.90999985    2.05999994
   12.37944412  206.59300232    4.90999985    2.01999998
   12.38277817  119.21199799    4.90999985    1.88000000
   12.38611126  104.93900299    4.90999985    1.64999998
   12.38916683  137.12800598    4.90999985    1.61000001
   12.39249992  217.18200684    4.90999985    1.78999996
   12.39555550  208.17599487    4.90999985    2.00000000
   12.40194416  208.17599487    4.90999985    2.03999996
   12.40611076  218.12800598    4.90999985    2.03999996
   12.40916634  212.66499329    4.90999985    2.03999996
   12.41027737  212.36000061    4.90999985    2.03999996
   12.41277695  196.88000488    4.90999985    2.01999998
   12.41611099  206.15299988    4.90999985    1.94000006
   12.41944504  220.36900330    4.90999985    1.91999996
   12.42250061  113.24900055    4.90999985    1.64999998
   12.42583370   -1.00000000    4.90999985    1.09000003
   12.42888927   -1.00000000    4.90999985    0.58999997
   12.43222237   -1.00000000    4.90999985    0.50000000
   12.43555546   -1.00000000    4.90999985    0.40000001
   12.43861103   -1.00000000    4.90999985    0.20999999
   12.44861126   -1.00000000    4.90999985    0.07000000
   12.45194435   -1.00000000    4.90999985    0.11000000
   12.45527744   -1.00000000    4.90999985    0.11000000
   12.45833302   -1.00000000    4.90999985    0.13000000
   12.46166611   -1.00000000    4.90999985    0.20999999
   12.46500015  150.03500366    4.90999985    0.30000001
   12.46805477  186.18800354    4.90999985    0.50000000
   12.47138882  399.59600830    4.90999985    0.63000000
   12.47333336  321.12298584    4.90999985    0.80000001
   12.47472191  275.03799438    4.90999985    0.88000000
   12.47611046  210.36599731    4.90999985    1.01999998
   12.47611046   -1.00000000    4.90999985    0.13000000
   12.47611046   -1.00000000    4.90999985    0.20999999
   12.47638798  150.03500366    4.90999985    0.30000001
   12.47638798  186.18800354    4.90999985    0.50000000
   12.47638798  399.59600830    4.90999985    0.63000000
   12.47666645   -1.00000000    4.90999985    0.20999999
   12.47666645   -1.00000000    4.90999985    0.07000000
   12.47666645   -1.00000000    4.90999985    0.11000000
   12.47694397   -1.00000000    4.90999985    0.11000000
   12.47749996  232.42399597    4.90999985    1.07000005
   12.48055553  230.50799561    4.90999985    1.33000004
   12.48388958  165.94000244    4.90999985    1.60000002
   12.48722267  239.35800171    4.90999985    1.71000004
   12.49027824  218.32400513    4.90999985    1.69000006
   12.49694443  218.32400513    4.90999985    1.66999996
   12.50111103  206.84500122    4.90999985    2.00000000
   12.50416660  199.75399780    4.90999985    2.09999990
   12.50749969  191.76400757    4.90999985    2.11999989
   12.51000023  207.61900330    4.90999985    2.11999989
   12.51111126  184.93400574    4.90999985    2.11999989
   12.51444435  193.59700012    4.90999985    2.13000011
   12.51777744  187.16600037    4.90999985    2.13000011
   12.52083302  219.48699951    4.90999985    2.13000011
   12.52416611  200.91700745    4.90999985    2.13000011
   12.52722168  190.38000488    4.90999985    2.15000010
   12.53055573  186.24600220    4.90999985    2.15000010
   12.53388977  183.64599609    4.90999985    2.15000010
   12.53972244  183.64599609    4.90999985    2.15000010
   12.54388905  180.17500305    4.90999985    2.15000010
   12.54694462  179.08799744    4.90999985    2.15000010
   12.55027771  178.75900269    4.90999985    2.15000010
   12.55361176  192.16499329    4.90999985    2.15000010
   12.55694485  181.07200623    4.90999985    2.15000010
   12.56000042  181.85600281    4.90999985    2.17000008
   12.56333351  180.83599854    4.90999985    2.17000008
   12.56638908  184.52999878    4.90999985    2.17000008
   12.56972218  186.56599426    4.90999985    2.17000008
   12.57305527  186.23399353    4.90999985    2.17000008
   12.57611084  190.88800049    4.90999985    2.17000008
   12.57666683  177.69700623    4.90999985    2.17000008
   12.58249950  177.69700623    4.90999985    2.19000006
   12.58666611  170.77200317    4.90999985    2.19000006
   12.59000015  179.83999634    4.90999985    2.19000006
   12.59305477  179.09700012    4.90999985    2.19000006
   12.59638882  176.06900024    4.90999985    2.19000006
   12.59972191  181.30400085    4.90999985    2.17000008
   12.60277843  185.05000305    4.90999985    2.17000008
   12.60611153  187.30599976    4.90999985    2.17000008
   12.60916710  180.14100647    4.90999985    2.17000008
   12.61000061  175.34199524    4.90999985    2.17000008
   12.61305618  194.77200317    4.90999985    2.15000010
   12.61638927  177.84700012    4.90999985    2.19000006
   12.61944485  171.09700012    4.90999985    2.21000004
   12.62527752  171.09700012    4.90999985    2.21000004
   12.62944412  165.32600403    4.90999985    2.21000004
   12.63277817  169.69700623    4.90999985    2.21000004
   12.63611126  171.35099792    4.90999985    2.23000002
   12.63916683  180.36300659    4.90999985    2.21000004
   12.64249992  172.93699646    4.90999985    2.21000004
   12.64333344  178.26199341    4.90999985    2.21000004
   12.64611053  171.97999573    4.90999985    2.21000004
   12.64944458  176.59800720    4.90999985    2.21000004
   12.65249920  181.26300049    4.90999985    2.21000004
   12.65583324  173.37699890    4.90999985    2.19000006
   12.65888882  179.05700684    4.90999985    2.19000006
   12.66222191  153.55999756    3.59999990    1.61000001
   12.66833401  153.55999756    2.07999992    1.89999998
   12.67250061  177.07099915    1.76999998    2.21000004
   12.67555618  177.98199463    1.75000000    2.19000006
   12.67666721  162.69200134    1.76999998    2.19000006
   12.67916679  171.02699280    1.80999994    2.21000004
   12.68249989  173.16499329    1.78999996    2.21000004
   12.68555546  165.24099731    1.75000000    2.21000004
   12.68888855  165.75999451    1.71000004    2.21000004
   12.69194412  174.82200623    1.50000000    2.23000002
   12.69527817  166.76199341    1.44000006    2.21000004
   12.69861126  167.14599609    1.28999996    2.23000002
   12.70166683  165.35299683    1.26999998    2.23000002
   12.70499992  175.47399902    1.21000004    2.23000002
   12.71111107  175.47399902    1.16999996    2.23000002
   12.71527767  169.73599243    1.13000000    2.23000002
   12.71833324  163.79800415    1.09000003    2.23000002
   12.72166634  163.84899902    1.07000005    2.23000002
   12.72499943  170.83000183    1.07000005    2.23000002
   12.72805500  165.44099426    1.07000005    2.23000002
   12.73138809  161.52999878    1.07000005    2.23000002
   12.73472214  157.48599243    1.03999996    2.23000002
   12.73777771  161.99099731    1.01999998    2.25000000
   12.74111176  158.08799744    1.01999998    2.25000000
   12.74333382  155.69299316    1.01999998    2.25000000
   12.74472237  158.15800476    1.01999998    2.25000000
   12.74805546  159.10499573    1.01999998    2.25000000
   12.75388908  159.10499573    1.00000000    2.25000000
   12.75805569  165.45899963    1.00000000    2.25000000
   12.76138878  168.71099854    1.00000000    2.25000000
   12.76444435  152.19999695    1.00000000    2.25000000
   12.76777744  163.30000305    0.98000002    2.25000000
   12.77111053  152.89599609    1.00000000    2.26999998
   12.77416611  175.45399475    0.98000002    2.25000000
   12.77666664  160.46200562    0.98000002    2.25000000
   12.77777767  161.80900574    0.98000002    2.25000000
   12.78111076  157.95700073    0.98000002    2.25000000
   12.78416729  163.89599609    0.98000002    2.25000000
   12.78750038  162.57600403    0.98000002    2.25000000
   12.79055595  161.61099243    0.98000002    2.25000000
   12.79666710  161.61099243    0.98000002    2.25000000
   12.80083370  167.05200195    0.95999998    2.26999998
   12.80416679  159.36199951    0.95999998    2.25000000
   12.80749989  178.45199585    0.95999998    2.25000000
   12.81000042  165.77799988    0.95999998    2.25000000
   12.81111145  161.62199402    0.98000002    2.26999998
   12.81444454  152.00900269    0.98000002    2.26999998
   12.81750011  144.01100159    0.98000002    2.26999998
   12.82083321  148.55400085    0.98000002    2.26999998
   12.82388878  145.04100037    0.98000002    2.26999998
   12.82722187  144.66600037    0.98000002    2.26999998
   12.83055592  155.37500000    0.95999998    2.26999998
   12.83361053  151.75300598    0.95999998    2.25000000
   12.83972168  151.75300598    0.95999998    2.26999998
   12.84388828  155.93600464    1.00000000    2.26999998
   12.84694386  160.30900574    0.98000002    2.26999998
   12.85027790  151.14900208    1.01999998    2.26999998
   12.85333347  160.46899414    1.85000002    2.26999998
   12.85666752  160.33599854    1.94000006    2.26999998
   12.86000061  156.43099976    2.19000006    2.26999998
   12.86305618  164.12500000    2.17000008    2.28999996
   12.86638927  161.60299683    2.25000000    2.28999996
   12.86972237  161.43699646    2.80999994    2.28999996
   12.87277794  154.61199951    4.90999985    2.28999996
   12.87611103  154.59300232    4.90999985    2.28999996
   12.87666702  148.59800720    4.90999985    2.26999998
   12.88249969  148.59800720    4.90999985    2.23000002
   12.88666630  194.00700378    4.90999985    1.76999998
   12.88972187   -1.00000000    4.90999985    0.61000001
   12.89305496   -1.00000000    4.90999985    0.30000001
   12.89638901   -1.00000000    4.90999985    0.25000000
   12.89944458   -1.00000000    4.90999985    0.50000000
   12.90277767  169.26899719    4.90999985    0.89999998
   12.90611076  164.84599304    4.90999985    1.44000006
   12.90916634  140.17999268    4.90999985    1.86000001
   12.90999985  141.17599487    4.90999985    2.00000000
   12.91277695  198.59599304    4.90999985    2.13000011
   12.91611099  144.39900208    4.90999985    1.75000000
   12.91916656   -1.00000000    4.90999985    1.21000004
   12.92944431  126.65100098    4.90999985    0.34000000
   12.93249989  158.76300049    4.90999985    1.48000002
   12.93583298  158.68899536    4.90999985    2.05999994
   12.93916702  156.57499695    4.90999985    2.32999992
   12.94222260  154.98500061    4.90999985    2.32999992
   12.94333363  159.82499695    4.90999985    2.34999990
   12.94583321  159.50300598    4.90999985    2.32999992
   12.94916630  154.15100098    4.90999985    2.30999994
   12.95222187  192.97000122    4.90999985    2.17000008
   12.95555496  161.21499634    4.90999985    1.88000000
   12.95888901   98.82630157    4.90999985    2.11999989
   12.96194458   -1.00000000    4.90999985    1.46000004
   12.96805477   -1.00000000    4.90999985    1.48000002
   12.97222137  230.67399597    4.90999985    1.48000002
   12.97555542  162.01400757    4.90999985    1.71000004
   12.97666645  153.36599731    4.90999985    1.83000004
   12.97916603  111.07399750    4.90999985    2.03999996
   12.98249912   -1.00000000    4.90999985    1.85000002
   12.98555565   -1.00000000    4.90999985    0.25999999
   12.98888874   -1.00000000    4.90999985    0.13000000
   12.99222279   -1.00000000    4.90999985    0.11000000
   12.99527836   -1.00000000    4.90999985    0.09000000
   12.99861145   -1.00000000    4.90999985    0.09000000
   13.00166702   -1.00000000    4.90999985    0.09000000
   13.00500011   -1.00000000    4.90999985    0.55000001
   13.01111126   -1.00000000    4.90999985    1.76999998
   13.01500034   -1.00000000    4.90999985    2.36999989
   13.01833344   -1.00000000    4.90999985    2.30999994
   13.02166653   -1.00000000    4.90999985    2.39000010
   13.02472210   -1.00000000    4.90999985    2.39000010
   13.02805519   -1.00000000    4.90999985    2.39000010
   13.03138828   -1.00000000    4.90999985    2.40000010
   13.03444481  124.02999878    4.90999985    2.19000006
   13.03777790  139.56900024    4.90999985    1.11000001
   13.04083347  146.55900574    4.90999985    2.01999998
   13.04333401  102.06199646    4.90999985    2.23000002
   13.04444504  138.02499390    4.90999985    2.05999994
   13.04777813   -1.00000000    4.90999985    1.19000006
   13.05388927   -1.00000000    4.90999985    1.89999998
   13.05805588   -1.00000000    4.90999985    1.83000004
   13.06111145   55.14210129    4.90999985    1.33000004
   13.06444454  104.93800354    4.90999985    1.44000006
   13.06777763  101.92600250    4.90999985    1.58000004
   13.07083321   -1.00000000    4.90999985    1.46000004
   13.07416630  117.30799866    4.90999985    1.34000003
   13.07666683  297.49798584    4.90999985    1.48000002
   13.07777786  343.51300049    4.90999985    1.58000004
   13.07972240  305.99600220    4.90999985    1.71000004
   13.08111095  413.22000122    4.90999985    1.75000000
   13.08249950  256.77499390    4.90999985    1.78999996
   13.08388901  220.76499939    4.90999985    1.85000002
   13.08388901  117.30799866    4.90999985    1.34000003
   13.08416653  343.51300049    4.90999985    1.58000004
   13.08416653  138.02499390    4.90999985    2.05999994
   13.08416653   -1.00000000    4.90999985    1.19000006
   13.08444405   -1.00000000    4.90999985    1.83000004
   13.08444405   55.14210129    4.90999985    1.33000004
   13.08444405  104.93800354    4.90999985    1.44000006
   13.08472157  101.92600250    4.90999985    1.58000004
   13.08472157   -1.00000000    4.90999985    1.46000004
   13.08527756  186.34599304    4.90999985    2.01999998
   13.08861065  161.44000244    4.90999985    2.32999992
   13.09166622  163.95799255    4.90999985    2.42000008
   13.09499931  188.74899292    4.90999985    2.40000010
   13.09833336  145.53799438    4.90999985    2.32999992
   13.10472298  145.53799438    4.90999985    1.51999998
   13.10888958  348.54299927    4.90999985    1.33000004
   13.11083412  187.00599670    4.90999985    1.53999996
   13.11083412  186.34599304    4.90999985    2.01999998
   13.11111164  161.44000244    4.90999985    2.32999992
   13.11111164  163.95799255    4.90999985    2.42000008
   13.11111164  188.74899292    4.90999985    2.40000010
   13.11138916  145.53799438    4.90999985    2.32999992
   13.11138916  348.54299927    4.90999985    1.33000004
   13.11333370  179.01600647    4.90999985    1.55999994
   13.11666679  166.47000122    4.90999985    2.28999996
   13.11972237  181.00900269    4.90999985    2.30999994
   13.12305546  159.71699524    4.90999985    2.30999994
   13.12638855  158.47599792    4.90999985    2.42000008
   13.13166714  158.47599792    4.90999985    2.44000006
   13.13583279  149.15699768    4.90999985    2.46000004
   13.13916683  158.02600098    4.90999985    2.46000004
   13.14222240  149.04200745    4.90999985    2.46000004
   13.14472198  200.40699768    4.90999985    2.40000010
   13.14611053  131.93200684    4.90999985    2.30999994
   13.14916611   -1.00000000    4.90999985    1.25000000
   13.15249920   -1.00000000    4.90999985    1.16999996
   13.15583324   -1.00000000    4.90999985    1.16999996
   13.15888882   -1.00000000    4.90999985    0.61000001
   13.16222191   -1.00000000    4.90999985    0.25000000
   13.16527748   -1.00000000    4.90999985    0.15000001
   13.16861153   -1.00000000    4.90999985    0.13000000
   13.17444515   -1.00000000    4.90999985    0.38000000
   13.17861176  116.24700165    4.90999985    1.28999996
   13.18194485   94.89610291    4.90999985    1.61000001
   13.18500042  128.05499268    4.90999985    1.61000001
   13.18833351  124.43099976    4.90999985    1.60000002
   13.19166660   -1.00000000    4.90999985    1.60000002
   13.19472218   -1.00000000    4.90999985    1.53999996
   13.19805527   -1.00000000    4.90999985    1.53999996
   13.20138836  346.34899902    4.90999985    1.63000000
   13.20333290  273.53399658    4.90999985    1.78999996
   13.20472240  250.31300354    4.90999985    1.86000001
   13.20611095  251.99099731    4.90999985    1.89999998
   13.20749950  237.86399841    4.90999985    1.96000004
   13.20749950  128.05499268    4.90999985    1.61000001
   13.20749950  124.43099976    4.90999985    1.60000002
   13.20777798   -1.00000000    4.90999985    1.60000002
   13.20777798   -1.00000000    4.90999985    1.53999996
   13.20777798   -1.00000000    4.90999985    1.53999996
   13.20805550  346.34899902    4.90999985    1.63000000
   13.20805550   -1.00000000    4.90999985    0.13000000
   13.20805550  116.24700165    4.90999985    1.28999996
   13.20833302   94.89610291    4.90999985    1.61000001
   13.20888901  182.42500305    4.90999985    1.98000002
   13.21583271  258.71301270    4.90999985    1.85000002
   13.21916580  313.79199219    4.90999985    1.86000001
   13.22222137  288.59201050    4.90999985    1.85000002
   13.22555542  389.01400757    4.90999985    1.83000004
   13.22861099  183.09700012    4.90999985    1.91999996
   13.23194408  250.77499390    4.90999985    1.96000004
   13.23611164  250.77499390    4.90999985    1.58000004
   13.24027824  311.85299683    4.90999985    1.60000002
   13.24333382  308.36099243    4.90999985    1.80999994
   13.24666691  290.74398804    4.90999985    1.88000000
   13.24916649  250.09399414    4.90999985    1.94000006
   13.25055599  258.42098999    4.90999985    1.94000006
   13.25361156  240.69999695    4.90999985    2.00000000
   13.25694466  203.46400452    4.90999985    2.03999996
   13.26000023  311.56298828    4.90999985    1.94000006
   13.26333332  246.40199280    4.90999985    1.89999998
   13.26666641  138.73599243    4.90999985    2.07999992
   13.26972198   -1.00000000    4.90999985    1.78999996
   13.27305508   -1.00000000    4.90999985    1.21000004
   13.27888870   -1.00000000    4.90999985    1.55999994
   13.28305531   -1.00000000    4.90999985    1.69000006
   13.28638935   -1.00000000    4.90999985    1.44000006
   13.28944492   -1.00000000    4.90999985    1.38000000
   13.29277802   86.14219666    4.90999985    1.48000002
   13.29611111  265.23498535    4.90999985    1.85000002
   13.29916668  131.47099304    4.90999985    2.17000008
   13.30249977  160.32400513    4.90999985    1.71000004
   13.30555534   -1.00000000    4.90999985    1.48000002
   13.30888939   -1.00000000    4.90999985    0.69000000
   13.31222248   -1.00000000    4.90999985    1.14999998
   13.31527805   -1.00000000    4.90999985    0.47999999
   13.32583332   -1.00000000    4.90999985    0.17000000
   13.32916641   94.35549927    4.90999985    0.19000000
   13.33222198  145.40499878    4.90999985    1.51999998
   13.33555508  153.01100159    4.90999985    2.03999996
   13.33888817  156.00599670    4.90999985    2.44000006
   13.34194374  155.97500610    4.90999985    2.46000004
   13.34527779  154.99200439    4.90999985    2.48000002
   13.34833336  151.28999329    4.90999985    2.48000002
   13.34916592  161.86700439    4.90999985    2.48000002
   13.35222244  155.14199829    4.90999985    2.46000004
   13.35527802  180.97000122    4.90999985    2.40000010
   13.35861111  170.77400208    4.90999985    2.25000000
   13.36472225  170.77400208    4.90999985    2.23000002
   13.36888885  194.02299500    4.90999985    2.25000000
   13.37194443  317.86700439    4.90999985    2.03999996
   13.37527752  325.74499512    4.90999985    1.96000004
   13.37833309  275.09600830    4.90999985    1.98000002
   13.38166714   -1.00000000    4.90999985    1.63000000
   13.38527775   -1.00000000    4.90999985    1.01999998
   13.38833332   -1.00000000    4.90999985    0.76999998
   13.39166641   -1.00000000    4.90999985    0.81999999
   13.39499950  124.50800323    4.90999985    0.94000000
   13.39805508  254.40800476    4.90999985    1.71000004
   13.40138817  173.49499512    4.90999985    1.83000004
   13.40749931  173.49499512    4.90999985    2.15000010
   13.41166592  157.40299988    4.90999985    2.32999992
   13.41472149  150.47200012    4.90999985    2.48000002
   13.41583252  142.73500061    4.90999985    2.51999998
   13.41861153  140.87800598    4.90999985    2.42000008
   13.42194462  155.88900757    4.90999985    2.32999992
   13.42500019  140.94000244    4.90999985    2.25000000
   13.42833328  164.67500305    4.90999985    2.21000004
   13.43138885  189.09500122    4.90999985    2.15000010
   13.43472195  214.83599854    4.90999985    2.07999992
   13.43805599  206.88400269    4.90999985    2.09999990
   13.44111156  187.23599243    4.90999985    2.07999992
   13.44444466  168.89700317    4.90999985    2.17000008
   13.45027733  168.89700317    4.67999983    2.32999992
   13.45444393  140.29200745    3.86999989    2.46000004
   13.45777798  141.58500671    2.91000009    2.46000004
   13.46083355  142.80000305    2.19000006    2.46000004
   13.46416664  142.67500305    1.61000001    2.46000004
   13.46749973  150.97700500    1.14999998    2.46000004
   13.47055531  145.61500549    1.51999998    2.48000002
   13.47388840  150.14500427    1.96000004    2.46000004
   13.47694397  156.09399414    3.00000000    2.48000002
   13.48027706  161.70700073    2.59999990    2.46000004
   13.48249912  149.99099731    2.00000000    2.48000002
   13.48388958  143.92399597    2.00000000    2.48000002
   13.48722267  150.26499939    1.13000000    2.46000004
   13.49305534  150.26499939    1.09000003    2.46000004
   13.49722290  152.72099304    1.11000001    2.46000004
   13.50055599  151.71800232    1.11000001    2.46000004
   13.50388908  150.47000122    1.11000001    2.46000004
   13.50694466  151.21600342    1.13000000    2.46000004
   13.51027775  152.30799866    1.13000000    2.46000004
   13.51333332  149.66999817    1.21000004    2.46000004
   13.51583290  152.64599609    1.21000004    2.44000006
   13.51722240  146.88900757    1.21000004    2.44000006
   13.52055550  150.14399719    1.33000004    2.44000006
   13.52361107  158.70100403    1.36000001    2.46000004
   13.52694416  153.74899292    1.44000006    2.46000004
   13.52999973  146.89100647    1.55999994    2.46000004
   13.53611183  146.89100647    1.88000000    2.46000004
   13.54027843  156.76100159    1.89999998    2.44000006
   13.54333401  152.59599304    2.01999998    2.42000008
   13.54666710  158.62600708    1.98000002    2.42000008
   13.54916668  156.63400269    1.94000006    2.36999989
   13.55027771  147.40899658    1.89999998    2.42000008
   13.55361176  143.34199524    1.86000001    2.42000008
   13.55666733  146.22900391    1.83000004    2.42000008
   13.56000042  153.81900024    2.59999990    2.48000002
   13.56333351  160.89500427    4.30999994    2.48000002
   13.56638908  155.54299927    4.90999985    2.48000002
   13.56972218  146.37300110    4.90999985    2.50000000
   13.57305527  149.03500366    4.26999998    2.48000002
   13.57888889  149.03500366    1.44000006    2.50000000
   13.58305550  145.42100525    0.81999999    2.50000000
   13.58611107  142.96200562    0.88000000    2.50000000
   13.58944416  150.35800171    1.26999998    2.51999998
   13.59277725  151.27999878    1.51999998    2.51999998
   13.59583282  154.63699341    1.73000002    2.50000000
   13.59916592  149.51199341    1.73000002    2.50000000
   13.60249996  146.96600342    3.11999989    2.50000000
   13.60555553  146.78999329    3.07999992    2.50000000
   13.60888958  150.73599243    1.78999996    2.50000000
   13.61194515  146.69000244    1.64999998    2.50000000
   13.61527824  155.10200500    4.42999983    2.48000002
   13.61583328  153.26499939    4.42999983    2.48000002
   13.62166691  153.26499939    3.82999992    2.46000004
   13.62583351  150.69799805    3.39000010    2.48000002
   13.62916660  145.43800354    4.90999985    2.46000004
   13.63222218  151.22599792    4.90999985    2.48000002
   13.63555527  168.52799988    4.90999985    2.50000000
   13.63888836   -1.00000000    4.90999985    2.32999992
   13.64194393   -1.00000000    4.90999985    0.89999998
   13.64527798   -1.00000000    4.90999985    0.70999998
   13.64833355  186.60000610    4.90999985    1.34000003
   13.64916611  183.12199402    4.90999985    1.80999994
   13.65194416   -1.00000000    4.90999985    1.60000002
   13.65527725   -1.00000000    4.90999985    0.76999998
   13.65833282   -1.00000000    4.90999985    0.56999999
   13.66444397   -1.00000000    4.90999985    1.03999996
   13.66861153   -1.00000000    4.90999985    0.70999998
   13.67194462   -1.00000000    4.90999985    0.38000000
   13.67527771   -1.00000000    4.90999985    0.36000001
   13.67833328   -1.00000000    4.90999985    0.28000000
   13.68166733   -1.00000000    4.90999985    0.41999999
   13.68249989  210.62699890    4.90999985    0.36000001
   13.68527794  110.44599915    4.90999985    1.66999996
   13.68861103  149.88999939    4.90999985    1.76999998
   13.69166660  154.98300171    4.90999985    2.51999998
   13.69499969  155.15100098    4.90999985    2.51999998
   13.69833374  148.37600708    4.90999985    2.50000000
   13.70138836  149.02999878    4.90999985    2.48000002
   13.70749950  149.02999878    1.83000004    2.48000002
   13.71166611  150.67100525    1.63000000    2.48000002
   13.71472168  147.23599243    1.63000000    2.46000004
   13.71583271  147.04100037    1.61000001    2.48000002
   13.71833324  149.82200623    1.60000002    2.46000004
   13.72166634  150.97500610    1.61000001    2.46000004
   13.72472191  150.37800598    1.66999996    2.46000004
   13.72805500  145.08599854    1.83000004    2.48000002
   13.73138809  148.76499939    2.25000000    2.46000004
   13.73444462  148.50700378    2.30999994    2.46000004
   13.73777771  147.73100281    2.28999996    2.40000010
   13.74083328  150.45399475    2.26999998    2.42000008
   13.74416733  150.13600159    2.21000004    2.46000004
   13.75027752  150.13600159    1.89999998    2.48000002
   13.75444412  148.34899902    1.75000000    2.46000004
   13.75749969  148.02000427    1.66999996    2.48000002
   13.76083374  149.15600586    1.46000004    2.50000000
   13.76416683  150.18800354    1.38000000    2.48000002
   13.76722240  145.70899963    1.34000003    2.50000000
   13.77055550  154.00599670    1.26999998    2.50000000
   13.77388859  150.36799622    1.23000002    2.48000002
   13.77694416  156.21400452    1.21000004    2.48000002
   13.78027725  150.92199707    1.21000004    2.50000000
   13.78277779  151.04699707    1.21000004    2.48000002
   13.78388977  150.15899658    1.21000004    2.48000002
   13.78722286  154.52299500    1.21000004    2.50000000
   13.79305553  154.52299500    1.21000004    2.48000002
   13.79722309  143.70399475    1.19000006    2.48000002
   13.80055618  149.53700256    1.13000000    2.50000000
   13.80361176  150.26600647    1.00000000    2.50000000
   13.80694485  153.12899780    1.01999998    2.50000000
   13.81027794  148.73599243    1.01999998    2.50000000
   13.81333351  149.28599548    1.01999998    2.50000000
   13.81583309  152.85600281    1.13000000    2.50000000
   13.81694412  146.29800415    1.13000000    2.50000000
   13.82027817  148.36199951    1.21000004    2.50000000
   13.82333374  147.30999756    1.58000004    2.50000000
   13.82666683  150.82400513    1.64999998    2.50000000
   13.82999992  149.53599548    2.36999989    2.48000002
   13.83583260  149.53599548    3.28999996    2.50000000
   13.84000015  154.43400574    4.03999996    2.48000002
   13.84333324  152.19299316    3.76999998    2.42000008
   13.84666634  162.49400330    3.91000009    2.48000002
   13.84916592  144.80900574    3.76999998    2.42000008
   13.85027790  147.44799805    3.95000005    2.46000004
   13.85361195  144.69299316    4.44999981    2.48000002
   13.85666752  151.48100281    3.21000004    2.48000002
   13.86000061  147.09899902    2.46000004    2.48000002
   13.86333370  146.44200134    1.44000006    2.42000008
   13.86638927  143.80200195    1.34000003    2.50000000
   13.86972237  143.03399658    1.25000000    2.50000000
   13.87277794  141.78100586    1.33000004    2.51999998
   13.87888908  141.78100586    1.41999996    2.50000000
   13.88277817  153.05799866    1.36000001    2.53999996
   13.88611126  148.62500000    1.33000004    2.50000000
   13.88944435  150.53900146    2.61999989    2.51999998
   13.89249992  175.85800171    3.45000005    2.50000000
   13.89583302  188.66700745    3.57999992    2.13000011
   13.89916611  147.98899841    4.90999985    2.30999994
   13.90222168  155.20300293    4.90999985    2.48000002
   13.90555477  150.17199707    4.90999985    2.46000004
   13.90861034  155.82400513    4.90999985    2.46000004
   13.91194439  142.83099365    4.90999985    2.53999996
   13.91527748  146.51100159    4.90999985    2.55999994
   13.91583252  149.26600647    4.90999985    2.55999994
   13.92166710  149.26600647    4.90999985    2.51999998
   13.92583370  212.74099731    4.90999985    2.21000004
   13.92888927  142.20700073    4.90999985    2.07999992
   13.93222237  194.79499817    4.90999985    2.42000008
   13.93555546  138.89700317    4.90999985    2.19000006
   13.93861103   -1.00000000    4.90999985    1.94000006
   13.94194412  169.27400208    4.90999985    1.69000006
   13.94527817  174.23800659    4.90999985    2.53999996
   13.94833374  320.47198486    4.90999985    2.30999994
   13.94916630  162.37800598    4.90999985    2.11999989
   13.95194435  123.10099792    4.90999985    1.69000006
   13.95527744  139.56799316    4.90999985    2.09999990
   13.95833302  144.19299316    4.90999985    2.66000009
   13.96444416  144.19299316    4.90999985    2.59999990
   13.96861076  150.60899353    4.90999985    2.51999998
   13.97194386  159.88800049    4.46999979    2.42000008
   13.97499943  153.42999268    4.38999987    2.39000010
   13.97833252  158.58500671    4.90999985    2.40000010
   13.98166656  154.40299988    4.90999985    2.40000010
   13.98249912  150.92999268    4.90999985    2.42000008
   13.98500061  172.65800476    4.90999985    2.46000004
   13.98833370  157.34399414    4.90999985    2.32999992
   13.99138927   -1.00000000    4.90999985    1.76999998
   13.99472237   -1.00000000    4.90999985    0.98000002
   13.99805546  116.40100098    4.90999985    1.09000003
   14.00111103   -1.00000000    4.90999985    1.78999996
   14.00722218   -1.00000000    4.90999985    1.60000002
   14.01138878   -1.00000000    4.90999985    2.30999994
   14.01472187   -1.00000000    4.90999985    0.94000000
   14.01833344   -1.00000000    4.90999985    0.86000001
   14.02138901  165.92900085    4.90999985    0.75000000
   14.02472210  147.86599731    4.90999985    2.11999989
   14.02805519  148.30000305    4.90999985    2.66000009
   14.03111076  156.04800415    4.90999985    2.61999989
   14.03444481  150.51899719    4.90999985    2.57999992
   14.03777790  152.42500305    4.90999985    2.51999998
   14.04083347  147.98800659    4.90999985    2.48000002
   14.04416752  146.49400330    4.90999985    2.48000002
   14.05027771  146.49400330    3.39000010    2.50000000
   14.05444431  142.59599304    3.01999998    2.50000000
   14.05749989  143.56500244    2.67000008    2.48000002
   14.06083393  151.66200256    2.40000010    2.51999998
   14.06388950  143.80299377    2.13000011    2.53999996
   14.06722260  143.39599609    2.03999996    2.51999998
   14.07055569  148.54299927    2.21000004    2.55999994
   14.07361126  143.35000610    3.72000003    2.53999996
   14.07694435  149.20500183    3.95000005    2.55999994
   14.08027744  150.14700317    1.91999996    2.55999994
   14.08277798  145.48300171    0.92000002    2.55999994
   14.08361053  140.69900513    0.92000002    2.55999994
   14.08694458  142.56100464    0.88000000    2.55999994
   14.09305477  142.56100464    0.81999999    2.53999996
   14.09722233  148.12100220    0.80000001    2.53999996
   14.10055637  140.08399963    0.81999999    2.53999996
   14.10361195  146.50700378    0.80000001    2.53999996
   14.10694504  136.93899536    0.80000001    2.55999994
   14.11000061  142.21699524    0.80000001    2.53999996
   14.11333370  141.36199951    0.80000001    2.53999996
   14.11611176  138.51199341    0.80000001    2.53999996
   14.11694431  143.30799866    0.80000001    2.53999996
   14.12027836  150.77799988    0.81999999    2.55999994
   14.12333393  145.82200623    0.83999997    2.53999996
   14.12666702  149.29200745    0.83999997    2.55999994
   14.13000011  142.51800537    0.86000001    2.55999994
   14.13583279  142.51800537    0.86000001    2.55999994
   14.14000034  146.47599792    0.86000001    2.55999994
   14.14333344  144.59899902    0.81999999    2.55999994
   14.14638901  148.66099548    0.81999999    2.53999996
   14.14944458  147.48300171    0.81999999    2.53999996
   14.14999962  146.98699951    0.81999999    2.53999996
   14.15333271  141.52900696    0.81999999    2.53999996
   14.15638828  146.54200745    0.83999997    2.55999994
   14.15972137  143.80700684    0.86000001    2.53999996
   14.16305542  142.25399780    0.86000001    2.55999994
   14.16611099  145.71699524    0.86000001    2.55999994
   14.16944504  142.69099426    0.86000001    2.55999994
   14.17277813  144.17900085    0.86000001    2.53999996
   14.17888927  144.17900085    0.83999997    2.55999994
   14.18277836  142.90800476    0.80000001    2.53999996
   14.18611145  144.37600708    0.80000001    2.55999994
   14.18944454  135.98500061    0.80000001    2.55999994
   14.19250011  145.53999329    0.80000001    2.55999994
   14.19583321  135.90100098    0.79000002    2.55999994
   14.19916630  137.97799683    0.79000002    2.55999994
   14.20222187  143.44999695    0.79000002    2.55999994
   14.20555496  140.20799255    0.79000002    2.55999994
   14.20861053  138.11599731    0.79000002    2.55999994
   14.21194458  140.43699646    0.79000002    2.55999994
   14.21527767  143.66600037    0.75000000    2.53999996
   14.21611118  139.74099731    0.75000000    2.55999994
   14.23666668  139.74099731    0.67000002    2.55999994
   14.24083328  141.73699951    0.69000000    2.57999992
   14.24416733  143.51600647    0.70999998    2.55999994
   14.24722290  144.56599426    0.69000000    2.55999994
   14.24944496  139.81300354    0.69000000    2.55999994
   14.25083351  148.87199402    0.69000000    2.55999994
   14.25416660  145.00399780    0.69000000    2.55999994
   14.25749969  141.08299255    0.70999998    2.55999994
   14.26055527  142.78599548    0.70999998    2.55999994
   14.26388931  140.54600525    0.67000002    2.55999994
   14.26722240  145.15400696    0.67000002    2.55999994
   14.27027798  140.04100037    0.67000002    2.55999994
   14.27361107  147.08399963    0.67000002    2.55999994
   14.27944374  147.08399963    0.69000000    2.55999994
   14.28361130  145.83900452    0.69000000    2.55999994
   14.28666687  146.16999817    0.70999998    2.55999994
   14.29000092  141.76600647    0.69000000    2.55999994
   14.29333401  136.05400085    0.69000000    2.55999994
   14.29638958  145.36999512    0.70999998    2.57999992
   14.29972267  140.68699646    0.76999998    2.55999994
   14.30277824  136.41200256    0.79000002    2.55999994
   14.30611134  141.31100464    0.79000002    2.55999994
   14.30944443  143.17900085    0.79000002    2.55999994
   14.31250000  143.77200317    0.79000002    2.55999994
   14.31583309  139.33000183    0.80000001    2.55999994
   14.31638908  138.62600708    0.80000001    2.55999994
   14.32222176  138.62600708    0.81999999    2.57999992
   14.32638836  143.08999634    0.80000001    2.55999994
   14.32972240  145.45399475    0.80000001    2.55999994
   14.33277798  144.01400757    0.75000000    2.55999994
   14.33611107  141.85099792    0.75000000    2.57999992
   14.33916664  143.44700623    0.75000000    2.57999992
   14.34249973  138.71299744    0.75000000    2.55999994
   14.34583282  141.33900452    0.75000000    2.55999994
   14.34888840  145.10000610    0.75000000    2.57999992
   14.34972191  137.08799744    0.76999998    2.57999992
   14.35277843  141.77600098    0.80000001    2.57999992
   14.35583401  136.56199646    0.88000000    2.57999992
   14.35916710  135.76300049    0.81999999    2.57999992
   14.36500072  135.76300049    0.75000000    2.57999992
   14.36916637  135.52000427    0.76999998    2.57999992
   14.37250042  135.52600098    0.76999998    2.57999992
   14.37555599  138.09300232    0.76999998    2.57999992
   14.37888908  137.59500122    0.79000002    2.55999994
   14.38222218  134.58799744    0.79000002    2.59999990
   14.38305569  139.97200012    0.80000001    2.57999992
   14.38583279  147.44500732    0.81999999    2.57999992
   14.38888836  136.98800659    0.81999999    2.57999992
   14.39222240  141.58299255    0.81999999    2.57999992
   14.39527798  140.37699890    0.80000001    2.57999992
   14.39861107  141.63099670    0.76999998    2.59999990
   14.40194416  145.66600037    0.75000000    2.59999990
   14.40805531  145.66600037    0.75000000    2.57999992
   14.41194439  142.98899841    0.76999998    2.57999992
   14.41527748  144.32699585    0.76999998    2.57999992
   14.41638851  142.06100464    0.76999998    2.55999994
   14.41916656  143.33200073    0.76999998    2.55999994
   14.42222214  143.40100098    0.76999998    2.57999992
   14.42555618  135.84500122    0.79000002    2.57999992
   14.42861176  144.50799561    0.79000002    2.57999992
   14.43194485  144.14999390    0.79000002    2.59999990
   14.43527794  133.46800232    0.79000002    2.55999994
   14.43833351  139.70500183    0.79000002    2.57999992
   14.44166660  133.77900696    0.80000001    2.59999990
   14.44499969  147.82899475    0.80000001    2.57999992
   14.45083332  147.82899475    0.80000001    2.59999990
   14.45499992  139.00500488    0.80000001    2.59999990
   14.45805550  142.23100281    0.81999999    2.57999992
   14.46138859  137.71499634    0.86000001    2.59999990
   14.46472168  136.27400208    0.89999998    2.57999992
   14.46777725  137.10499573    0.92000002    2.59999990
   14.47111034  138.83999634    0.92000002    2.57999992
   14.47416592  140.38400269    0.92000002    2.57999992
   14.47749996  140.05499268    0.92000002    2.57999992
   14.48083305  138.96800232    0.94000000    2.55999994
   14.48305511  143.76300049    0.94000000    2.57999992
   14.48444462  141.39599609    0.94000000    2.57999992
   14.48750019  134.91900635    0.95999998    2.57999992
   14.49361134  134.91900635    0.95999998    2.57999992
   14.49777794  136.21400452    0.94000000    2.57999992
   14.50111103  140.32800293    0.94000000    2.59999990
   14.50416660  137.21200562    0.94000000    2.59999990
   14.50749969  136.83599854    0.92000002    2.59999990
   14.51055527  140.81100464    0.92000002    2.57999992
   14.51388931  138.55499268    0.92000002    2.57999992
   14.51638889  139.33799744    0.92000002    2.57999992
   14.51777744  137.81900024    0.92000002    2.57999992
   14.52083302  138.82099915    0.92000002    2.57999992
   14.52416611  143.79100037    0.92000002    2.57999992
   14.52722168  137.92900085    0.92000002    2.57999992
   14.53055573  141.36000061    0.98000002    2.59999990
   14.53638935  141.36000061    0.98000002    2.57999992
   14.54055595  137.82699585    0.95999998    2.59999990
   14.54388905  135.14500427    0.95999998    2.57999992
   14.54694462  133.69500732    0.95999998    2.57999992
   14.54972267  139.82299805    0.95999998    2.59999990
   14.55083370  139.32699585    0.95999998    2.59999990
   14.55388927  134.29800415    0.98000002    2.59999990
   14.55722237  138.02400208    0.98000002    2.59999990
   14.56027794  138.14999390    0.95999998    2.59999990
   14.56361103  135.31100464    0.95999998    2.59999990
   14.56694412  141.68899536    0.95999998    2.59999990
   14.56999969  150.17199707    0.94000000    2.59999990
   14.57333374  132.47099304    0.89999998    2.59999990
   14.57944393  132.47099304    0.86000001    2.57999992
   14.58333302  136.91099548    0.86000001    2.59999990
   14.58666611  138.78700256    0.86000001    2.59999990
   14.59000015  141.16700745    0.86000001    2.59999990
   14.59305477  142.56199646    0.83999997    2.59999990
   14.59638882  139.40699768    0.81999999    2.59999990
   14.59972191  134.31100464    0.81999999    2.59999990
   14.60277843  139.12699890    0.83999997    2.59999990
   14.60611153  133.38800049    0.81999999    2.59999990
   14.60916710  137.30999756    0.80000001    2.59999990
   14.61250019  134.32800293    0.80000001    2.59999990
   14.61583328  134.87899780    0.79000002    2.59999990
   14.61638927  137.24200439    0.79000002    2.59999990
   14.62222195  137.24200439    0.76999998    2.59999990
   14.62638855  137.50100708    0.76999998    2.59999990
   14.62944412  132.27799988    0.75000000    2.59999990
   14.63277817  134.30000305    0.75000000    2.61999989
   14.63611126  144.88999939    0.75000000    2.57999992
   14.63916683  136.94500732    0.75000000    2.59999990
   14.64249992  134.58500671    0.75000000    2.59999990
   14.64555550  135.44000244    0.75000000    2.59999990
   14.64888859  131.45199585    0.75000000    2.59999990
   14.64972210  137.83500671    0.75000000    2.59999990
   14.65277767  136.02200317    0.75000000    2.59999990
   14.65583324  138.19599915    0.76999998    2.59999990
   14.65916634  136.62199402    0.76999998    2.59999990
   14.66499996  136.62199402    0.79000002    2.59999990
   14.66916656  128.25999451    0.81999999    2.59999990
   14.67250061  135.33399963    0.83999997    2.59999990
   14.67555618  140.28100586    0.83999997    2.59999990
   14.67888927  137.41200256    0.86000001    2.59999990
   14.68222237  136.45199585    0.88000000    2.59999990
   14.68305588  128.83299255    0.88000000    2.61999989
   14.68583298  136.59199524    0.89999998    2.61999989
   14.68888855  136.53700256    0.89999998    2.59999990
   14.69222260  134.03399658    0.92000002    2.59999990
   14.69555569  136.95599365    0.92000002    2.59999990
   14.69861126  137.73899841    0.94000000    2.59999990
   14.70194435  136.25599670    0.94000000    2.61999989
   14.70777798  136.25599670    0.89999998    2.59999990
   14.71222210  138.83799744    0.89999998    2.59999990
   14.71527767  134.61799622    0.89999998    2.59999990
   14.71638870  133.31500244    0.88000000    2.59999990
   14.71916580  135.72000122    0.88000000    2.59999990
   14.72222137  131.76800537    0.86000001    2.59999990
   14.72555542  138.72999573    0.83999997    2.59999990
   14.72888851  130.02299500    0.81999999    2.59999990
   14.73194408  136.25599670    0.81999999    2.59999990
   14.73527813  135.28799438    0.80000001    2.59999990
   14.73833370  135.51899719    0.79000002    2.59999990
   14.74166679  142.41000366    0.79000002    2.61999989
   14.74499989  138.01100159    0.76999998    2.61999989
   14.75055599  138.01100159    0.76999998    2.59999990
   14.75472260  133.38999939    0.76999998    2.59999990
   14.75805569  130.72300720    0.75000000    2.59999990
   14.76138878  136.65600586    0.75000000    2.61999989
   14.76444435  131.17199707    0.73000002    2.59999990
   14.76777744  137.01600647    0.73000002    2.61999989
   14.77083302  138.02999878    0.70999998    2.61999989
   14.77416611  136.03399658    0.70999998    2.61999989
   14.77750015  140.66600037    0.70999998    2.61999989
   14.78055573  128.75100708    0.70999998    2.61999989
   14.78305531  139.62199402    0.70999998    2.61999989
   14.78444481  129.78399658    0.70999998    2.61999989
   14.78750038  131.98500061    0.70999998    2.61999989
   14.79361153  131.98500061    0.70999998    2.61999989
   14.79777813  136.05200195    0.69000000    2.61999989
   14.80083370  134.05700684    0.70999998    2.61999989
   14.80416679  135.32800293    0.70999998    2.61999989
   14.80722237  140.19799805    0.70999998    2.61999989
   14.81055546  140.65199280    0.70999998    2.61999989
   14.81388950  136.38699341    0.70999998    2.59999990
   14.81638908  145.87199402    0.70999998    2.61999989
   14.81750011  138.20599365    0.70999998    2.59999990
   14.82055569  141.29499817    0.70999998    2.61999989
   14.82388878  142.61999512    0.69000000    2.61999989
   14.82722187  138.79400635    0.67000002    2.61999989
   14.83027744  143.65100098    0.69000000    2.59999990
   14.83638859  143.65100098    0.69000000    2.61999989
   14.84055519  141.81700134    0.67000002    2.61999989
   14.84388828  150.02999878    0.69000000    2.61999989
   14.84694386  137.58099365    0.70999998    2.61999989
   14.84972191  140.45899963    0.70999998    2.61999989
   14.85083389  141.93099976    0.70999998    2.61999989
   14.85416698  143.45300293    0.70999998    2.61999989
   14.85722256  137.11099243    0.73000002    2.64000010
   14.86055565  144.89599609    0.75000000    2.61999989
   14.86361122  142.25999451    0.75000000    2.61999989
   14.86694431  147.25300598    0.75000000    2.61999989
   14.87027836  142.15899658    0.75000000    2.61999989
   14.87333393  143.26400757    0.79000002    2.64000010
   14.87916660  143.26400757    0.79000002    2.61999989
   14.88333321  139.94799805    0.79000002    2.61999989
   14.88666630  135.54200745    0.76999998    2.59999990
   14.88972187  142.88900757    0.79000002    2.61999989
   14.89305496  145.37800598    0.76999998    2.61999989
   14.89638901  141.87800598    0.76999998    2.61999989
   14.89944458  141.35699463    0.75000000    2.61999989
   14.90277767  140.32600403    0.75000000    2.61999989
   14.90583324  139.72599792    0.73000002    2.61999989
   14.90916634  142.04899597    0.70999998    2.61999989
   14.91249943  141.91200256    0.70999998    2.61999989
   14.91555500  139.49099731    0.70999998    2.61999989
   14.91638851  143.55599976    0.69000000    2.61999989
   14.92194462  143.55599976    0.67000002    2.59999990
   14.92611122  145.49800110    0.67000002    2.64000010
   14.92944431  143.61999512    0.64999998    2.61999989
   14.93277836  138.03999329    0.64999998    2.61999989
   14.93583298  143.86300659    0.64999998    2.64000010
   14.93916702  143.04499817    0.64999998    2.64000010
   14.94250011  154.89399719    0.64999998    2.61999989
   14.94555569  143.34100342    0.63000000    2.61999989
   14.94888878  145.11000061    0.63000000    2.61999989
   14.94972229  151.92399597    0.64999998    2.61999989
   14.95249939  147.92300415    0.64999998    2.61999989
   14.95555496  145.78199768    0.64999998    2.61999989
   14.95888901  142.26300049    0.67000002    2.64000010
   14.96500015  142.26300049    0.67000002    2.61999989
   14.96916580  140.28999329    0.69000000    2.61999989
   14.97222137  146.11399841    0.70999998    2.64000010
   14.97555542  145.41900635    0.70999998    2.64000010
   14.97861099  152.51100159    0.70999998    2.61999989
   14.98194408  148.49000549    0.73000002    2.59999990
   14.98305511  143.56900024    0.73000002    2.61999989
   14.98555565  149.33299255    0.69000000    2.61999989
   14.98861122  145.45799255    0.69000000    2.61999989
   14.99194431  150.67500305    0.69000000    2.64000010
   14.99527836  135.64700317    0.67000002    2.61999989
   14.99833393  133.57400513    0.67000002    2.61999989
   15.00166702  139.12899780    0.64999998    2.61999989
   15.00777817  139.12899780    0.67000002    2.61999989
   15.01194477  136.39900208    0.67000002    2.64000010
   15.01500034  144.55700684    0.67000002    2.64000010
   15.01638889  142.16099548    0.67000002    2.61999989
   15.01888847  144.58599854    0.67000002    2.61999989
   15.02194405  142.31399536    0.64999998    2.64000010
   15.02527714  142.89900208    0.64999998    2.64000010
   15.02861118  143.64900208    0.64999998    2.61999989
   15.03166676  138.72300720    0.64999998    2.64000010
   15.03500080  142.05900574    0.67000002    2.61999989
   15.03833389  137.07400513    0.67000002    2.64000010
   15.04138947  130.50399780    0.67000002    2.64000010
   15.04472256  135.61099243    0.67000002    2.64000010
   15.05055618  135.61099243    0.67000002    2.64000010
   15.05472279  147.08900452    0.64999998    2.64000010
   15.05805588  134.49299622    0.67000002    2.64000010
   15.06111145  133.53599548    0.64999998    2.61999989
   15.06444454  134.69599915    0.67000002    2.61999989
   15.06777763  138.20700073    0.64999998    2.61999989
   15.07083321  133.96499634    0.64999998    2.64000010
   15.07416630  128.48399353    0.64999998    2.64000010
   15.07722187  137.54600525    0.64999998    2.61999989
   15.08055592  135.87699890    0.63000000    2.64000010
   15.08305550  132.07200623    0.64999998    2.64000010
   15.08416653  136.13400269    0.64999998    2.64000010
   15.08722210  140.55299377    0.64999998    2.64000010
   15.09333324  140.55299377    0.64999998    2.64000010
   15.09749985  136.15600586    0.64999998    2.64000010
   15.10083389  143.70799255    0.67000002    2.61999989
   15.10416698  143.80900574    0.67000002    2.64000010
   15.10722256  136.68499756    0.67000002    2.64000010
   15.11055565  140.69000244    0.67000002    2.61999989
   15.11388969  144.04400635    0.67000002    2.64000010
   15.11638927  138.50900269    0.69000000    2.64000010
   15.11750031  145.25399780    0.69000000    2.64000010
   15.12083340  136.44599915    0.69000000    2.64000010
   15.12388897  135.86900330    0.69000000    2.64000010
   15.12722206  137.15299988    0.70999998    2.64000010
   15.13027763  132.29400635    0.70999998    2.64000010
   15.13638878  132.29400635    0.73000002    2.64000010
   15.14055538  137.57800293    0.70999998    2.64000010
   15.14361095  141.72599792    0.73000002    2.64000010
   15.14694405  138.06399536    0.73000002    2.64000010
   15.14972210  126.43199921    0.79000002    2.64000010
   15.15055561  132.34599304    0.79000002    2.64000010
   15.15388870  135.82699585    0.76999998    2.61999989
   15.15694427  138.94000244    0.76999998    2.64000010
   15.16027737  139.34500122    0.76999998    2.64000010
   15.16333294  136.03599548    0.73000002    2.61999989
   15.16666698  140.37600708    0.73000002    2.64000010
   15.17000008  139.42300415    0.75000000    2.64000010
   15.17305565  136.62100220    0.75000000    2.64000010
   15.17916679  136.62100220    0.73000002    2.61999989
   15.18333340  128.18099976    0.69000000    2.64000010
   15.18638897  126.88600159    0.67000002    2.64000010
   15.18972206  131.71499634    0.69000000    2.64000010
   15.19305515  127.47000122    0.67000002    2.64000010
   15.19611073  130.88699341    0.67000002    2.64000010
   15.19944477  132.34599304    0.64999998    2.64000010
   15.20277786  138.57299805    0.64999998    2.66000009
   15.20583344  132.91600037    0.63000000    2.66000009
   15.20916653  136.50300598    0.61000001    2.64000010
   15.21222210  131.70100403    0.61000001    2.64000010
   15.21555519  132.56900024    0.58999997    2.64000010
   15.21638870  133.19400024    0.58999997    2.64000010
   15.22194386  133.19400024    0.61000001    2.66000009
   15.22611046  135.61199951    0.61000001    2.64000010
   15.22944355  134.75000000    0.58999997    2.66000009
   15.23249912  131.94000244    0.56999999    2.64000010
   15.25000000  132.89500427    0.61000001    2.64000010
   15.25249958  130.95700073    0.63000000    2.66000009
   15.25583363  135.22999573    0.61000001    2.64000010
   15.25888920  132.55999756    0.63000000    2.66000009
   15.26500034  132.55999756    0.64999998    2.64000010
   15.26916599  131.16000366    0.67000002    2.66000009
   15.27250004  134.63400269    0.67000002    2.66000009
   15.27555561  130.42399597    0.67000002    2.64000010
   15.27888870  133.05499268    0.67000002    2.66000009
   15.28194427  126.56199646    0.69000000    2.64000010
   15.28333378  132.07499695    0.69000000    2.64000010
   15.28583336  132.06300354    0.67000002    2.66000009
   15.28916740  136.21699524    0.67000002    2.66000009
   15.29222298  136.61099243    0.69000000    2.66000009
   15.29555607  129.40100098    0.69000000    2.66000009
   15.29888916  126.16000366    0.70999998    2.64000010
   15.30194473  137.41799927    0.67000002    2.66000009
   15.30777836  137.41799927    0.69000000    2.66000009
   15.31194496  131.76300049    0.67000002    2.64000010
   15.31527805  133.91900635    0.67000002    2.64000010
   15.31666660  132.64399719    0.67000002    2.64000010
   15.31888866  132.80400085    0.67000002    2.66000009
   15.32194424  133.33200073    0.67000002    2.64000010
   15.32527733  127.67099762    0.67000002    2.66000009
   15.32861137  127.75499725    0.64999998    2.64000010
   15.33166695  133.61099243    0.64999998    2.66000009
   15.33500004  132.65499878    0.64999998    2.66000009
   15.33805561  132.86599731    0.64999998    2.66000009
   15.34138870  132.23399353    0.64999998    2.66000009
   15.34472179  128.52299500    0.64999998    2.66000009
   15.35055637  128.52299500    0.67000002    2.66000009
   15.35472298  128.00700378    0.67000002    2.66000009
   15.45777798   -1.00000000   -1.00000000   -1.00000000
   15.55805588   -1.00000000   -1.00000000   -1.00000000
   15.65638828   -1.00000000   -1.00000000   -1.00000000
   15.69472218  128.74499512    0.56999999    2.67000008
   15.69805527  130.83999634    0.58999997    2.67000008
   15.70111084  129.22500610    0.56999999    2.66000009
   15.70444393  124.48999786    0.55000001    2.66000009
   15.70749950  132.37399292    0.52999997    2.66000009
   15.71083355  124.97799683    0.52999997    2.66000009
   15.71500015  124.97799683    0.51999998    2.67000008
   15.71916580  127.19599915    0.51999998    2.67000008
   15.72222137  127.32700348    0.51999998    2.67000008
   15.72555542  132.05599976    0.51999998    2.67000008
   15.72777748  128.58000183    0.51999998    2.67000008
   15.72916603  124.10099792    0.51999998    2.67000008
   15.73249912  127.05599976    0.51999998    2.66000009
   15.73555565  126.93199921    0.51999998    2.66000009
   15.73888874  128.68099976    0.51999998    2.67000008
   15.74222279  130.96600342    0.51999998    2.67000008
   15.74527836  126.24199677    0.51999998    2.67000008
   15.74861145  122.15000153    0.51999998    2.67000008
   15.75166702  131.81399536    0.52999997    2.67000008
   15.75777817  131.81399536    0.56999999    2.66000009
   15.76194477  123.49099731    0.56999999    2.67000008
   15.76527786  129.77900696    0.63000000    2.66000009
   15.76833344  122.68499756    0.61000001    2.66000009
   15.77166653  117.33899689    0.63000000    2.66000009
   15.77499962  128.23199463    0.61000001    2.66000009
   15.77805519  120.60399628    0.61000001    2.66000009
   15.78138828  122.33799744    0.58999997    2.67000008
   15.78444481  121.76499939    0.63000000    2.67000008
   15.78777790  122.64900208    0.61000001    2.66000009
   15.79111195  131.81100464    0.61000001    2.66000009
   15.79416752  116.19100189    0.61000001    2.66000009
   15.79472256  120.12200165    0.63000000    2.67000008
   15.80083370  120.12200165    0.63000000    2.66000009
   15.80472279  128.33399963    0.63000000    2.66000009
   15.80805588  126.98999786    0.61000001    2.67000008
   15.81138897  123.84300232    0.61000001    2.66000009
   15.81444454  116.30599976    0.61000001    2.66000009
   15.81777763  111.46499634    0.61000001    2.67000008
   15.82083321  125.04799652    0.56999999    2.67000008
   15.82416630  122.74500275    0.56999999    2.67000008
   15.82750034  126.11499786    0.55000001    2.67000008
   15.82805538  127.30100250    0.55000001    2.67000008
   15.83111095  126.90799713    0.55000001    2.67000008
   15.83444405  128.94500732    0.52999997    2.67000008
   15.83749962  129.24600220    0.52999997    2.67000008
   15.84361076  129.24600220    0.50000000    2.66000009
   15.84777737  126.07700348    0.50000000    2.67000008
   15.85083389  125.50299835    0.50000000    2.67000008
   15.85416698  118.08999634    0.50000000    2.67000008
   15.85722256  123.65599823    0.50000000    2.67000008
   15.86055565  127.54299927    0.47999999    2.67000008
   15.86138916  123.47799683    0.50000000    2.67000008
   15.86416721  125.26300049    0.50000000    2.67000008
   15.86750031  117.07399750    0.50000000    2.69000006
   15.87055588  122.34700012    0.50000000    2.66000009
   15.87388897  118.89800262    0.50000000    2.66000009
   15.87694454  121.78700256    0.50000000    2.67000008
   15.88027763  124.97499847    0.52999997    2.67000008
   15.88638878  124.97499847    0.52999997    2.67000008
   15.89055538  129.83700562    0.51999998    2.67000008
   15.89361095  128.86399841    0.50000000    2.67000008
   15.89472198  126.56900024    0.50000000    2.67000008
   15.89750004  121.60099792    0.52999997    2.67000008
   15.90083313  128.84599304    0.55000001    2.67000008
   15.90388870  124.79599762    0.63000000    2.67000008
   15.90722179  132.22999573    0.63000000    2.67000008
   15.91027737  124.36799622    0.64999998    2.67000008
   15.91361046  130.38499451    0.67000002    2.67000008
   15.91694450  124.76100159    0.70999998    2.67000008
   15.92000008  129.67300415    0.70999998    2.67000008
   15.92333412  134.83999634    0.70999998    2.67000008
   15.92916679  134.83999634    0.69000000    2.67000008
   15.93333340  125.09899902    0.70999998    2.67000008
   15.93666649  127.59999847    0.67000002    2.66000009
   15.93972206  124.83000183    0.67000002    2.67000008
   15.94305515  121.59600067    0.64999998    2.67000008
   15.94638920  120.73000336    0.64999998    2.67000008
   15.94944477  121.82499695    0.61000001    2.66000009
   15.95277786  127.65899658    0.61000001    2.67000008
   15.95611095  124.32499695    0.61000001    2.67000008
   15.95916653  129.09199524    0.61000001    2.67000008
   15.96138859  125.30500031    0.63000000    2.67000008
   15.96277714  126.93099976    0.63000000    2.67000008
   15.96611118  127.35299683    0.63000000    2.67000008
   15.97194386  127.35299683    0.63000000    2.67000008
   15.97611046  125.02799988    0.63000000    2.66000009
   15.97944355  124.17800140    0.64999998    2.67000008
   15.98277760  127.83300018    0.64999998    2.67000008
   15.98583317  122.94699860    0.63000000    2.67000008
   15.98916721  121.12799835    0.63000000    2.66000009
   15.99222279  121.96900177    0.63000000    2.67000008
   15.99472237  127.27300262    0.63000000    2.66000009
   15.99611092  125.58200073    0.63000000    2.67000008
   15.99944496  130.39300537    0.58999997    2.67000008
   16.00250053  125.45600128    0.58999997    2.67000008
   16.00583267  124.77999878    0.56999999    2.67000008
   16.00916672  127.20800018    0.55000001    2.67000008
   16.01499939  127.20800018    0.52999997    2.67000008
   16.01916695  125.43699646    0.51999998    2.67000008
   16.02222252  121.28900146    0.51999998    2.67000008
   16.02555466  128.53199768    0.50000000    2.67000008
   16.02805519  126.32900238    0.50000000    2.67000008
   16.02916718  124.66100311    0.50000000    2.67000008
   16.03249931  127.41799927    0.50000000    2.67000008
   16.03555489  124.83100128    0.50000000    2.67000008
   16.03888893  122.98799896    0.50000000    2.66000009
   16.04194450  126.43800354    0.55000001    2.67000008
   16.04527664  124.99900055    0.55000001    2.67000008
   16.04861069  121.47799683    0.58999997    2.67000008
   16.05166626  126.87300110    0.58999997    2.67000008
   16.05777740  126.87300110    0.58999997    2.67000008
   16.06194305  120.06700134    0.56999999    2.67000008
   16.06499863  120.99400330    0.55000001    2.64000010
   16.06833458  122.05000305    0.58999997    2.67000008
   16.07166672  123.65799713    0.56999999    2.67000008
   16.07472229  123.58699799    0.58999997    2.67000008
   16.07805634  121.67600250    0.56999999    2.67000008
   16.08139038  122.22799683    0.58999997    2.67000008
   16.08444595  121.77799988    0.58999997    2.67000008
   16.08777809  117.37000275    0.63000000    2.67000008
   16.09111214  123.78199768    0.63000000    2.67000008
   16.09416771  124.67700195    0.64999998    2.67000008
   16.09472275  120.41000366    0.64999998    2.67000008
   16.10055542  120.41000366    0.63000000    2.67000008
   16.10472298  117.26799774    0.61000001    2.69000006
   16.10805511  124.26699829    0.56999999    2.67000008
   16.11111069  119.32599640    0.55000001    2.66000009
   16.11444473  121.73400116    0.56999999    2.67000008
   16.11777878  122.07199860    0.56999999    2.67000008
   16.12083435  118.43599701    0.56999999    2.67000008
   16.12416649  122.11000061    0.56999999    2.69000006
   16.12750053  123.51799774    0.55000001    2.67000008
   16.12805557  114.29399872    0.55000001    2.67000008
   16.13111115  121.80999756    0.56999999    2.67000008
   16.13444519  118.49400330    0.58999997    2.67000008
   16.13750076  125.02500153    0.56999999    2.69000006
   16.14333344  125.02500153    0.58999997    2.67000008
   16.14749908  121.10199738    0.58999997    2.67000008
   16.15083313  127.40799713    0.61000001    2.66000009
   16.15416718  123.12000275    0.61000001    2.67000008
   16.15722275  128.38900757    0.63000000    2.67000008
   16.16055489  117.84999847    0.61000001    2.67000008
   16.16138840  124.83399963    0.61000001    2.67000008
   16.16416550  121.74700165    0.61000001    2.67000008
   16.16749954  119.79699707    0.63000000    2.67000008
   16.17055511  120.41000366    0.58999997    2.67000008
   16.17388916  122.21900177    0.58999997    2.67000008
   16.17722130  122.53099823    0.56999999    2.67000008
   16.18027687  123.17199707    0.55000001    2.67000008
   16.18638802  123.17199707    0.55000001    2.66000009
   16.19027710  121.35399628    0.58999997    2.67000008
   16.19361115  125.51899719    0.56999999    2.67000008
   16.19472122  124.90499878    0.56999999    2.67000008
   16.19722176  126.41699982    0.56999999    2.67000008
   16.20055580  127.65200043    0.56999999    2.67000008
   16.20361137  125.06199646    0.56999999    2.66000009
   16.20694542  127.62899780    0.56999999    2.67000008
   16.21027946  131.22399902    0.56999999    2.67000008
   16.21333504  128.60200500    0.55000001    2.67000008
   16.21666718  121.38300323    0.56999999    2.67000008
   16.21972275  125.09600067    0.56999999    2.67000008
   16.22305679  114.64600372    0.56999999    2.66000009
   16.22916794  114.64600372    0.56999999    2.67000008
   16.23333359  123.53299713    0.58999997    2.67000008
   16.23638916  125.05500031    0.56999999    2.67000008
   16.23972321  122.97200012    0.56999999    2.67000008
   16.24305534  123.77500153    0.56999999    2.67000008
   16.24611092  126.56700134    0.55000001    2.67000008
   16.24944496  116.93499756    0.55000001    2.66000009
   16.25250053  123.84999847    0.55000001    2.67000008
   16.25583267  122.32299805    0.55000001    2.67000008
   16.25916672  125.12599945    0.52999997    2.69000006
   16.26138878  123.09300232    0.52999997    2.66000009
   16.26277733  130.29800415    0.52999997    2.67000008
   16.26611137  120.16899872    0.52999997    2.67000008
   16.27194405  120.16899872    0.52999997    2.69000006
   16.27611160  127.59700012    0.51999998    2.67000008
   16.27944374  126.71299744    0.52999997    2.67000008
   16.28249931  128.79899597    0.52999997    2.67000008
   16.28583336  124.05200195    0.55000001    2.67000008
   16.28916550  125.51000214    0.52999997    2.67000008
   16.29222107  125.78800201    0.55000001    2.69000006
   16.29500008  129.96400452    0.52999997    2.67000008
   16.29583359  123.76499939    0.52999997    2.67000008
   16.29916573  130.56100464    0.52999997    2.67000008
   16.30222130  117.02200317    0.52999997    2.67000008
   16.30555534  118.66400146    0.52999997    2.67000008
   16.30888748  126.98000336    0.55000001    2.67000008
   16.31472206  126.98000336    0.55000001    2.67000008
   16.31888962  129.58200073    0.55000001    2.67000008
   16.32222366  123.76300049    0.55000001    2.67000008
   16.32527924  126.45200348    0.56999999    2.67000008
   16.32833481  121.70300293    0.56999999    2.67000008
   16.32888985  119.62699890    0.56999999    2.67000008
   16.33222389  124.64199829    0.61000001    2.67000008
   16.33527756  120.81800079    0.61000001    2.66000009
   16.33861160  116.08300018    0.61000001    2.67000008
   16.34194565  120.73200226    0.58999997    2.67000008
   16.34500122  129.61599731    0.56999999    2.69000006
   16.34833336  127.85099792    0.56999999    2.67000008
   16.35138893  120.29199982    0.56999999    2.69000006
   16.35777855  120.29199982    0.56999999    2.67000008
   16.36166763  124.44400024    0.56999999    2.66000009
   16.36499977  119.67600250    0.56999999    2.69000006
   16.36833382  125.73699951    0.56999999    2.69000006
   16.37138939  126.87799835    0.56999999    2.66000009
   16.37472153  122.70600128    0.56999999    2.67000008
   16.37805557  124.88800049    0.55000001    2.67000008
   16.38111115  129.99699402    0.55000001    2.67000008
   16.38444519  125.30300140    0.55000001    2.67000008
   16.38750076  124.00399780    0.55000001    2.67000008
   16.39083290  125.32399750    0.55000001    2.67000008
   16.39416695  123.97000122    0.52999997    2.67000008
   16.39500046  132.40800476    0.52999997    2.67000008
   16.40055466  132.40800476    0.52999997    2.66000009
   16.40472221  127.21199799    0.52999997    2.67000008
   16.40805435  125.03299713    0.52999997    2.67000008
   16.41138840  121.53299713    0.52999997    2.67000008
   16.41444397  132.73300171    0.52999997    2.67000008
   16.41777802  128.61300659    0.55000001    2.69000006
   16.42083359  131.82800293    0.55000001    2.67000008
   16.42416573  133.55200195    0.52999997    2.67000008
   16.42749977  129.20100403    0.52999997    2.67000008
   16.42833328  128.05499268    0.52999997    2.69000006
   16.43111038  125.62200165    0.52999997    2.67000008
   16.43444443  128.69200134    0.55000001    2.67000008
   16.43750000  128.50399780    0.55000001    2.67000008
   16.44333267  128.50399780    0.55000001    2.67000008
   16.44749832  121.32099915    0.56999999    2.69000006
   16.45083427  125.81099701    0.63000000    2.67000008
   16.45388985  119.45600128    0.63000000    2.67000008
   16.45722389  122.49199677    0.63000000    2.67000008
   16.46055603  127.90000153    0.63000000    2.67000008
   16.46166801  128.85299683    0.63000000    2.67000008
   16.46389008  133.73599243    0.69000000    2.67000008
   16.46722221  129.70599365    0.69000000    2.67000008
   16.47027779  134.71099854    0.69000000    2.69000006
   16.47361183  133.71299744    0.69000000    2.67000008
   16.47694588  131.89799500    0.64999998    2.67000008
   16.48000145  129.67700195    0.64999998    2.69000006
   16.48611069  129.67700195    0.63000000    2.67000008
   16.49027824  127.97599792    0.63000000    2.67000008
   16.49361229  125.57700348    0.63000000    2.67000008
   16.49500084  127.79799652    0.64999998    2.67000008
   16.49722290  132.11700439    0.63000000    2.67000008
   16.50055504  133.49800110    0.61000001    2.67000008
   16.50361061  132.06700134    0.58999997    2.67000008
   16.50694466  131.21400452    0.61000001    2.67000008
   16.51027870  130.17700195    0.58999997    2.67000008
   16.51333427  128.24200439    0.61000001    2.67000008
   16.51666641  126.17500305    0.58999997    2.67000008
   16.52000046  127.56700134    0.63000000    2.67000008
   16.52305603  125.04399872    0.61000001    2.67000008
   16.52916718  125.04399872    0.61000001    2.67000008
   16.53305435  130.59599304    0.61000001    2.67000008
   16.53638840  130.41099548    0.64999998    2.67000008
   16.53972244  134.95700073    0.67000002    2.67000008
   16.54277802  133.88400269    0.70999998    2.67000008
   16.54611015  126.28099823    0.70999998    2.67000008
   16.54944420  131.87100220    0.70999998    2.67000008
   16.55249977  127.13899994    0.70999998    2.67000008
   16.55583191  118.84500122    0.67000002    2.67000008
   16.55888748  122.02100372    0.64999998    2.67000008
   16.56166649  132.64300537    0.58999997    2.67000008
   16.56250000  127.90699768    0.58999997    2.67000008
   16.56583214  133.09899902    0.56999999    2.69000006
   16.57194519  133.09899902    0.55000001    2.69000006
   16.57611275  135.73599243    0.55000001    2.67000008
   16.57916832  131.20799255    0.52999997    2.66000009
   16.58250046  128.92700195    0.52999997    2.67000008
   16.58583450  129.59899902    0.51999998    2.67000008
   16.58916664  133.18800354    0.51999998    2.67000008
   16.59222221  122.15899658    0.55000001    2.67000008
   16.59500122  129.87300110    0.55000001    2.67000008
   16.59583473  131.06199646    0.55000001    2.67000008
   16.59916687  129.37899780    0.58999997    2.69000006
   16.60250092  127.01799774    0.58999997    2.67000008
   16.60555649  127.96099854    0.63000000    2.67000008
   16.60888863  126.13300323    0.64999998    2.67000008
   16.61472321  126.13300323    0.70999998    2.66000009
   16.61888885  126.74099731    0.73000002    2.67000008
   16.62222290  131.92599487    0.70999998    2.67000008
   16.62527847  131.41299438    0.76999998    2.69000006
   16.62833405  121.17800140    0.79000002    2.67000008
   16.62888908  134.44799805    0.80000001    2.67000008
   16.63222313  132.13699341    0.76999998    2.67000008
   16.63555527  129.28500366    0.76999998    2.66000009
   16.63861084  129.67799377    0.75000000    2.67000008
   16.64194489  133.79800415    0.76999998    2.67000008
   16.64500046  128.75399780    0.75000000    2.67000008
   16.64833260  128.77299500    0.75000000    2.67000008
   16.65166664  125.42199707    0.69000000    2.66000009
   16.65777779  125.42199707    0.67000002    2.69000006
   16.66194344  120.70200348    0.64999998    2.67000008
   16.66499901  126.29699707    0.58999997    2.66000009
   16.66833305  128.88499451    0.51999998    2.69000006
   16.67166519  127.67299652    0.51999998    2.67000008
   16.67472076  132.11099243    0.52999997    2.67000008
   16.67805481  132.66600037    0.51999998    2.67000008
   16.68138885  127.02899933    0.51999998    2.67000008
   16.68444443  129.17300415    0.51999998    2.69000006
   16.68777657  130.21000671    0.51999998    2.67000008
   16.69083214  129.79200745    0.51999998    2.69000006
   16.69416618  128.23500061    0.51999998    2.67000008
   16.69499969  125.53199768    0.51999998    2.67000008
   16.71555710  125.53199768    0.55000001    2.69000006
   16.71972275  131.04299927    0.52999997    2.67000008
   16.72305679  132.53999329    0.52999997    2.67000008
   16.72611237  131.01699829    0.55000001    2.67000008
   16.72833443  132.56700134    0.55000001    2.67000008
   16.72972298  136.07899475    0.52999997    2.67000008
   16.73305511  126.65899658    0.55000001    2.67000008
   16.73638916  124.42199707    0.52999997    2.67000008
   16.73944473  129.28100586    0.55000001    2.67000008
   16.74277878  127.94699860    0.52999997    2.67000008
   16.74583435  137.36199951    0.52999997    2.67000008
   16.74916649  131.15299988    0.55000001    2.67000008
   16.75250053  140.27600098    0.55000001    2.67000008
   16.75833321  140.27600098    0.55000001    2.69000006
   16.76250076  124.79599762    0.55000001    2.67000008
   16.76583290  128.99000549    0.56999999    2.67000008
   16.76888847  128.01699829    0.55000001    2.67000008
   16.77222252  121.07800293    0.52999997    2.66000009
   16.77555466  129.83599854    0.52999997    2.67000008
   16.77861023  125.99099731    0.51999998    2.67000008
   16.78194427  136.73899841    0.51999998    2.67000008
   16.78527641  140.53599548    0.50000000    2.67000008
   16.78833199  131.53199768    0.50000000    2.67000008
   16.79166603  126.15599823    0.50000000    2.67000008
   16.79472160  127.54199982    0.47999999    2.67000008
   16.79527664  132.52999878    0.47999999    2.67000008
   16.80111122  132.52999878    0.47999999    2.69000006
   16.80527687  135.00100708    0.47999999    2.67000008
   16.80861092  132.79100037    0.50000000    2.69000006
   16.81194305  136.30599976    0.50000000    2.67000008
   16.81499863  137.77699280    0.50000000    2.69000006
   16.81833458  135.53199768    0.50000000    2.69000006
   16.82166672  140.95199585    0.51999998    2.67000008
   16.82472229  134.95700073    0.50000000    2.69000006
   16.82805634  134.31599426    0.50000000    2.67000008
   16.82888985  144.94500732    0.51999998    2.67000008
   16.83194542  128.22300720    0.52999997    2.69000006
   16.83500099  135.26499939    0.52999997    2.67000008
   16.83833313  137.07400513    0.52999997    2.69000006
   16.84416771  137.07400513    0.55000001    2.69000006
   16.84805679  132.47999573    0.61000001    2.67000008
   16.85138893  122.33100128    0.63000000    2.67000008
   16.85472298  145.41600037    0.64999998    2.67000008
   16.85777855  135.23800659    0.64999998    2.67000008
   16.86111069  131.85299683    0.64999998    2.67000008
   16.86194420  133.19200134    0.64999998    2.67000008
   16.86472321  129.16900635    0.67000002    2.67000008
   16.86805534  127.54000092    0.67000002    2.67000008
   16.87111092  129.37600708    0.67000002    2.67000008
   16.87444496  137.26199341    0.67000002    2.67000008
   16.87777710  133.51800537    0.69000000    2.67000008
   16.88083267  135.48399353    0.70999998    2.67000008
   16.88694382  135.48399353    0.70999998    2.67000008
   16.89111137  134.30700684    0.70999998    2.67000008
   16.89416695  142.89500427    0.70999998    2.67000008
   16.89527702  136.15199280    0.70999998    2.67000008
   16.89777756  131.37699890    0.70999998    2.67000008
   16.90111160  133.52000427    0.70999998    2.67000008
   16.90416718  131.47399902    0.70999998    2.67000008
   16.90749931  132.24899292    0.70999998    2.67000008
   16.91083336  127.39199829    0.69000000    2.67000008
   16.91388893  135.87899780    0.70999998    2.67000008
   16.91722107  134.83200073    0.69000000    2.67000008
   16.92027664  145.51800537    0.69000000    2.66000009
   16.92361069  141.99299622    0.69000000    2.67000008
   16.92972183  141.99299622    0.69000000    2.67000008
   16.93388748  134.20500183    0.69000000    2.67000008
   16.93722153  138.09399414    0.69000000    2.67000008
   16.94027710  137.26300049    0.69000000    2.69000006
   16.94361115  134.76199341    0.69000000    2.67000008
   16.94666672  130.74499512    0.69000000    2.67000008
   16.95000076  137.50100708    0.70999998    2.67000008
   16.95333481  137.02499390    0.70999998    2.67000008
   16.95639038  131.30799866    0.70999998    2.67000008
   16.95972252  130.54400635    0.69000000    2.67000008
   16.96194458  128.62500000    0.70999998    2.67000008
   16.96333504  131.41799927    0.69000000    2.67000008
   16.96666718  137.84700012    0.70999998    2.67000008
   16.97249985  137.84700012    0.70999998    2.67000008
   16.97666740  128.60299683    0.70999998    2.67000008
   16.98000145  130.21800232    0.70999998    2.67000008
   16.98305511  124.45500183    0.69000000    2.67000008
   16.98638916  130.11900330    0.70999998    2.66000009
   16.98972321  132.52499390    0.73000002    2.67000008
   16.99277878  135.44799805    0.73000002    2.67000008
   16.99527740  134.00000000    0.73000002    2.66000009
   16.99638939  129.97200012    0.73000002    2.67000008
   16.99972153  133.77900696    0.73000002    2.67000008
   17.00277710  126.95400238    0.73000002    2.67000008
   17.00611115  126.94300079    0.73000002    2.67000008
   17.00944519  124.14199829    0.73000002    2.67000008
   17.01555634  124.14199829    0.75000000    2.67000008
   17.01944351  128.32499695    0.73000002    2.67000008
   17.02277756  123.52700043    0.73000002    2.67000008
   17.02611160  127.74900055    0.73000002    2.67000008
   17.02861023  126.18299866    0.73000002    2.67000008
   17.02972221  131.21600342    0.70999998    2.67000008
   17.03305435  127.66899872    0.70999998    2.67000008
   17.03610992  123.27100372    0.70999998    2.67000008
   17.03944397  126.24700165    0.70999998    2.67000008
   17.04277802  125.55200195    0.69000000    2.67000008
   17.04583359  141.36000061    0.69000000    2.67000008
   17.04916573  130.36599731    0.67000002    2.67000008
   17.05249977  129.31799316    0.67000002    2.67000008
   17.05833244  129.31799316    0.64999998    2.67000008
   17.06250000  128.25500488    0.64999998    2.67000008
   17.06555557  123.81999969    0.64999998    2.67000008
   17.06888962  130.15100098    0.64999998    2.67000008
   17.07222366  131.39700317    0.64999998    2.67000008
   17.07527924  121.76300049    0.63000000    2.67000008
   17.07861137  132.49600220    0.63000000    2.67000008
   17.08166695  134.32000732    0.63000000    2.67000008
   17.08500099  133.96499634    0.63000000    2.67000008
   17.08833313  128.13200378    0.64999998    2.67000008
   17.09138870  127.83300018    0.64999998    2.67000008
   17.09472275  130.78599548    0.64999998    2.67000008
   17.09527779  122.00399780    0.64999998    2.67000008
   17.10111237  122.00399780    0.64999998    2.67000008
   17.10527802  125.26000214    0.63000000    2.67000008
   17.10861206  126.04000092    0.63000000    2.67000008
   17.11166763  135.73800659    0.63000000    2.69000006
   17.11499977  120.90000153    0.61000001    2.67000008
   17.11805534  119.70200348    0.61000001    2.67000008
   17.12138939  128.09700012    0.61000001    2.66000009
   17.12472153  123.40200043    0.61000001    2.67000008
   17.12777710  124.19100189    0.61000001    2.66000009
   17.12861061  131.13400269    0.61000001    2.66000009
   17.13138962  117.65200043    0.61000001    2.67000008
   17.13472176  122.98999786    0.58999997    2.67000008
   17.13805580  128.69700623    0.58999997    2.67000008
   17.14388847  128.69700623    0.58999997    2.69000006
   17.14805603  137.54499817    0.58999997    2.67000008
   17.15138817  126.56500244    0.58999997    2.67000008
   17.15444374  124.09100342    0.58999997    2.67000008
   17.15777779  122.83699799    0.58999997    2.67000008
   17.16110992  131.25000000    0.58999997    2.67000008
   17.16222191  122.44000244    0.58999997    2.67000008
   17.16472244  121.95899963    0.58999997    2.67000008
   17.16805458  132.03500366    0.58999997    2.67000008
   17.17111015  125.36399841    0.58999997    2.67000008
   17.17444420  129.75000000    0.58999997    2.67000008
   17.17777634  133.90899658    0.58999997    2.67000008
   17.18083191  134.62399292    0.61000001    2.69000006
   17.18694305  134.62399292    0.58999997    2.67000008
   17.19083214  128.13299561    0.61000001    2.69000006
   17.19416618  148.41099548    0.64999998    2.67000008
   17.19555473  136.00599670    0.69000000    2.67000008
   17.19777679  135.88999939    0.73000002    2.66000009
   17.20111275  134.06900024    0.75000000    2.67000008
   17.20416832  138.64300537    0.81999999    2.67000008
   17.20750046  139.02600098    0.81999999    2.67000008
   17.21083450  139.68600464    0.83999997    2.67000008
   17.21416664  146.02600098    0.92000002    2.67000008
   17.21722221  128.60699463    0.98000002    2.67000008
   17.22055626  137.32800293    1.05999994    2.66000009
   17.22361183  137.96899414    1.11000001    2.66000009
   17.22972298  137.96899414    1.21000004    2.66000009
   17.23388863  130.86700439    1.19000006    2.67000008
   17.23694420  137.60499573    1.21000004    2.67000008
   17.24027824  142.41799927    1.19000006    2.67000008
   17.24361229  140.36599731    1.21000004    2.67000008
   17.24666786  135.22000122    1.23000002    2.67000008
   17.25000000  136.52400208    1.21000004    2.66000009
   17.25305557  125.45999908    1.21000004    2.67000008
   17.25638962  128.85800171    1.21000004    2.67000008
   17.25972176  137.59399414    1.25000000    2.66000009
   17.26222229  131.61599731    1.16999996    2.67000008
   17.26333427  130.11000061    1.16999996    2.67000008
   17.26666641  138.36799622    1.13000000    2.67000008
   17.27249908  138.36799622    1.05999994    2.67000008
   17.27666664  136.52900696    1.05999994    2.66000009
   17.28000069  131.90299988    1.05999994    2.66000009
   17.28305435  131.06199646    1.01999998    2.67000008
   17.28638840  131.73300171    1.00000000    2.66000009
   17.28944397  130.78100586    0.98000002    2.67000008
   17.29277802  132.77600098    0.98000002    2.67000008
   17.29555511  131.31399536    0.98000002    2.67000008
   17.29638863  139.42500305    0.98000002    2.67000008
   17.29972076  126.99700165    0.95999998    2.67000008
   17.30305481  148.47599792    0.94000000    2.66000009
   17.30611038  137.17999268    0.89999998    2.67000008
   17.30944443  138.26600647    0.94000000    2.67000008
   17.31527710  138.26600647    1.00000000    2.67000008
   17.31944466  134.57499695    0.98000002    2.66000009
   17.32277870  128.79100037    0.98000002    2.67000008
   17.32583427  136.91400146    0.95999998    2.67000008
   17.32888985  124.17700195    0.95999998    2.66000009
   17.32944489  132.77999878    0.95999998    2.66000009
   17.33277893  134.47500610    0.89999998    2.66000009
   17.33611107  134.37300110    0.88000000    2.67000008
   17.33916664  133.36099243    0.83999997    2.67000008
   17.34250069  134.88299561    0.83999997    2.67000008
   17.34555626  136.20700073    0.83999997    2.67000008
   17.34889030  139.76300049    0.83999997    2.67000008
   17.35222244  133.15199280    0.92000002    2.66000009
   17.35833359  133.15199280    0.89999998    2.67000008
   17.36222267  138.81100464    0.86000001    2.67000008
   17.36555672  132.72399902    0.81999999    2.66000009
   17.36888885  135.06300354    0.81999999    2.67000008
   17.37194443  134.33700562    0.80000001    2.67000008
   17.37527847  138.97700500    0.83999997    2.67000008
   17.37861061  140.91099548    0.83999997    2.67000008
   17.38194466  127.31500244    0.79000002    2.67000008
   17.38527679  131.89100647    0.76999998    2.67000008
   17.38861084  134.62199402    0.76999998    2.67000008
   17.39166641  138.89199829    0.75000000    2.67000008
   17.39500046  139.26199341    0.73000002    2.67000008
   17.39555550  133.79899597    0.70999998    2.67000008
   17.40111160  133.79899597    0.70999998    2.67000008
   17.40527725  130.50100708    0.69000000    2.67000008
   17.40833282  136.79200745    0.70999998    2.67000008
   17.41166687  122.03299713    0.69000000    2.67000008
   17.41499901  120.98500061    0.69000000    2.69000006
   17.41805458  123.22000122    0.69000000    2.69000006
   17.42138863  131.76899719    0.70999998    2.67000008
   17.42444420  140.02799988    0.63000000    2.67000008
   17.42777634  133.54800415    0.63000000    2.66000009
   17.42888832  128.37899780    0.63000000    2.67000008
   17.43138885  128.62500000    0.63000000    2.67000008
   17.43472099  126.42900085    0.63000000    2.67000008
   17.43805504  140.75199890    0.63000000    2.67000008
   17.44388771  140.75199890    0.61000001    2.67000008
   17.44805527  136.07099915    0.56999999    2.69000006
   17.45138931  139.56399536    0.56999999    2.67000008
   17.45444489  135.45300293    0.55000001    2.67000008
   17.45777893  128.05999756    0.52999997    2.67000008
   17.46083450  140.64700317    0.52999997    2.67000008
   17.46222305  136.79800415    0.52999997    2.66000009
   17.46444511  138.10699463    0.52999997    2.67000008
   17.46777916  136.24299622    0.61000001    2.66000009
   17.47111130  143.61399841    0.63000000    2.67000008
   17.47416687  138.96299744    0.64999998    2.69000006
   17.47750092  139.44000244    0.64999998    2.67000008
   17.48083305  134.91400146    0.64999998    2.67000008
   17.48666763  134.91400146    0.67000002    2.66000009
   17.49083328  141.88099670    0.67000002    2.67000008
   17.49416733  137.00199890    0.67000002    2.67000008
   17.49555588  137.95899963    0.67000002    2.66000009
   17.49749947  134.62699890    0.69000000    2.67000008
   17.50083351  128.88800049    0.69000000    2.67000008
   17.50416756  124.76999664    0.69000000    2.67000008
   17.50722313  137.45100403    0.64999998    2.67000008
   17.51055527  138.61199951    0.64999998    2.67000008
   17.51388931  130.25799561    0.63000000    2.67000008
   17.51694489  136.41400146    0.63000000    2.67000008
   17.52027702  129.63099670    0.61000001    2.67000008
   17.52333260  141.54400635    0.61000001    2.67000008
   17.52972221  141.54400635    0.58999997    2.67000008
   17.53361130  142.44900513    0.56999999    2.67000008
   17.53694344  132.20500183    0.55000001    2.66000009
   17.54027748  134.03199768    0.55000001    2.66000009
   17.54333305  190.16000366    0.55000001    2.67000008
   17.54666710  190.46400452    0.52999997    2.67000008
   17.54999924  135.75900269    0.52999997    2.67000008
   17.55305481  138.74899292    0.51999998    2.67000008
   17.55638885  132.44000244    0.52999997    2.67000008
   17.55972099  135.86599731    0.51999998    2.67000008
   17.56222153  137.41000366    0.51999998    2.67000008
   17.56305504  133.17300415    0.51999998    2.67000008
   17.56638718  132.59700012    0.51999998    2.67000008
   17.57250023  132.59700012    0.51999998    2.67000008
   17.57666779  146.04200745    0.51999998    2.67000008
   17.57972336  132.27600098    0.51999998    2.67000008
   17.58305550  138.26899719    0.52999997    2.67000008
   17.58638954  136.92900085    0.51999998    2.67000008
   17.58944511  138.16099548    0.52999997    2.67000008
   17.59277916   -1.00000000    0.52999997    2.67000008
   17.59611130   -1.00000000    0.52999997    2.67000008
   17.59944534  139.56599426    0.51999998    2.66000009
   17.60250092  143.85699463    0.55000001    2.67000008
   17.60583305  133.14999390    0.55000001    2.67000008
   17.60916710  135.42399597    0.61000001    2.66000009
   17.61527824  135.42399597    0.58999997    2.67000008
   17.61944389  147.65199280    0.58999997    2.67000008
   17.62277794  132.09899902    0.55000001    2.66000009
   17.62583351  135.21899414    0.55000001    2.67000008
   17.62888908  137.37399292    0.52999997    2.66000009
   17.62944412  138.26300049    0.52999997    2.66000009
   17.63277817  134.82600403    0.52999997    2.66000009
   17.63611031  142.08000183    0.51999998    2.67000008
   17.63916588  134.13699341    0.51999998    2.67000008
   17.64249992   -1.00000000    0.51999998    2.67000008
   17.64583397   -1.00000000    0.51999998    2.67000008
   17.64888954  143.21099854    0.56999999    2.66000009
   17.65222168  153.84199524    0.63000000    2.66000009
   17.65805435  153.84199524    0.70999998    2.66000009
   17.66222191  138.39700317    0.69000000    2.67000008
   17.66555595  138.40199280    0.75000000    2.66000009
   17.66888809  148.29699707    0.79000002    2.67000008
   17.67194366  136.49400330    0.79000002    2.67000008
   17.67527771  132.80000305    0.81999999    2.66000009
   17.67833328  130.94000244    0.81999999    2.66000009
   17.68166542  140.65899658    0.81999999    2.66000009
   17.68499947  133.48199463    0.75000000    2.66000009
   17.68805504  135.81799316    0.70999998    2.66000009
   17.69138718  137.24600220    0.69000000    2.66000009
   17.69472122  134.94299316    0.69000000    2.67000008
   17.69555473  135.68200684    0.69000000    2.67000008
   17.70111275  135.68200684    0.69000000    2.66000009
   17.70499992  136.96699524    0.69000000    2.66000009
   17.70833397  135.65800476    0.67000002    2.66000009
   17.71166801  145.88499451    0.67000002    2.66000009
   17.72916794  137.24099731    0.58999997    2.67000008
   17.73166656  137.16000366    0.58999997    2.66000009
   17.73472214  139.75700378    0.58999997    2.66000009
   17.73805618  131.53700256    0.56999999    2.66000009
   17.74388885  131.53700256    0.58999997    2.67000008
   17.74805641  138.39999390    0.56999999    2.66000009
   17.75138855  137.74200439    0.56999999    2.67000008
   17.75472260  138.37800598    0.56999999    2.67000008
   17.75777817  139.11599731    0.56999999    2.67000008
   17.76111031  138.64999390    0.56999999    2.66000009
   17.76250076  146.25300598    0.56999999    2.66000009
   17.76499939  124.79900360    0.56999999    2.66000009
   17.76805496  136.36700439    0.56999999    2.66000009
   17.77138901  137.14500427    0.55000001    2.67000008
   17.77444458  134.09300232    0.51999998    2.66000009
   17.77777672  137.56300354    0.50000000    2.66000009
   17.78111076  135.67100525    0.50000000    2.66000009
   17.78694344  135.67100525    0.51999998    2.66000009
   17.79111099  138.00500488    0.52999997    2.67000008
   17.79416656  141.71600342    0.56999999    2.66000009
   17.79583359  144.93200684    0.56999999    2.66000009
   17.79777718  133.54100037    0.55000001    2.66000009
   17.80111122  133.63000488    0.51999998    2.66000009
   17.80444336  143.36000061    0.52999997    2.66000009
   17.80749893  132.00700378    0.52999997    2.64000010
   17.81083298  134.78100586    0.52999997    2.66000009
   17.81416512  140.18200684    0.51999998    2.66000009
   17.81722260  141.02699280    0.50000000    2.67000008
   17.82055664  136.36999512    0.50000000    2.66000009
   17.82389069  134.69400024    0.50000000    2.66000009
   17.82972336  134.69400024    0.47999999    2.67000008
   17.83388901  131.25399780    0.47999999    2.66000009
   17.83694458  136.48800659    0.47999999    2.66000009
   17.84027863  135.44900513    0.47999999    2.66000009
   17.84361267  132.82800293    0.47999999    2.66000009
   17.84666824  131.43099976    0.46000001    2.66000009
   17.85000038  133.35200500    0.46000001    2.66000009
   17.85333443  144.11500549    0.46000001    2.66000009
   17.85639000  137.25199890    0.46000001    2.67000008
   17.85972214  134.99800110    0.46000001    2.66000009
   17.86250114  133.69099426    0.46000001    2.66000009
   17.86305618  139.36099243    0.46000001    2.66000009
   17.86638832  134.74600220    0.47999999    2.66000009
   17.87249947  134.74600220    0.46000001    2.66000009
   17.87666702  130.79600525    0.47999999    2.66000009
   17.88000107  136.68699646    0.47999999    2.66000009
   17.88305473  143.38099670    0.47999999    2.66000009
   17.88638878  140.19700623    0.46000001    2.66000009
   17.88972282  142.19999695    0.46000001    2.64000010
   17.89277840  138.00900269    0.44000000    2.66000009
   17.89583397  137.47700500    0.44000000    2.66000009
   17.89638901  140.59800720    0.44000000    2.66000009
   17.89972115  134.88800049    0.44000000    2.66000009
   17.90305519  137.18499756    0.44000000    2.66000009
   17.90611076  135.44299316    0.44000000    2.66000009
   17.90944481  130.69700623    0.44000000    2.66000009
   17.91527748  130.69700623    0.44000000    2.66000009
   17.91944313  127.39099884    0.44000000    2.66000009
   17.92277718  128.25399780    0.44000000    2.66000009
   17.92611122  131.99099731    0.44000000    2.66000009
   17.92916679  127.25099945    0.44000000    2.66000009
   17.92944336  136.76100159    0.44000000    2.66000009
   17.93277740  129.15699768    0.41999999    2.66000009
   17.93610954  135.53300476    0.41999999    2.66000009
   17.93916512  132.25700378    0.44000000    2.64000010
   17.94249916  134.48199463    0.44000000    2.66000009
   17.94583321  141.18699646    0.41999999    2.66000009
   17.94888878  147.23599243    0.41999999    2.64000010
   17.95222282  130.87899780    0.41999999    2.66000009
   17.95833397  130.87899780    0.41999999    2.66000009
   17.96250153  130.82200623    0.41999999    2.66000009
   17.96277809  141.30999756    0.41999999    2.66000009
   17.96611214  134.78100586    0.40000001    2.66000009
   17.96944427  136.00199890    0.40000001    2.66000009
   17.97249985  132.90100098    0.40000001    2.66000009
   17.97583389  133.29899597    0.40000001    2.66000009
   17.97916794  137.55099487    0.40000001    2.66000009
   17.98222351  135.33299255    0.40000001    2.66000009
   17.98555565  137.52699280    0.40000001    2.66000009
   17.98888969  138.07499695    0.40000001    2.64000010
   17.99194527  140.82200623    0.40000001    2.66000009
   17.99527740  137.00900269    0.40000001    2.66000009
   17.99583435  131.88099670    0.40000001    2.66000009
   18.00111198  131.88099670    0.40000001    2.64000010
   18.00527763  140.67799377    0.40000001    2.66000009
   18.00833321  143.22799683    0.40000001    2.66000009
   18.01166725  140.32299805    0.40000001    2.66000009
   18.01499939  127.31700134    0.40000001    2.66000009
   18.01805496  141.90400696    0.40000001    2.64000010
   18.02138901  132.99699402    0.40000001    2.64000010
   18.02472115  137.71000671    0.40000001    2.64000010
   18.02777672  133.92900085    0.40000001    2.66000009
   18.02916718  133.16400146    0.40000001    2.66000009
   18.03166580  133.46699524    0.40000001    2.66000009
   18.03472137  136.21699524    0.41999999    2.66000009
   18.03805542  132.87300110    0.41999999    2.64000010
   18.04388809  132.87300110    0.40000001    2.64000010
   18.04805565  132.87100220    0.40000001    2.66000009
   18.05138779  132.44999695    0.40000001    2.66000009
   18.05444336  128.65800476    0.40000001    2.66000009
   18.05777740  138.68299866    0.40000001    2.66000009
   18.06110954  131.74200439    0.38000000    2.64000010
   18.06250000  134.71299744    0.40000001    2.66000009
   18.06472206  130.82200623    0.38000000    2.66000009
   18.06777954  128.89199829    0.38000000    2.66000009
   18.07111168  139.36700439    0.38000000    2.66000009
   18.07416725  131.30299377    0.38000000    2.64000010
   18.07750130  140.36300659    0.38000000    2.64000010
   18.08083344  129.92799377    0.38000000    2.66000009
   18.08666801  129.92799377    0.51999998    2.64000010
   18.09083366  137.20399475    0.55000001    2.66000009
   18.09416771  144.60400391    0.55000001    2.66000009
   18.09583473  134.01199341    0.52999997    2.64000010
   18.09777832  141.77900696    0.55000001    2.66000009
   18.10083389  135.37100220    0.51999998    2.66000009
   18.10416794  134.09500122    0.50000000    2.66000009
   18.10722351  136.60099792    0.47999999    2.66000009
   18.11055565  131.33999634    0.46000001    2.66000009
   18.11388969  140.14500427    0.44000000    2.66000009
   18.11694527  135.09300232    0.44000000    2.64000010
   18.12027740  137.72500610    0.41999999    2.66000009
   18.12361145  138.72099304    0.41999999    2.64000010
   18.12972260  138.72099304    0.41999999    2.64000010
   18.13388824  134.80799866    0.41999999    2.66000009
   18.13694382  136.97000122    0.41999999    2.66000009
   18.14027786  136.91200256    0.41999999    2.66000009
   18.14333344  145.16400146    0.41999999    2.64000010
   18.14666748  134.74499512    0.63000000    2.64000010
   18.14999962  141.38499451    0.64999998    2.64000010
   18.15305519  136.86799622    0.64999998    2.64000010
   18.15638924  128.94299316    0.67000002    2.66000009
   18.15972137  135.48599243    0.80000001    2.64000010
   18.16250038  150.06700134    0.69000000    2.66000009
   18.16333389  143.36000061    0.73000002    2.66000009
   18.16638756  137.31500244    0.79000002    2.64000010
   18.17249870  137.31500244    0.83999997    2.64000010
   18.17666626  136.57800293    0.76999998    2.64000010
   18.17972183  136.50799561    0.75000000    2.64000010
   18.18305397  140.86999512    0.75000000    2.64000010
   18.18638802  149.94000244    0.67000002    2.64000010
   18.18944359  148.82699585    0.61000001    2.64000010
   18.19277763  140.40800476    0.55000001    2.64000010
   18.19583321  152.20399475    0.55000001    2.66000009
   18.19638824  151.48599243    0.58999997    2.64000010
   18.19944382  146.95300293    0.63000000    2.64000010
   18.20277786  133.98199463    0.51999998    2.66000009
   18.20583344  150.39100647    0.50000000    2.64000010
   18.20916748  157.58299255    0.46000001    2.64000010
   18.21527863  157.58299255    0.44000000    2.64000010
   18.21944427  154.17999268    0.44000000    2.64000010
   18.22277832  165.97399902    0.44000000    2.64000010
   18.22583389  154.12500000    0.41999999    2.64000010
   18.22916794  155.58099365    0.41999999    2.64000010
   18.22972298  154.89599609    0.41999999    2.64000010
   18.23277855  161.07800293    0.41999999    2.64000010
   18.23611069  173.75799561    0.44000000    2.64000010
   18.23916626  166.23199463    0.46000001    2.64000010
   18.24250031  158.94999695    0.44000000    2.64000010
   18.24583435  156.13499451    0.44000000    2.64000010
   18.24888992  160.90100098    0.44000000    2.66000009
   18.25222206  169.87500000    0.44000000    2.64000010
   18.25805473  169.87500000    0.44000000    2.64000010
   18.26222229  152.55000305    0.44000000    2.64000010
   18.26277733  164.18200684    0.44000000    2.64000010
   18.26611137  156.33900452    0.44000000    2.64000010
   18.26944351  155.15100098    0.46000001    2.64000010
   18.27249908  162.48100281    0.46000001    2.64000010
   18.27583313  153.17100525    0.47999999    2.64000010
   18.27888870  164.77200317    0.46000001    2.64000010
   18.28222275  150.06100464    0.41999999    2.64000010
   18.28555489  157.56100464    0.41999999    2.64000010
   18.28861046  155.75599670    0.41999999    2.64000010
   18.29194450  153.52200317    0.41999999    2.64000010
   18.29527664  165.07499695    0.41999999    2.64000010
   18.29611015  160.07400513    0.41999999    2.64000010
   18.30111122  160.07400513    0.44000000    2.64000010
   18.30527687  155.40100098    0.44000000    2.64000010
   18.30833244  155.28399658    0.44000000    2.64000010
   18.31166649  154.01400757    0.44000000    2.64000010
   18.31472206  157.36999512    0.41999999    2.64000010
   18.31805611  165.18800354    0.41999999    2.64000010
   18.32139015  156.62300110    0.41999999    2.64000010
   18.32472229  161.84800720    0.41999999    2.64000010
   18.32777786  154.28900146    0.41999999    2.64000010
   18.32944489  154.59599304    0.40000001    2.64000010
   18.33139038  156.25100708    0.40000001    2.64000010
   18.33472252  146.24400330    0.40000001    2.64000010
   18.33777809  145.08500671    0.41999999    2.64000010
   18.34388924  145.08500671    0.40000001    2.64000010
   18.34805679  150.11799622    0.40000001    2.64000010
   18.35111237  148.61500549    0.40000001    2.64000010
   18.35444450  151.11500549    0.40000001    2.64000010
   18.35777855  155.15800476    0.40000001    2.64000010
   18.36083412  150.99699402    0.40000001    2.64000010
   18.36277771  151.65800476    0.40000001    2.64000010
   18.36472321  157.83000183    0.41999999    2.64000010
   18.36805534  150.88900757    0.41999999    2.64000010
   18.37111092  151.16299438    0.41999999    2.66000009
   18.37444496  155.59599304    0.41999999    2.64000010
   18.37750053  150.52999878    0.41999999    2.64000010
   18.38083267  160.43200684    0.40000001    2.64000010
   18.38666725  160.43200684    0.40000001    2.64000010
   18.39083290  154.32899475    0.40000001    2.64000010
   18.39416695  144.63699341    0.40000001    2.61999989
   18.39611053  146.52600098    0.40000001    2.64000010
   18.39777756  148.27400208    0.40000001    2.64000010
   18.40111160  149.45399475    0.40000001    2.64000010
   18.40416718  150.02299500    0.40000001    2.64000010
   18.40749931  152.55700684    0.40000001    2.64000010
   18.41055489  147.67399597    0.40000001    2.64000010
   18.41388893  150.88099670    0.40000001    2.64000010
   18.41722107  143.44799805    0.38000000    2.64000010
   18.42027664  149.22799683    0.38000000    2.64000010
   18.42361069  141.74499512    0.38000000    2.64000010
   18.42944336  141.74499512    0.38000000    2.64000010
   18.43361092  150.16700745    0.38000000    2.64000010
   18.43694305  142.31500244    0.40000001    2.64000010
   18.44027710  144.48800659    0.40000001    2.64000010
   18.44333267  138.46299744    0.38000000    2.64000010
   18.44666672  147.21800232    0.40000001    2.64000010
   18.44972038  152.24099731    0.40000001    2.64000010
   18.45305634  145.42900085    0.40000001    2.61999989
   18.45639038  148.62800598    0.40000001    2.64000010
   18.45944595  147.23399353    0.38000000    2.64000010
   18.46277809  148.50399780    0.38000000    2.64000010
   18.46333504  140.64399719    0.38000000    2.64000010
   18.46638870  145.58299255    0.38000000    2.64000010
   18.47249985  145.58299255    0.38000000    2.64000010
   18.47666740  145.02400208    0.38000000    2.61999989
   18.47972298  143.15100098    0.38000000    2.61999989
   18.48305511  141.03999329    0.40000001    2.61999989
   18.48611069  145.30000305    0.40000001    2.64000010
   18.48944473  143.85499573    0.40000001    2.64000010
   18.49277878  144.55099487    0.40000001    2.61999989
   18.49583435  145.33599854    0.40000001    2.64000010
   18.49666786  142.08099365    0.40000001    2.64000010
   18.49972153  143.46800232    0.38000000    2.61999989
   18.50277710  141.54400635    0.40000001    2.64000010
   18.50611115  141.24600220    0.40000001    2.64000010
   18.50916672  139.05499268    0.40000001    2.61999989
   18.51527786  139.05499268    0.40000001    2.64000010
   18.51944351  141.06799316    0.38000000    2.64000010
   18.52249908  139.61599731    0.38000000    2.61999989
   18.52583313  146.14300537    0.38000000    2.61999989
   18.52916718  144.61500549    0.38000000    2.61999989
   18.53000069  140.84300232    0.38000000    2.61999989
   18.53277779  139.63099670    0.40000001    2.64000010
   18.53583336  138.30400085    0.40000001    2.61999989
   18.53916550  151.54499817    0.40000001    2.61999989
   18.54222107  142.48599243    0.40000001    2.64000010
   18.54555511  152.10499573    0.41999999    2.61999989
   18.54888916  149.41600037    0.41999999    2.61999989
   18.55194283  135.86399841    0.41999999    2.64000010
   18.55805397  135.86399841    0.44000000    2.61999989
   18.56222153  139.99800110    0.44000000    2.61999989
   18.56333351  139.27600098    0.44000000    2.61999989
   18.56583214  141.05299377    0.44000000    2.61999989
   18.56916809  140.47399902    0.44000000    2.61999989
   18.57250023  139.86999512    0.44000000    2.64000010
   18.57555580  140.77999878    0.46000001    2.64000010
   18.57888985  132.73199463    0.46000001    2.64000010
   18.58222389  142.96099854    0.44000000    2.61999989
   18.58527756  142.88099670    0.44000000    2.61999989
   18.58861160  148.99299622    0.44000000    2.61999989
   18.59166718  134.41600037    0.44000000    2.61999989
   18.59500122  140.97399902    0.46000001    2.61999989
   18.59666824  128.04600525    0.46000001    2.61999989
   18.60083389  128.04600525    0.46000001    2.61999989
   18.60499954  137.23800659    0.47999999    2.61999989
   18.60833359  138.65600586    0.51999998    2.61999989
   18.61138916  136.38999939    0.51999998    2.61999989
   18.61472321  133.78199768    0.56999999    2.61999989
   18.61805534  140.53900146    0.58999997    2.61999989
   18.62111092  143.05999756    0.63000000    2.61999989
   18.62444496  146.82699585    0.63000000    2.61999989
   18.62777710  145.83799744    0.63000000    2.61999989
   18.63000107  146.58299255    0.64999998    2.61999989
   18.63138962  136.88600159    0.67000002    2.61999989
   18.63444519  142.96299744    0.73000002    2.61999989
   18.63777733  136.75300598    0.73000002    2.61999989
   18.64388847  136.75300598    0.70999998    2.61999989
   18.64777756  144.85899353    0.70999998    2.64000010
   18.65111160  146.64100647    0.69000000    2.61999989
   18.65444374  149.36900330    0.64999998    2.61999989
   18.65749931  148.49000549    0.64999998    2.61999989
   18.66083336  158.25599670    0.67000002    2.61999989
   18.66333389  160.22700500    0.64999998    2.59999990
   18.66472244  166.09800720    0.64999998    2.59999990
   18.66777802  143.77000427    0.70999998    2.61999989
   18.67111015  153.37300110    0.70999998    2.61999989
   18.67416573  145.88699341    0.86000001    2.61999989
   18.67749977  145.31399536    0.83999997    2.61999989
   18.68083191  135.25799561    0.92000002    2.59999990
   18.68666649  135.25799561    0.89999998    2.59999990
   18.69083214  147.42900085    0.89999998    2.59999990
   18.69388771  144.39500427    0.86000001    2.59999990
   18.69666672  144.55099487    0.83999997    2.61999989
   18.69749832  142.16499329    0.81999999    2.61999989
   18.70083427  141.50100708    0.79000002    2.61999989
   18.70416832  159.62899780    0.76999998    2.61999989
   18.70722389  148.27799988    0.76999998    2.61999989
   18.71055603  144.68400574    0.79000002    2.59999990
   18.71389008  143.61000061    0.76999998    2.61999989
   18.71694565  143.21099854    0.69000000    2.59999990
   18.72027779  142.99699402    0.67000002    2.59999990
   18.72333336  137.98899841    0.61000001    2.59999990
   18.72944450  137.98899841    0.61000001    2.59999990
   18.74777794  141.13000488    0.55000001    2.59999990
   18.75111198  130.20500183    0.55000001    2.61999989
   18.75444412  145.77600098    0.52999997    2.59999990
   18.75749969  134.63299561    0.52999997    2.59999990
   18.76083374  142.94000244    0.52999997    2.59999990
   18.76388931  133.86300659    0.51999998    2.59999990
   18.76722145  129.81300354    0.51999998    2.59999990
   18.77249908  129.81300354    0.51999998    2.59999990
   18.77666664  141.49699402    0.50000000    2.61999989
   18.78000069  131.13400269    0.50000000    2.59999990
   18.78083229  132.04899597    0.50000000    2.59999990
   18.78361130  135.42799377    0.51999998    2.59999990
   18.78666687  135.21699524    0.50000000    2.59999990
   18.78999901  136.59800720    0.50000000    2.57999992
   18.79333305  132.87899780    0.50000000    2.57999992
   18.79638863  132.12100220    0.50000000    2.59999990
   18.79972076  134.46099854    0.50000000    2.61999989
   18.80305481  125.45500183    0.50000000    2.59999990
   18.80611038  141.01400757    0.50000000    2.59999990
   18.80944443  138.09399414    0.50000000    2.59999990
   18.81527710  138.09399414    0.47999999    2.59999990
   18.81944466  137.62699890    0.47999999    2.59999990
   18.82277870  134.66999817    0.47999999    2.59999990
   18.82611275  129.66499329    0.47999999    2.59999990
   18.82916832  131.18200684    0.46000001    2.57999992
   18.83250046  127.32900238    0.46000001    2.61999989
   18.83583450  138.05299377    0.47999999    2.59999990
   18.83889008  130.97700500    0.47999999    2.59999990
   18.84222221  130.59199524    0.50000000    2.59999990
   18.84555626  134.76400757    0.47999999    2.57999992
   18.84749985  130.58700562    0.50000000    2.59999990
   18.84916687  126.98899841    0.51999998    2.59999990
   18.85250092  130.88499451    0.50000000    2.57999992
   18.85833359  130.88499451    0.51999998    2.59999990
   18.86250114  130.83999634    0.51999998    2.59999990
   18.86555672  131.67799377    0.51999998    2.57999992
   18.86888885  129.59800720    0.50000000    2.59999990
   18.87194443  137.36300659    0.47999999    2.59999990
   18.87527847  134.34899902    0.47999999    2.59999990
   18.87861061  127.94300079    0.47999999    2.59999990
   18.88083267  131.16099548    0.46000001    2.59999990
   18.88222313  133.50199890    0.47999999    2.57999992
   18.88555527  133.24000549    0.46000001    2.59999990
   18.88861084  125.56199646    0.47999999    2.59999990
   18.89194489  134.20399475    0.47999999    2.57999992
   18.89500046  133.75900269    0.47999999    2.59999990
   18.90111160  133.75900269    0.47999999    2.57999992
   18.90527725  127.71800232    0.47999999    2.59999990
   18.90833282  126.37699890    0.51999998    2.57999992
   18.91166687  143.13900757    0.51999998    2.59999990
   18.91416550  125.22799683    0.55000001    2.59999990
   18.91527748  128.43200684    0.55000001    2.57999992
   18.91860962  132.33599854    0.56999999    2.57999992
   18.92166519  131.87500000    0.58999997    2.57999992
   18.92499924  133.53999329    0.80000001    2.57999992
   18.92833328  128.94799805    0.81999999    2.57999992
   18.93138885  122.80599976    0.89999998    2.57999992
   18.93472099  136.02299500    0.92000002    2.57999992
   18.93777657  134.86000061    0.86000001    2.57999992
   18.94388771  134.86000061    0.73000002    2.57999992
   18.94805527  131.32600403    0.73000002    2.57999992
   18.95138931  130.78999329    0.76999998    2.57999992
   18.95444489  132.95799255    0.76999998    2.57999992
   18.95777893  139.77900696    0.75000000    2.57999992
   18.96111107  130.78999329    0.75000000    2.57999992
   18.96416664  135.85899353    0.70999998    2.57999992
   18.96750069  132.65800476    0.70999998    2.57999992
   18.97055626  127.90499878    0.73000002    2.57999992
   18.97389030  123.84899902    0.73000002    2.55999994
   18.97722244  137.85099792    0.73000002    2.57999992
   18.98027802  141.62199402    0.75000000    2.57999992
   18.98083305  134.73800659    0.75000000    2.57999992
   18.98666763  134.73800659    0.75000000    2.57999992
   18.99083328  133.74400330    0.83999997    2.55999994
   18.99416733  131.01899719    0.81999999    2.55999994
   18.99749947  133.69299316    0.79000002    2.57999992
   19.00055504  137.60800171    0.76999998    2.55999994
   19.00388908  131.92300415    0.64999998    2.57999992
   19.00722313  128.78799438    0.64999998    2.57999992
   19.01027870  141.43699646    0.69000000    2.57999992
   19.01361084  136.38499451    0.69000000    2.55999994
   19.01416588  139.05999756    0.70999998    2.55999994
   19.01722145  139.74699402    0.69000000    2.55999994
   19.02055550  130.51100159    0.69000000    2.55999994
   19.02361107  129.99099731    0.67000002    2.57999992
   19.02972221  129.99099731    0.61000001    2.57999992
   19.03388786  139.78300476    0.52999997    2.57999992
   19.03694344  135.78799438    0.52999997    2.57999992
   19.04027748  134.21800232    0.50000000    2.55999994
   19.04333305  133.00799561    0.50000000    2.57999992
   19.04666710  136.55000305    0.50000000    2.57999992
   19.04749870  137.54299927    0.51999998    2.57999992
   19.05027771  141.94700623    0.51999998    2.57999992
   19.05360985  131.99400330    0.51999998    2.57999992
   19.05666542  144.04699707    0.51999998    2.55999994
   19.05999947  138.11500549    0.51999998    2.57999992
   19.06305504  134.40800476    0.50000000    2.57999992
   19.06638718  128.91200256    0.50000000    2.57999992
   19.07250023  128.91200256    0.50000000    2.55999994
   19.07666779  130.23599243    0.50000000    2.55999994
   19.07972336  135.41999817    0.50000000    2.55999994
   19.08083344  132.31399536    0.50000000    2.55999994
   19.08333397  139.97300720    0.50000000    2.57999992
   19.08666801  133.48800659    0.51999998    2.55999994
   19.08972359  128.31199646    0.50000000    2.55999994
   19.09305573  141.25900269    0.50000000    2.55999994
   19.09638977  147.29800415    0.50000000    2.55999994
   19.09944534  138.82800293    0.50000000    2.55999994
   19.10277748  133.70199585    0.51999998    2.55999994
   19.10583305  130.61999512    0.51999998    2.55999994
   19.10916710  133.03799438    0.51999998    2.55999994
   19.11527824  133.03799438    0.56999999    2.55999994
   19.11944389  131.83399963    0.58999997    2.55999994
   19.12277794  134.89199829    0.69000000    2.55999994
   19.12583351  133.75599670    0.69000000    2.55999994
   19.12916756  130.67900085    0.69000000    2.55999994
   19.13249969  131.92599487    0.70999998    2.55999994
   19.13555527  129.32499695    0.69000000    2.55999994
   19.13888931  130.96899414    0.64999998    2.55999994
   19.14222145  126.79799652    0.64999998    2.55999994
   19.14527702  128.32099915    0.67000002    2.55999994
   19.14749908  137.77200317    0.63000000    2.55999994
   19.14888954  133.63699341    0.58999997    2.53999996
   19.15222168  134.36999512    0.58999997    2.55999994
   19.15833282  134.36999512    0.58999997    2.55999994
   19.16222191  128.18600464    0.56999999    2.55999994
   19.16555595  125.33899689    0.51999998    2.53999996
   19.16888809  133.62300110    0.52999997    2.55999994
   19.17194366  133.69299316    0.55000001    2.55999994
   19.17527771  136.78399658    0.56999999    2.55999994
   19.17833328  130.05700684    0.56999999    2.53999996
   19.18083191  133.30900574    0.58999997    2.55999994
   19.18194389  132.78700256    0.58999997    2.55999994
   19.18527603  138.29699707    0.56999999    2.55999994
   19.18833160  125.94799805    0.56999999    2.55999994
   19.19166565  126.43499756    0.56999999    2.55999994
   19.19499969  129.14900208    0.63000000    2.55999994
   19.20111275  129.14900208    0.70999998    2.53999996
   19.20527840  136.13499451    0.70999998    2.53999996
   19.20833397  133.51199341    0.73000002    2.55999994
   19.21166801  128.04899597    0.73000002    2.55999994
   19.21416664  146.72999573    0.76999998    2.53999996
   19.21527863  132.74600220    0.76999998    2.53999996
   19.21861076  141.92199707    0.76999998    2.55999994
   19.22166634  134.32400513    0.70999998    2.55999994
   19.22500038  139.81900024    0.69000000    2.53999996
   19.22833443  138.06399536    0.69000000    2.53999996
   19.23139000  133.83900452    0.58999997    2.53999996
   19.23472214  135.83599854    0.61000001    2.53999996
   19.23777771  132.27000427    0.64999998    2.53999996
   19.24388885  132.27000427    0.73000002    2.53999996
   19.24805641  134.19500732    0.73000002    2.53999996
   19.25138855  136.19099426    0.73000002    2.53999996
   19.25444412  124.34300232    0.73000002    2.55999994
   19.25777817  134.52799988    0.73000002    2.53999996
   19.26111031  123.58799744    0.73000002    2.53999996
   19.26416588  120.90799713    0.64999998    2.53999996
   19.26749992  125.83899689    0.69000000    2.53999996
   19.27055550  125.08399963    0.67000002    2.51999998
   19.27388954  130.36999512    0.64999998    2.53999996
   19.27722168  124.94000244    0.63000000    2.53999996
   19.28027725  123.51399994    0.56999999    2.53999996
   19.28111076  124.89700317    0.56999999    2.53999996
   19.28666687  124.89700317    0.55000001    2.53999996
   19.29083252  124.63400269    0.56999999    2.53999996
   19.29416656  121.40799713    0.61000001    2.53999996
   19.29722214  123.55500031    0.58999997    2.55999994
   19.30055428  127.90000153    0.58999997    2.53999996
   19.30388832  123.45500183    0.63000000    2.53999996
   19.30694389  127.13600159    0.63000000    2.53999996
   19.31027794  125.44300079    0.61000001    2.53999996
   19.31361008  119.94400024    0.58999997    2.53999996
   19.31444359  135.98199463    0.58999997    2.53999996
   19.31694603  132.61799622    0.58999997    2.53999996
   19.32027817  130.82400513    0.56999999    2.53999996
   19.32333374  128.14599609    0.61000001    2.53999996
   19.32972336  128.14599609    0.64999998    2.51999998
   19.33361244  125.10299683    0.63000000    2.53999996
   19.33694458  129.76499939    0.64999998    2.53999996
   19.34027863  131.92199707    0.64999998    2.51999998
   19.34333420  123.67900085    0.64999998    2.51999998
   19.34666824  134.09599304    0.64999998    2.53999996
   19.34777832  130.85600281    0.64999998    2.53999996
   19.35027885  122.49600220    0.63000000    2.51999998
   19.35361099  127.47299957    0.63000000    2.53999996
   19.35666656  127.93299866    0.63000000    2.51999998
   19.36000061  132.97999573    0.64999998    2.53999996
   19.36333466  121.72799683    0.64999998    2.51999998
   19.36638832  129.81100464    0.69000000    2.53999996
   19.37249947  129.81100464    0.75000000    2.53999996
   19.37666702  126.36199951    0.75000000    2.51999998
   19.37972260  133.38699341    0.75000000    2.51999998
   19.38111115  129.14999390    0.75000000    2.51999998
   19.38333321  129.08500671    0.75000000    2.51999998
   19.38666725  139.83299255    0.75000000    2.51999998
   19.38972282  127.54599762    0.76999998    2.51999998
   19.39305496  126.96099854    0.76999998    2.51999998
   19.39638901  127.42099762    0.75000000    2.51999998
   19.39944458  130.63600159    0.75000000    2.51999998
   19.40277672  133.44000244    0.70999998    2.51999998
   19.40611076  140.69700623    0.70999998    2.51999998
   19.40916634  132.47500610    0.69000000    2.51999998
   19.41527748  132.47500610    0.63000000    2.51999998
   19.41944313  125.77799988    0.63000000    2.50000000
   19.42249870  130.78100586    0.58999997    2.51999998
   19.42583275  123.20200348    0.58999997    2.51999998
   19.42916679  126.28600311    0.58999997    2.51999998
   19.43222237  122.77100372    0.58999997    2.51999998
   19.43555450  120.47299957    0.56999999    2.51999998
   19.43888855  132.65699768    0.56999999    2.51999998
   19.44194412  131.61700439    0.56999999    2.51999998
   19.44527626  145.16299438    0.56999999    2.51999998
   19.44777679  116.50099945    0.56999999    2.50000000
   19.44888878  136.07299805    0.56999999    2.50000000
   19.45222282  127.01499939    0.55000001    2.51999998
   19.45805550  127.01499939    0.56999999    2.51999998
   19.46222305  125.51799774    0.55000001    2.51999998
   19.46555710  138.42999268    0.56999999    2.51999998
   19.46861076  130.25599670    0.58999997    2.51999998
   19.47194481  121.47599792    0.61000001    2.50000000
   19.47527885  128.92300415    0.63000000    2.50000000
   19.47833443  125.82700348    0.67000002    2.50000000
   19.48111153  127.39700317    0.67000002    2.50000000
   19.48194504  126.36299896    0.67000002    2.50000000
   19.48527718  132.95799255    0.67000002    2.51999998
   19.48833275  139.26600647    0.64999998    2.50000000
   19.49166679  133.25300598    0.64999998    2.50000000
   19.49500084  143.33099365    0.64999998    2.50000000
   19.50111198  143.33099365    0.61000001    2.50000000
   19.50527763  138.01899719    0.63000000    2.50000000
   19.50833321  141.62800598    0.63000000    2.50000000
   19.51166725  147.12600708    0.56999999    2.50000000
   19.51444435  147.63000488    0.56999999    2.50000000
   19.51527786  139.67900085    0.56999999    2.51999998
   19.51861000  146.80799866    0.55000001    2.50000000
   19.52166557  125.75499725    0.55000001    2.50000000
   19.52499962  152.35000610    0.55000001    2.50000000
   19.52833366  135.80799866    0.55000001    2.50000000
   19.53138924  140.73399353    0.55000001    2.50000000
   19.53472137  131.99400330    0.55000001    2.50000000
   19.53805542  139.51699829    0.55000001    2.50000000
   19.54388809  139.51699829    0.55000001    2.50000000
   19.54805565  137.28799438    0.55000001    2.50000000
   19.55111122  140.13400269    0.55000001    2.50000000
   19.55444336  158.88800049    0.69000000    2.50000000
   19.55749893  139.80099487    0.69000000    2.50000000
   19.56083298  139.36599731    0.73000002    2.50000000
   19.56416512  140.70799255    0.73000002    2.48000002
   19.56722260  145.25700378    0.73000002    2.48000002
   19.57055664  133.55999756    0.73000002    2.50000000
   19.57389069  135.26199341    0.80000001    2.50000000
   19.57694626  130.66299438    0.80000001    2.50000000
   19.58027840  133.04800415    0.80000001    2.50000000
   19.58111191  134.86000061    0.80000001    2.50000000
   19.58666801  134.86000061    0.80000001    2.50000000
   19.59083366  130.57000732    0.80000001    2.50000000
   19.59388924  128.88200378    0.80000001    2.50000000
   19.59722328  132.22200012    0.80000001    2.50000000
   19.60055542  122.88200378    0.80000001    2.50000000
   19.60361099  143.58399963    0.79000002    2.48000002
   19.60694504  124.88200378    0.73000002    2.48000002
   19.61027908  126.88300323    0.73000002    2.48000002
   19.61333466  131.76300049    0.73000002    2.48000002
   19.61444473  135.32699585    0.73000002    2.48000002
   19.61694527  139.39700317    0.73000002    2.48000002
   19.62027740  128.78500366    0.73000002    2.48000002
   19.62361145  127.12200165    0.73000002    2.48000002
   19.62944412  127.12200165    0.64999998    2.48000002
   19.63361168  133.16499329    0.64999998    2.48000002
   19.63694382  136.07800293    0.67000002    2.48000002
   19.63999939  118.73899841    0.67000002    2.48000002
   19.64333344  131.73300171    0.67000002    2.48000002
   19.64666748  129.20599365    0.67000002    2.48000002
   19.64777756  128.66200256    0.67000002    2.48000002
   19.64999962  126.48899841    0.69000000    2.48000002
   19.65333366  132.35200500    0.67000002    2.48000002
   19.65666580  131.72000122    0.69000000    2.46000004
   19.65972137  133.32099915    0.69000000    2.48000002
   19.66305542  126.46199799    0.69000000    2.48000002
   19.66611099  137.83200073    0.69000000    2.48000002
   19.67222214  137.83200073    0.75000000    2.46000004
   19.67638779  142.71000671    0.75000000    2.46000004
   19.67972183  129.74400330    0.73000002    2.46000004
   19.68111038  129.31599426    0.75000000    2.46000004
   19.68333244  134.91799927    0.75000000    2.46000004
   19.68666649  137.66299438    0.75000000    2.46000004
   19.68999863  124.71399689    0.73000002    2.46000004
   19.69305420  127.92600250    0.70999998    2.46000004
   19.69638824  126.34500122    0.69000000    2.46000004
   19.69944382  130.82099915    0.64999998    2.46000004
   19.70277786  124.19100189    0.64999998    2.46000004
   19.70611191  112.61699677    0.64999998    2.46000004
   19.70916748  104.28299713    0.64999998    2.46000004
   19.71527863  104.28299713    0.58999997    2.46000004
   19.71944427   90.38580322    0.61000001    2.46000004
   19.72249985   87.79219818    0.61000001    2.46000004
   19.72583389   95.16410065    0.61000001    2.46000004
   19.72916794  114.95400238    0.61000001    2.46000004
   19.73222351  129.34399414    0.61000001    2.46000004
   19.73555565  184.26699829    0.58999997    2.46000004
   19.73861122   -1.00000000    0.63000000    2.46000004
   19.74194527   -1.00000000    0.63000000    2.46000004
   19.74527740   -1.00000000    0.67000002    2.46000004
   19.77222252   -1.00000000    0.86000001    2.44000006
   19.77555466   -1.00000000    0.86000001    2.44000006
   19.77888870   -1.00000000    0.86000001    2.44000006
   19.78222275   -1.00000000    0.86000001    2.44000006
   19.78555489   -1.00000000    0.86000001    2.46000004
   19.78861046   -1.00000000    0.86000001    2.46000004
   19.79194450   -1.00000000    0.83999997    2.44000006
   19.79500008   -1.00000000    0.83999997    2.44000006
   19.79833221   -1.00000000    0.83999997    2.44000006
   19.80166626   -1.00000000    0.81999999    2.44000006
   19.80472183   -1.00000000    0.83999997    2.44000006
   19.81499863   -1.00000000    0.81999999    2.46000004
   19.81833458   -1.00000000    0.81999999    2.46000004
   19.82166672   -1.00000000    0.81999999    2.46000004
   19.82472229   -1.00000000    0.81999999    2.46000004
   19.82805634   -1.00000000    0.79000002    2.42000008
   19.83139038   -1.00000000    0.79000002    2.42000008
   19.83444595   -1.00000000    0.79000002    2.42000008
   19.83777809   -1.00000000    0.79000002    2.42000008
   19.84083366   -1.00000000    0.79000002    2.42000008
   19.84416771   -1.00000000    0.69000000    2.44000006
   19.84749985   -1.00000000    0.69000000    2.44000006
   19.85805511   -1.00000000    0.67000002    2.44000006
   19.86111069   -1.00000000    0.69000000    2.42000008
   19.86444473   -1.00000000    0.67000002    2.42000008
   19.86777878   -1.00000000    0.67000002    2.42000008
