    HOUR (UT)   FLARE FACTOR    SKY TESTER    SUN TESTER
   11.47777748   -1.00000000   -1.00000000   -1.00000000
   11.56500053   99.13189697    4.90999985    2.40000010
   11.57027817   92.23380280    4.90999985    2.40000010
   11.57361126   91.12599945    4.90999985    2.40000010
   11.57694435   93.83450317    4.90999985    2.42000008
   11.57999992   96.51139832    4.90999985    2.42000008
   11.58472157   92.43810272    4.90999985    2.42000008
   11.58805561   85.98690033    4.90999985    2.42000008
   11.59111118   91.71910095    4.90999985    2.42000008
   11.59444427   97.65959930    4.90999985    2.42000008
   11.59777737   92.57450104    4.90999985    2.44000006
   11.59833336   94.52310181    4.90999985    2.44000006
   11.60111141   94.85559845    4.90999985    2.42000008
   11.60444450   88.53450012    4.90999985    2.42000008
   11.60750008   99.80629730    4.90999985    2.42000008
   11.61083412   90.68759918    4.90999985    2.42000008
   11.61416721   98.51069641    4.90999985    2.44000006
   11.61722279   92.41190338    4.90999985    2.42000008
   11.62055588   87.15519714    4.90999985    2.44000006
   11.62361145   90.49949646    4.90999985    2.44000006
   11.62694454   98.19129944    4.90999985    2.42000008
   11.63027763   94.85079956    4.90999985    2.44000006
   11.63333321   99.98889923    4.90999985    2.44000006
   11.63694477   91.36640167    4.90999985    2.44000006
   11.64027786   91.93800354    4.90999985    2.44000006
   11.64333344  102.14800262    4.90999985    2.44000006
   11.64666653   95.83499908    4.90999985    2.44000006
   11.64833355   98.03500366    4.90999985    2.46000004
   11.65027714  105.00299835    4.90999985    2.44000006
   11.65361118   99.89679718    4.90999985    2.42000008
   11.65694427   90.65019989    4.90999985    2.44000006
   11.65999985   92.20020294    4.90999985    2.44000006
   11.66333294  103.60199738    4.90999985    2.44000006
   11.66638851  105.01200104    4.90999985    2.44000006
   11.66972256  104.18199921    4.90999985    2.44000006
   11.67305565   88.71360016    4.90999985    2.44000006
   11.67611122  100.59799957    4.90999985    2.44000006
   11.67944431   93.01699829    4.90999985    2.44000006
   11.68277836   93.71469879    4.90999985    2.44000006
   11.68611145   91.45939636    4.90999985    2.44000006
   11.68916702  103.62300110    4.90999985    2.44000006
   11.69250011   89.02100372    4.90999985    2.46000004
   11.69583321   94.13240051    4.90999985    2.44000006
   11.69833374   95.09179688    4.90999985    2.44000006
   11.69916630   90.85379791    4.90999985    2.44000006
   11.70249939   99.61170197    4.90999985    2.44000006
   11.70555496   86.85929871    4.90999985    2.44000006
   11.70888901   99.64910126    4.90999985    2.46000004
   11.71222210   97.58959961    4.90999985    2.46000004
   11.71527767  103.45600128    4.90999985    2.46000004
   11.71861076   92.91739655    4.90999985    2.46000004
   11.72194386   86.34269714    4.90999985    2.48000002
   11.72499943   97.20339966    4.90999985    2.48000002
   11.72833252   98.28340149    4.90999985    2.48000002
   11.73138809   92.37059784    4.90999985    2.48000002
   11.73472214   87.96769714    4.90999985    2.46000004
   11.73805618   92.39420319    4.90999985    2.48000002
   11.74111176   90.74030304    4.90999985    2.48000002
   11.74444485   94.25099945    4.90999985    2.48000002
   11.74777794   91.23699951    4.90999985    2.48000002
   11.74833393   98.25879669    4.90999985    2.48000002
   11.75111103   89.80079651    4.90999985    2.48000002
   11.75444412  105.92800140    4.90999985    2.48000002
   11.75777817   97.57430267    4.90999985    2.48000002
   11.76083374   89.41929626    4.90999985    2.50000000
   11.76416683   91.23020172    4.90999985    2.48000002
   11.76722240   84.29949951    4.90999985    2.48000002
   11.77055550   93.41639709    4.90999985    2.48000002
   11.77388859   93.91390228    4.90999985    2.46000004
   11.77694416  101.71299744    4.90999985    2.48000002
   11.78027725   97.47049713    4.90999985    2.48000002
   11.78361130  105.91100311    4.90999985    2.48000002
   11.78666687   99.72190094    4.90999985    2.48000002
   11.79000092  100.75900269    4.90999985    2.48000002
   11.79305553   96.64129639    4.90999985    2.48000002
   11.79638958   90.01100159    4.90999985    2.50000000
   11.79833412  115.37400055    4.90999985    2.50000000
   11.80000019   93.73899841    4.90999985    2.50000000
   11.80333328   94.43710327    4.90999985    2.48000002
   11.80666733   82.75009918    4.90999985    2.50000000
   11.80972195   99.95960236    4.90999985    2.50000000
   11.81305599   92.73699951    4.90999985    2.50000000
   11.81611156   96.51580048    4.90999985    2.50000000
   11.81944466   92.37460327    4.90999985    2.50000000
   11.82277775   91.08589935    4.90999985    2.50000000
   11.82583332  101.07199860    4.90999985    2.50000000
   11.82916641   87.75420380    4.90999985    2.50000000
   11.83249950   94.45159912    4.90999985    2.50000000
   11.83555508   90.36309814    4.90999985    2.48000002
   11.83888817   93.75000000    4.90999985    2.50000000
   11.84222221   99.28459930    4.90999985    2.50000000
   11.84527779   96.80639648    4.90999985    2.50000000
   11.84833336   90.80970001    4.90999985    2.51999998
   11.84916592  100.62000275    4.90999985    2.51999998
   11.85249996   95.38050079    4.90999985    2.50000000
   11.85555553  103.69499969    4.90999985    2.51999998
   11.85888958   95.90560150    4.90999985    2.51999998
   11.86222267   97.79180145    4.90999985    2.51999998
   11.86527824  104.18800354    4.90999985    2.51999998
   11.86861134   95.12310028    4.90999985    2.51999998
   11.87166691  101.26799774    4.90999985    2.51999998
   11.87500000   94.65720367    4.90999985    2.51999998
   11.87833309   91.06099701    4.90999985    2.51999998
   11.88138866   99.20520020    4.90999985    2.51999998
   11.88472176   91.33339691    4.90999985    2.51999998
   11.88777733   92.68499756    4.90999985    2.51999998
   11.89111137   91.58029938    4.90999985    2.53999996
   11.89444447   91.93550110    4.90999985    2.53999996
   11.89750004   98.95999908    4.90999985    2.53999996
   11.89833355   91.68920135    4.90999985    2.53999996
   11.90111065   96.57620239    4.90999985    2.53999996
   11.90444374   90.26380157    4.90999985    2.53999996
   11.90777779   87.45649719    4.90999985    2.53999996
   11.91083336   97.87909698    4.90999985    2.53999996
   11.91416645   88.58260345    4.90999985    2.55999994
   11.91722298   83.32839966    4.90999985    2.53999996
   11.92055607   85.12699890    4.90999985    2.55999994
   11.92388916   91.19709778    4.90999985    2.55999994
   11.92722225   85.53179932    4.90999985    2.55999994
   11.93027782   88.31479645    4.90999985    2.55999994
   11.93361092   93.86920166    4.90999985    2.53999996
   11.93666649   84.87779999    4.90999985    2.55999994
   11.94000053   85.04460144    4.90999985    2.53999996
   11.94333363   87.40940094    4.90999985    2.53999996
   11.94638920   91.37449646    4.90999985    2.55999994
   11.94888878   92.80429840    4.90999985    2.53999996
   11.95083332   81.04699707    4.90999985    2.53999996
   11.95416641   95.18080139    4.90999985    2.55999994
   11.95777798   95.48639679    4.90999985    2.53999996
   11.96111107   88.20649719    4.90999985    2.55999994
   11.96444416   96.11029816    4.90999985    2.55999994
   11.96777725   93.10459900    4.90999985    2.55999994
   11.97111034  100.73999786    4.90999985    2.53999996
   11.97416592   93.53690338    4.90999985    2.55999994
   11.97749996   87.05259705    4.90999985    2.55999994
   11.98083305   91.83750153    4.90999985    2.53999996
   11.98416710   92.51519775    4.90999985    2.55999994
   11.98750019   88.70490265    4.90999985    2.53999996
   11.99055576  106.24099731    4.90999985    2.55999994
   11.99388885  108.37899780    4.90999985    2.53999996
   11.99722290   96.77259827    4.90999985    2.55999994
   11.99833393  102.11299896    4.90999985    2.55999994
   12.00111103   88.96589661    4.90999985    2.55999994
   12.00444412   91.25520325    4.90999985    2.57999992
   12.00777817  103.20899963    4.90999985    2.53999996
   12.01083374   92.77700043    4.90999985    2.57999992
   12.01416683   91.20749664    4.90999985    2.55999994
   12.01722240   89.74069977    4.90999985    2.55999994
   12.02055550   82.57869720    4.90999985    2.55999994
   12.02361107   92.14189911    4.90999985    2.55999994
   12.02694416   85.27380371    4.90999985    2.57999992
   12.03027725   87.04570007    4.90999985    2.57999992
   12.03361130   91.58090210    4.90999985    2.57999992
   12.03666687   97.03250122    4.90999985    2.57999992
   12.04000092   92.43139648    4.90999985    2.57999992
   12.04305553   93.30249786    4.90999985    2.57999992
   12.04638958   84.98000336    4.90999985    2.57999992
   12.04833412   98.44689941    4.90999985    2.57999992
   12.04972267  102.43299866    4.90999985    2.57999992
   12.05305576   76.66649628    4.90999985    2.59999990
   12.05638885   83.50749969    4.90999985    2.57999992
   12.05944443   79.74639893    4.90999985    2.59999990
   12.06277752   96.44400024    4.90999985    2.57999992
   12.06583309   99.14769745    4.90999985    2.59999990
   12.06916618   96.97609711    4.90999985    2.59999990
   12.07222176   96.41470337    4.90999985    2.59999990
   12.07555580   92.87999725    4.90999985    2.59999990
   12.07888889   91.30400085    4.90999985    2.57999992
   12.08222198   94.81880188    4.90999985    2.59999990
   12.08555508   96.53679657    4.90999985    2.59999990
   12.08861065   97.69770050    4.90999985    2.59999990
   12.09194374   99.80799866    4.90999985    2.59999990
   12.09527779   86.45939636    4.90999985    2.59999990
   12.09833336   92.68019867    4.90999985    2.59999990
   12.09888840   98.63259888    4.90999985    2.59999990
   12.10194492   93.47979736    4.90999985    2.59999990
   12.10527802   90.08020020    4.90999985    2.59999990
   12.10833359   91.08950043    4.90999985    2.59999990
   12.11166668   89.51979828    4.90999985    2.61999989
   12.11472225   89.43720245    4.90999985    2.59999990
   12.11805534   84.34559631    4.90999985    2.61999989
   12.12138939   93.49259949    4.90999985    2.61999989
   12.12444496   90.35140228    4.90999985    2.61999989
   12.12777805   83.60720062    4.90999985    2.59999990
   12.13083363   84.34850311    4.90999985    2.59999990
   12.13416672   83.96260071    4.90999985    2.59999990
   12.13749981   82.99120331    4.90999985    2.61999989
   12.14055538   86.67569733    4.90999985    2.59999990
   12.14388847   85.01499939    4.90999985    2.59999990
   12.14694405   88.33689880    4.90999985    2.64000010
   12.14833355   78.77519989    4.90999985    2.61999989
   12.15083313   84.57189941    4.90999985    2.61999989
   12.15388870   83.46119690    4.90999985    2.61999989
   12.15722179   89.06659698    4.90999985    2.61999989
   12.16055489   90.88159943    4.90999985    2.61999989
   12.16361046   87.43370056    4.90999985    2.64000010
   12.16694450   84.09809875    4.90999985    2.61999989
   12.17000008   85.58139801    4.90999985    2.64000010
   12.17333412   91.50980377    4.90999985    2.64000010
   12.17666721   88.90249634    4.90999985    2.64000010
   12.17972279   94.04180145    4.90999985    2.64000010
   12.18305588   84.15339661    4.90999985    2.64000010
   12.18611145   80.81469727    4.90999985    2.61999989
   12.18944454   83.91000366    4.90999985    2.61999989
   12.19277763   89.52649689    4.90999985    2.64000010
   12.19583321   88.21269989    4.90999985    2.64000010
   12.19833374   84.02410126    4.90999985    2.64000010
   12.19972229   93.85679626    4.90999985    2.64000010
   12.20277786   86.85659790    4.90999985    2.64000010
   12.20611095   93.68990326    4.90999985    2.61999989
   12.20916653   83.31189728    4.90999985    2.64000010
   12.21249962   82.72760010    4.90999985    2.64000010
   12.21583271   85.80879974    4.90999985    2.61999989
   12.21888828   89.96170044    4.90999985    2.61999989
   12.22222137   84.91639709    4.90999985    2.64000010
   12.22555542   82.97879791    4.90999985    2.64000010
   12.22861099   92.52069855    4.90999985    2.64000010
   12.23194408   86.61660004    4.90999985    2.64000010
   12.23500061   92.10690308    4.90999985    2.64000010
   12.23833370   86.33190155    4.90999985    2.64000010
   12.24166679   91.74829865    4.90999985    2.66000009
   12.24472237   92.55319977    4.90999985    2.64000010
   12.24805546   93.64569855    4.90999985    2.64000010
   12.24861145   87.07620239    4.90999985    2.66000009
   12.25166702   97.08499908    4.90999985    2.64000010
   12.25500011  100.41200256    4.90999985    2.66000009
   12.25833321   96.71050262    4.90999985    2.64000010
   12.26138878   97.35030365    4.90999985    2.64000010
   12.26472187   91.52230072    4.90999985    2.64000010
   12.26805496   95.94699860    4.90999985    2.64000010
   12.27111053   91.69850159    4.90999985    2.64000010
   12.27444458   99.92269897    4.90999985    2.64000010
   12.27750015   88.51499939    4.90999985    2.66000009
   12.28083324   92.42209625    4.90999985    2.64000010
   12.28416729   91.67089844    4.90999985    2.67000008
   12.28722286   91.83129883    4.90999985    2.66000009
   12.29055595   80.81479645    4.90999985    2.64000010
   12.29388905   95.51869965    4.90999985    2.66000009
   12.29694462   92.25730133    4.90999985    2.66000009
   12.29861164   85.01519775    4.90999985    2.66000009
   12.30083370   97.62020111    4.90999985    2.64000010
   12.30388927   83.84349823    4.90999985    2.67000008
   12.30722237   91.00789642    4.90999985    2.66000009
   12.31027794   92.78489685    4.90999985    2.66000009
   12.31388950   94.10780334    4.90999985    2.66000009
   12.31722260   91.80660248    4.90999985    2.67000008
   12.32027817   88.46399689    4.90999985    2.66000009
   12.32361126   93.76869965    4.90999985    2.64000010
   12.32666683   95.49279785    4.90999985    2.66000009
   12.32999992   90.71050262    4.90999985    2.67000008
   12.33333302   91.28610229    4.90999985    2.66000009
   12.33666611  100.26399994    4.90999985    2.64000010
   12.33972168   86.81009674    4.90999985    2.66000009
   12.34305477   97.26580048    4.90999985    2.67000008
   12.34611034   95.55429840    4.90999985    2.67000008
   12.34861088   95.30770111    4.90999985    2.66000009
   12.35000038   96.13210297    4.90999985    2.67000008
   12.35305595   93.30829620    4.90999985    2.67000008
   12.35638905   97.50900269    4.90999985    2.67000008
   12.35944462   98.58869934    4.90999985    2.66000009
   12.36277771   92.09619904    4.90999985    2.66000009
   12.36611176  100.33999634    4.90999985    2.66000009
   12.36916637   95.28369904    4.90999985    2.67000008
   12.37250042   89.04000092    4.90999985    2.66000009
   12.37583351   78.49240112    4.90999985    2.67000008
   12.37888908   98.65529633    4.90999985    2.67000008
   12.38222218  102.10099792    4.90999985    2.67000008
   12.38527775   94.15149689    4.90999985    2.67000008
   12.38861084  107.33200073    4.90999985    2.67000008
   12.39194393   95.04940033    4.90999985    2.67000008
   12.39499950   86.56690216    4.90999985    2.67000008
   12.39833355   94.62100220    4.90999985    2.67000008
   12.39888859   93.11489868    4.90999985    2.67000008
   12.40194416   97.44470215    4.90999985    2.67000008
   12.40527725  102.23600006    4.90999985    2.69000006
   12.40861034   96.60890198    4.90999985    2.67000008
   12.41166592   97.57129669    4.90999985    2.67000008
   12.41499996   84.47329712    4.90999985    2.67000008
   12.41833401   99.22209930    4.90999985    2.69000006
   12.42138958   91.18830109    4.90999985    2.69000006
   12.42472267   91.25879669    4.90999985    2.67000008
   12.42805576   96.11319733    4.90999985    2.67000008
   12.43111134   95.50659943    4.90999985    2.67000008
   12.43444443   93.70770264    4.90999985    2.71000004
   12.43777752  100.41400146    4.90999985    2.71000004
   12.44083309   93.54250336    4.90999985    2.69000006
   12.44416714   85.87529755    4.90999985    2.69000006
   12.44722271  105.89600372    4.90999985    2.69000006
   12.44888878  103.38600159    4.90999985    2.69000006
   12.45111084   97.17990112    4.90999985    2.69000006
   12.45416641   93.41059875    4.90999985    2.71000004
   12.45749950   91.52089691    4.90999985    2.69000006
   12.46055508   91.64990234    4.90999985    2.71000004
   12.46388912   91.25109863    4.90999985    2.73000002
   12.46722221   88.20359802    4.90999985    2.71000004
   12.47027779   89.66609955    4.90999985    2.71000004
   12.47361088   94.49109650    4.90999985    2.69000006
   12.47694397   92.36830139    4.90999985    2.71000004
   12.47999954   87.11470032    4.90999985    2.69000006
   12.48333359   95.87799835    4.90999985    2.69000006
   12.48638916   99.14769745    4.90999985    2.69000006
   12.48972225  110.27600098    4.90999985    2.69000006
   12.49305534   92.21019745    4.90999985    2.71000004
   12.49611092   93.74099731    4.90999985    2.69000006
   12.49888897  113.02400208    4.90999985    2.69000006
   12.50000000   98.56369781    4.90999985    2.69000006
   12.50305557   97.25859833    4.90999985    2.67000008
   12.50638866  105.70099640    4.90999985    2.69000006
   12.50944424   93.39579773    4.90999985    2.69000006
   12.51277733   96.64050293    4.90999985    2.69000006
   12.51611137   94.34310150    4.90999985    2.69000006
   12.51916599   93.44670105    4.90999985    2.71000004
   12.52250004  101.74700165    4.90999985    2.69000006
   12.52583313   99.34439850    4.90999985    2.71000004
   12.52888870   96.71800232    4.90999985    2.69000006
   12.53222179   95.46179962    4.90999985    2.73000002
   12.53527832   98.72640228    4.90999985    2.71000004
   12.53861141  102.83000183    4.90999985    2.71000004
   12.54194450   99.05030060    4.90999985    2.71000004
   12.54500008   95.02040100    4.90999985    2.71000004
   12.54833412   96.84040070    4.90999985    2.71000004
   12.54888916   94.64530182    4.90999985    2.71000004
   12.55194473   96.47499847    4.90999985    2.71000004
   12.55500031   90.83899689    4.90999985    2.73000002
   12.55833340   92.11509705    4.90999985    2.71000004
   12.56138897   86.43699646    4.90999985    2.73000002
   12.56472206   86.14289856    4.90999985    2.73000002
   12.58444405   92.34120178    4.90999985    2.75000000
   12.58777714   95.08509827    4.90999985    2.71000004
   12.59111118   91.10250092    4.90999985    2.73000002
   12.59416676   97.87290192    4.90999985    2.73000002
   12.59749985  100.35600281    4.90999985    2.73000002
   12.59916592  103.55300140    4.90999985    2.73000002
   12.60083389   96.53369904    4.90999985    2.73000002
   12.60416698  101.64700317    4.90999985    2.73000002
   12.60750008  114.48200226    4.90999985    2.73000002
   12.61055565   98.19619751    4.90999985    2.71000004
   12.61388969   99.91790009    4.90999985    2.71000004
   12.61694431   99.40249634    4.90999985    2.71000004
   12.62027836   87.17790222    4.90999985    2.71000004
   12.62333393   94.23040009    4.90999985    2.71000004
   12.62666702   99.57369995    4.90999985    2.71000004
   12.63000011   98.66819763    4.90999985    2.73000002
   12.63305569   96.99130249    4.90999985    2.71000004
   12.63638878   91.64119720    4.90999985    2.71000004
   12.63944435   87.50749969    4.90999985    2.71000004
   12.64277744   96.16459656    4.90999985    2.71000004
   12.64611053   79.65619659    4.90999985    2.71000004
   12.64916611   96.46749878    4.90999985    2.73000002
   12.64944458   91.35620117    4.90999985    2.73000002
   12.65277767   87.85169983    4.90999985    2.71000004
   12.65611076   91.29910278    4.90999985    2.71000004
   12.65916634   83.71170044    4.90999985    2.73000002
   12.66249943   94.74819946    4.90999985    2.71000004
   12.66583252   85.19159698    4.90999985    2.71000004
   12.66888905   87.76760101    4.90999985    2.71000004
   12.67222214   97.03679657    4.90999985    2.73000002
   12.67527771   96.87249756    4.90999985    2.71000004
   12.67861176   88.46610260    4.90999985    2.71000004
   12.68166733   87.07299805    4.90999985    2.71000004
   12.68500042   90.49060059    4.90999985    2.73000002
   12.68833351   83.39140320    4.90999985    2.71000004
   12.69138908  102.19200134    4.90999985    2.73000002
   12.69472218   93.26309967    4.90999985    2.75000000
   12.69777775   84.20780182    4.90999985    2.75000000
   12.69916630   86.32309723    4.90999985    2.75000000
   12.70166683   85.96579742    4.90999985    2.75000000
   12.70499992   97.97329712    4.90999985    2.75000000
   12.70805550   96.80840302    4.90999985    2.75000000
   12.71194458   93.60459900    4.90999985    2.73000002
   12.71527767  105.61299896    4.90999985    2.75000000
   12.71861076   92.65969849    4.90999985    2.73000002
   12.72194386   90.34860229    4.90999985    2.71000004
   12.72555542   87.03610229    4.90999985    2.71000004
   12.72888851   99.46209717    4.90999985    2.73000002
   12.73222160   90.22540283    4.90999985    2.71000004
   12.73555565  100.12300110    4.90999985    2.75000000
   12.73861122   90.72270203    4.90999985    2.75000000
   12.74194431   86.11710358    4.90999985    2.73000002
   12.74527836   93.81999969    4.90999985    2.75000000
   12.74861145   93.98249817    4.90999985    2.75000000
   12.74916649   85.12210083    4.90999985    2.73000002
   12.75222206   90.36959839    4.90999985    2.75000000
   12.75527763   89.57810211    4.90999985    2.75000000
   12.75861073   84.36009979    4.90999985    2.76999998
   12.76194477   97.94920349    4.90999985    2.75000000
   12.76500034   94.17079926    4.90999985    2.73000002
   12.76833344   93.46080017    4.90999985    2.75000000
   12.77166653   92.36119843    4.90999985    2.75000000
   12.77472210   89.61889648    4.90999985    2.75000000
   12.77805519   87.06610107    4.90999985    2.75000000
   12.78138828   95.42179871    4.90999985    2.78999996
   12.78472233   94.98650360    4.90999985    2.75000000
   12.78805637   96.96179962    4.90999985    2.75000000
   12.79138947  102.58200073    4.90999985    2.76999998
   12.79472256   92.83740234    4.90999985    2.76999998
   12.79805565   80.44740295    4.90999985    2.75000000
   12.80055618   86.02269745    4.90999985    2.75000000
   12.80361176   85.87650299    4.90999985    2.76999998
   12.80722237   88.94100189    4.90999985    2.75000000
   12.81083393   89.54280090    4.90999985    2.78999996
   12.81444454   96.60320282    4.90999985    2.76999998
   12.81833363   91.68990326    4.90999985    2.76999998
   12.82194424   89.15200043    4.90999985    2.76999998
   12.82555580   90.15809631    4.90999985    2.78999996
   12.82944393   90.80419922    4.90999985    2.75000000
   12.83305550   93.49710083    4.90999985    2.75000000
   12.83611107   84.20179749    4.90999985    2.76999998
   12.83944416   97.97149658    4.90999985    2.76999998
   12.84249973   86.53579712    4.90999985    2.76999998
   12.84638882   95.22170258    4.90999985    2.78999996
   12.84916592   97.01689911    4.90999985    2.76999998
   12.85000038   97.16380310    4.90999985    2.76999998
   12.85333347   91.85910034    4.90999985    2.76999998
   12.85638905  101.06300354    4.90999985    2.78999996
   12.85972214   94.23149872    4.90999985    2.78999996
   12.86305618   87.25890350    4.90999985    2.76999998
   12.86611176   85.37969971    4.90999985    2.78999996
   12.86944485   93.87640381    4.90999985    2.78999996
   12.87277794   85.50240326    4.90999985    2.76999998
   12.87583351   92.66169739    4.90999985    2.76999998
   12.87916660   90.56880188    4.90999985    2.78999996
   12.88249969   90.78440094    4.90999985    2.78999996
   12.88583279   88.29350281    4.90999985    2.80999994
   12.88916683   89.28019714    4.90999985    2.78999996
   12.89249992   95.16549683    4.90999985    2.78999996
   12.89555550   88.01239777    4.90999985    2.78999996
   12.89888859   88.65219879    4.90999985    2.78999996
   12.89944458   87.99610138    4.90999985    2.78999996
   12.90249920  102.04100037    4.90999985    2.78999996
   12.90583324   86.12789917    4.90999985    2.78999996
   12.90916634   92.00749969    4.90999985    2.78999996
   12.91222191   93.78739929    4.90999985    2.78999996
   12.91555500   96.56490326    4.90999985    2.78999996
   12.91888905   88.75009918    4.90999985    2.78999996
   12.92194462   96.51830292    4.90999985    2.78999996
   12.92527771   92.83640289    4.90999985    2.78999996
   12.92833328   94.82270050    4.90999985    2.78999996
   12.93166733   95.03379822    4.90999985    2.78999996
   12.93500042   99.65740204    4.90999985    2.78999996
   12.93805599   93.34200287    4.90999985    2.78999996
   12.94138908   95.03309631    4.90999985    2.76999998
   12.94444466   97.02349854    4.90999985    2.78999996
   12.94777775  103.57599640    4.90999985    2.80999994
   12.94944477   90.74810028    4.90999985    2.78999996
   12.95138836   80.15609741    4.90999985    2.80999994
   12.95444393   86.06320190    4.90999985    2.78999996
   12.95777798   95.91510010    4.90999985    2.78999996
   12.96083355   84.86170197    4.90999985    2.78999996
   12.96416664   85.57800293    4.90999985    2.76999998
   12.96749973   85.61730194    4.90999985    2.78999996
   12.97055531  101.24500275    4.90999985    2.78999996
   12.97388840   88.46910095    4.90999985    2.80999994
   12.97722149   92.22959900    4.90999985    2.78999996
   12.98055553   83.09850311    4.90999985    2.78999996
   12.98361111   87.76529694    4.90999985    2.78999996
   12.98694515   95.19259644    4.90999985    2.80999994
   12.99000072   86.73020172    4.90999985    2.78999996
   12.99333382   88.29959869    4.90999985    2.80999994
   12.99666691   93.37349701    4.90999985    2.80999994
   12.99944496   86.45269775    4.90999985    2.78999996
   13.00027752   86.54789734    4.90999985    2.80999994
   13.00333309   91.97940063    4.90999985    2.82999992
   13.00666714   83.38420105    4.90999985    2.82999992
   13.00972176   85.11990356    4.90999985    2.82999992
   13.01305580   81.67019653    4.90999985    2.84999990
   13.01638889   90.43579865    4.90999985    2.84999990
   13.01944447   86.92849731    4.90999985    2.86999989
   13.02277756   82.84429932    4.90999985    2.84999990
   13.02583313   88.70580292    4.90999985    2.86999989
   13.02916622   96.51480103    4.90999985    2.86999989
   13.03249931   90.14250183    4.90999985    2.84999990
   13.03611183  105.19899750    4.90999985    2.84999990
   13.03944492   96.88349915    4.90999985    2.86999989
   13.04250050   93.38800049    4.90999985    2.84999990
   13.04583359   96.36579895    4.90999985    2.84999990
   13.04916668   93.28179932    4.90999985    2.82999992
   13.04972267  104.77799988    4.90999985    2.84999990
   13.05249977   92.37729645    4.90999985    2.84999990
   13.05583382   99.78420258    4.90999985    2.84999990
   13.05888939   94.33439636    4.90999985    2.84999990
   13.06222248   93.25180054    4.90999985    2.84999990
   13.06555557  100.31600189    4.90999985    2.84999990
   13.06861115   99.12670135    4.90999985    2.84999990
   13.07194424  100.86199951    4.90999985    2.84999990
   13.07499981   91.83180237    4.90999985    2.84999990
   13.07833290   88.78099823    4.90999985    2.82999992
   13.08166695   91.20339966    4.90999985    2.82999992
   13.08472157   83.31870270    4.90999985    2.82999992
   13.08805561   97.04470062    4.90999985    2.82999992
   13.09111118   92.99120331    4.90999985    2.82999992
   13.09444427   93.59310150    4.90999985    2.82999992
   13.09777737   93.88890076    4.90999985    2.84999990
   13.09972191  103.39600372    4.90999985    2.82999992
   13.10138893  101.75000000    4.90999985    2.82999992
   13.10472298   99.01789856    4.90999985    2.82999992
   13.10805607   94.51999664    4.90999985    2.82999992
   13.11138916   93.31890106    4.90999985    2.84999990
   13.11472225  101.13999939    4.90999985    2.82999992
   13.11777782   89.46690369    4.90999985    2.84999990
   13.12111092   91.68049622    4.90999985    2.82999992
   13.12444496   83.15119934    4.90999985    2.82999992
   13.12750053   86.39959717    4.90999985    2.82999992
   13.13083363   88.35540009    4.90999985    2.82999992
   13.13416672   82.62850189    4.90999985    2.84999990
   13.13722229   83.81500244    4.90999985    2.82999992
   13.14055538   88.58460236    4.90999985    2.82999992
   13.14388847   93.40709686    4.90999985    2.82999992
   13.14694405   93.11779785    4.90999985    2.82999992
   13.14972210  101.08499908    4.90999985    2.84999990
   13.15055561   92.64910126    4.90999985    2.82999992
   13.15388870   75.91500092    4.90999985    2.82999992
   13.15722179   94.15879822    4.90999985    2.84999990
   13.16027737   92.71730042    4.90999985    2.82999992
   13.16361046   93.25620270    4.90999985    2.82999992
   13.16666698   92.01409912    4.90999985    2.82999992
   13.17000008   82.63369751    4.90999985    2.82999992
   13.17333412   97.50409698    4.90999985    2.82999992
   13.17666721   86.28459930    4.90999985    2.82999992
   13.17972279   85.73130035    4.90999985    2.82999992
   13.18305588   93.52169800    4.90999985    2.78999996
   13.18638897   89.96779633    4.90999985    2.82999992
   13.18944454   80.76349640    4.90999985    2.82999992
   13.19277763   93.94100189    4.90999985    2.82999992
   13.19583321   91.32540131    4.90999985    2.82999992
   13.19916630   90.37870026    4.90999985    2.82999992
   13.19972229   92.31120300    4.90999985    2.84999990
   13.20249939   91.97709656    4.90999985    2.82999992
   13.20583344   78.45790100    4.90999985    2.84999990
   13.20916653   84.50879669    4.90999985    2.82999992
   13.21222210   78.30410004    4.90999985    2.82999992
   13.21555519   82.25720215    4.90999985    2.82999992
   13.21888828   79.59049988    4.90999985    2.82999992
   13.22194386   86.53309631    4.90999985    2.82999992
   13.22527695   90.21779633    4.90999985    2.82999992
   13.22861099   82.26260376    4.90999985    2.82999992
   13.23166656   95.08460236    4.90999985    2.82999992
   13.23500061   86.94629669    4.90999985    2.82999992
   13.23805618   87.44930267    4.90999985    2.82999992
   13.24138927   83.95999908    4.90999985    2.82999992
   13.24472237   82.43759918    4.90999985    2.84999990
   13.24777794   88.66249847    4.90999985    2.82999992
   13.24972248   81.24250031    4.90999985    2.84999990
   13.25166702   87.96540070    4.90999985    2.82999992
   13.25472260   92.30879974    4.90999985    2.84999990
   13.25805569   87.77359772    4.90999985    2.84999990
   13.26111126   88.56569672    4.90999985    2.82999992
   13.26444435   92.83229828    4.90999985    2.84999990
   13.26777744   95.38110352    4.90999985    2.82999992
   13.27083302   83.42980194    4.90999985    2.82999992
   13.27416611   87.58059692    4.90999985    2.84999990
   13.27722168   92.37319946    4.90999985    2.84999990
   13.28055573   86.16149902    4.90999985    2.84999990
   13.28388977   93.51920319    4.90999985    2.82999992
   13.28694534   93.10449982    4.90999985    2.84999990
   13.29027843  103.78299713    4.90999985    2.82999992
   13.29333401   95.57450104    4.90999985    2.84999990
   13.29666710  101.22799683    4.90999985    2.82999992
   13.29972267  100.87899780    4.90999985    2.82999992
   13.30027771   98.71309662    4.90999985    2.84999990
   13.30361176   87.70999908    4.90999985    2.84999990
   13.30694485   91.69020081    4.90999985    2.82999992
   13.31000042   91.41750336    4.90999985    2.82999992
   13.31333351  101.25000000    4.90999985    2.84999990
   13.31666660   92.00740051    4.90999985    2.84999990
   13.31972218   90.00250244    4.90999985    2.84999990
   13.32305527   83.55870056    4.90999985    2.82999992
   13.32638836   86.47180176    4.90999985    2.82999992
   13.32944393   92.33260345    4.90999985    2.82999992
   13.33277798   97.25630188    4.90999985    2.82999992
   13.33583260   99.20050049    4.90999985    2.82999992
   13.33916664   88.19490051    4.90999985    2.82999992
   13.34249973   92.88200378    4.90999985    2.84999990
   13.34555531   84.14170074    4.90999985    2.82999992
   13.34888840   94.64330292    4.90999985    2.82999992
   13.34972191   81.41320038    4.90999985    2.82999992
   13.35249996   92.47609711    4.90999985    2.82999992
   13.35555553   92.81240082    4.90999985    2.84999990
   13.35888958   79.29290009    4.90999985    2.84999990
   13.36194515   89.63520050    4.90999985    2.82999992
   13.36527824   95.65059662    4.90999985    2.84999990
   13.36861134   96.29280090    4.90999985    2.82999992
   13.37166691   84.60469818    4.90999985    2.82999992
   13.37500000   83.52690125    4.90999985    2.82999992
   13.37833309   76.09909821    4.90999985    2.82999992
   13.38138866  102.27200317    4.90999985    2.82999992
   13.38472176   88.36889648    4.90999985    2.84999990
   13.38777733   90.92479706    4.90999985    2.84999990
   13.39111137   89.88749695    4.90999985    2.84999990
   13.39444447   93.51080322    4.90999985    2.86999989
   13.39750004   89.14289856    4.90999985    2.86999989
   13.39972210   87.43569946    4.90999985    2.86999989
   13.40138817   93.53430176    4.90999985    2.86999989
   13.40444374   95.98590088    4.90999985    2.86999989
   13.40777779   80.22160339    4.90999985    2.86999989
   13.41111088   84.35500336    4.90999985    2.91000009
   13.41444397   95.22750092    4.90999985    2.89000010
   13.41750050   92.25779724    4.90999985    2.89000010
   13.42083359   92.86699677    4.90999985    2.89000010
   13.42416668   90.95110321    4.90999985    2.89000010
   13.42722225   96.01779938    4.90999985    2.89000010
   13.43055630   96.59899902    4.90999985    2.89000010
   13.43361092   86.44390106    4.90999985    2.89000010
   13.43694496   94.61109924    4.90999985    2.89000010
   13.44027805   92.24430084    4.90999985    2.86999989
   13.44333363   86.08589935    4.90999985    2.84999990
   13.44666672   86.76049805    4.90999985    2.91000009
   13.44972229   88.01020050    4.90999985    2.91000009
   13.45027733   89.04010010    4.90999985    2.91000009
   13.45333290   89.96430206    4.90999985    2.91000009
   13.45666695   92.41960144    4.90999985    2.89000010
   13.45972157   86.46839905    4.90999985    2.89000010
   13.46305561  102.30300140    4.90999985    2.86999989
   13.46638870   93.16349792    4.90999985    2.86999989
   13.46944427  100.00900269    4.90999985    2.84999990
   13.47277737   93.55259705    4.90999985    2.86999989
   13.47583294  103.85900116    4.90999985    2.86999989
   13.47916603   94.70909882    4.90999985    2.86999989
   13.48249912   86.82949829    4.90999985    2.89000010
   13.48555565   98.00789642    4.90999985    2.91000009
   13.48888874   94.44349670    4.90999985    2.89000010
   13.49222279   93.26480103    4.90999985    2.86999989
   13.49527836   98.17430115    4.90999985    2.89000010
   13.49861145   90.29100037    4.90999985    2.89000010
   13.49972248   96.76550293    4.90999985    2.89000010
   13.50222206   93.29109955    4.90999985    2.86999989
   13.50527763   72.26029968    4.90999985    2.86999989
   13.50861073   96.19519806    4.90999985    2.86999989
   13.51166630   98.04969788    4.90999985    2.86999989
   13.51500034   99.13159943    4.90999985    2.86999989
   13.51833344   90.12539673    4.90999985    2.89000010
   13.52138901   85.72450256    4.90999985    2.86999989
   13.52472210   98.03610229    4.90999985    2.89000010
   13.52805519   95.63189697    4.90999985    2.89000010
   13.53111076   99.02570343    4.90999985    2.86999989
   13.53444481   96.54450226    4.90999985    2.86999989
   13.53750038  102.32099915    4.90999985    2.86999989
   13.54083347   91.40779877    4.90999985    2.86999989
   13.54416752  100.10800171    4.90999985    2.86999989
   13.54722309   97.34010315    4.90999985    2.86999989
   13.54972267   93.81330109    4.90999985    2.89000010
   13.55111122   85.02809906    4.90999985    2.86999989
   13.55416679  104.83999634    4.90999985    2.89000010
   13.55749989   95.37969971    4.90999985    2.89000010
   13.56083393   95.89689636    4.90999985    2.89000010
   13.56416702   91.27469635    4.90999985    2.86999989
   13.56722260   88.93479919    4.90999985    2.89000010
   13.57055569   94.89080048    4.90999985    2.89000010
   13.57444477   92.22319794    4.90999985    2.91000009
   13.57750034   85.88860321    4.90999985    2.89000010
   13.58111095   86.07420349    4.90999985    2.89000010
   13.60000038   97.76249695    4.84999990    2.93000007
   13.60138893   98.34420013    4.86999989    2.93000007
   13.60444450   94.89820099    4.90999985    2.91000009
   13.60777855  104.72599792    4.90999985    2.91000009
   13.61111164   98.93160248    4.90999985    2.91000009
   13.61416721   95.80370331    4.90999985    2.91000009
   13.61750031   98.05719757    4.90999985    2.91000009
   13.62055588   95.66829681    4.90999985    2.93000007
   13.62388897   84.80310059    4.90999985    2.91000009
   13.62722206   92.84239960    4.90999985    2.91000009
   13.63027763  104.56800079    4.90999985    2.91000009
   13.63361073   97.62129974    4.90999985    2.89000010
   13.63694477  100.73500061    4.90999985    2.91000009
   13.64000034   93.27719879    4.90999985    2.91000009
   13.64333344   99.97339630    4.90999985    2.86999989
   13.64638901   90.11900330    4.90999985    2.86999989
   13.64972210   91.90640259    4.90999985    2.89000010
   13.65027714   97.26889801    4.90999985    2.89000010
   13.65361118   88.51809692    4.90999985    2.91000009
   13.65666676   97.04419708    4.90999985    2.89000010
   13.65999985   85.38849640    4.90999985    2.91000009
   13.66305542   78.28530121    4.90999985    2.91000009
   13.66638851   90.33229828    4.90999985    2.91000009
   13.66972256   94.28340149    4.90999985    2.91000009
   13.67277813   91.74469757    4.90999985    2.89000010
   13.67611122   93.96029663    4.90999985    2.89000010
   13.67944431   93.02780151    4.90999985    2.86999989
   13.68249989   96.90000153    4.90999985    2.86999989
   13.68583298   95.25150299    4.90999985    2.89000010
   13.68916702   92.04060364    4.90999985    2.89000010
   13.69222260   93.48149872    4.90999985    2.86999989
   13.69555569   88.30699921    4.90999985    2.89000010
   13.69888878  101.10199738    4.90999985    2.91000009
   13.70027733   78.16989899    4.90999985    2.91000009
   13.70249939   79.25309753    4.90999985    2.91000009
   13.70555496   93.22489929    4.90999985    2.91000009
   13.70888901   99.46779633    4.90999985    2.93000007
   13.71222210   76.74939728    4.90999985    2.89000010
   13.71527767   81.12359619    4.90999985    2.89000010
   13.71861076   79.07849884    4.90999985    2.91000009
   13.72166634   91.96450043    4.90999985    2.89000010
   13.72499943   89.92250061    4.90999985    2.91000009
   13.72833252   81.25530243    4.90999985    2.91000009
   13.73138809   87.75209808    4.90999985    2.91000009
   13.73472214   84.83760071    4.90999985    2.91000009
   13.73805618   92.07510376    4.90999985    2.93000007
   13.74111176   74.99150085    4.90999985    2.93000007
   13.74444485   88.16020203    4.90999985    2.91000009
   13.74750042   86.30339813    4.90999985    2.91000009
   13.75027752   87.44439697    4.90999985    2.91000009
   13.75138855   91.10260010    4.90999985    2.91000009
   13.75444412   85.25019836    4.90999985    2.91000009
   13.75777817  100.90699768    4.90999985    2.93000007
   13.76111126   88.75109863    4.90999985    2.91000009
   13.76416683   87.08660126    4.90999985    2.89000010
   13.76749992   96.65640259    4.90999985    2.91000009
   13.77055550   95.27570343    4.90999985    2.91000009
   13.77388859   86.68129730    4.90999985    2.89000010
   13.77722168   93.83989716    4.90999985    2.91000009
   13.78027725   88.51219940    4.90999985    2.91000009
   13.89305496   -1.00000000   -1.00000000   -1.00000000
   13.99277782   -1.00000000   -1.00000000   -1.00000000
   14.09055519   -1.00000000   -1.00000000   -1.00000000
   14.18611145   -1.00000000   -1.00000000   -1.00000000
   14.28083324   -1.00000000   -1.00000000   -1.00000000
   14.38888836   -1.00000000   -1.00000000   -1.00000000
   14.48444462   -1.00000000   -1.00000000   -1.00000000
   14.58138847   -1.00000000   -1.00000000   -1.00000000
   14.68361092   -1.00000000   -1.00000000   -1.00000000
   14.72749996   64.58950043    3.99000001    3.00000000
   14.73055553   87.60440063    3.84999990    2.98000002
   14.73388958   82.30339813    3.91000009    2.98000002
   14.73722267   78.91619873    3.97000003    3.00000000
   14.74027824   89.62580109    4.01999998    2.98000002
   14.74361134   98.64320374    4.03999996    2.98000002
   14.74694443   86.64939880    4.01999998    2.98000002
   14.75000000   91.20030212    4.05999994    2.98000002
   14.75611115   91.20030212    3.97000003    3.00000000
   14.76027775   97.68800354    3.93000007    2.98000002
   14.76333332   88.02919769    3.82999992    2.98000002
   14.76666641   89.38410187    3.76999998    3.00000000
   14.76972198  100.15100098    3.70000005    3.00000000
   14.77305508   96.12779999    3.72000003    3.00000000
   14.77638817   85.29530334    3.68000007    3.00000000
   14.77750015   92.95919800    3.66000009    3.00000000
   14.77972221   91.64790344    3.61999989    3.01999998
   14.78305531   87.20439911    3.55999994    2.98000002
   14.78638935   86.01550293    3.46000004    3.00000000
   14.78944492   87.58409882    3.50000000    3.00000000
   14.79277802   89.23220062    3.64000010    3.00000000
   14.79611111   84.46669769    3.64000010    2.98000002
   14.79916668   80.15080261    3.51999998    3.01999998
   14.80277824   89.75610352    3.48000002    3.00000000
   14.80722237   89.75610352    3.43000007    3.00000000
   14.81138897   93.98470306    3.26999998    3.01999998
   14.81472206   91.32859802    3.14000010    3.01999998
   14.81777763   85.30719757    3.11999989    3.01999998
   14.82111073   88.51110077    3.14000010    3.01999998
   14.82444477   87.34279633    3.30999994    3.01999998
   14.82750034   98.75460052    3.26999998    3.01999998
   14.82777786   90.13110352    3.26999998    3.01999998
   14.83111095   98.68499756    3.11999989    3.01999998
   14.83444405   91.99459839    3.03999996    3.01999998
   14.83749962   95.38480377    3.00000000    3.01999998
   14.84083271   80.93329620    3.01999998    3.01999998
   14.84416676   90.56860352    2.98000002    3.03999996
   14.84722233   87.21209717    3.00000000    3.01999998
   14.85055637   90.71140289    3.05999994    3.01999998
   14.85361195   88.56500244    3.00000000    3.01999998
   14.85833359   88.56500244    2.98000002    3.01999998
   14.86250019   84.60230255    2.98000002    3.01999998
   14.86583328   95.61830139    2.94000006    3.01999998
   14.86888885   88.09149933    2.91000009    3.01999998
   14.87222195   90.05919647    2.91000009    3.01999998
   14.87555599   91.54190063    2.96000004    3.03999996
   14.87750053   87.59590149    2.96000004    3.01999998
   14.87888908   86.30410004    2.98000002    3.01999998
   14.88222218   90.87310028    3.00000000    3.01999998
   14.88555527   86.43260193    3.05999994    3.01999998
   14.88861084   92.92600250    3.07999992    3.01999998
   14.89194393   96.60900116    3.03999996    3.01999998
   14.89527798   85.03089905    3.01999998    3.01999998
   14.89833355   92.98149872    2.94000006    3.01999998
   14.90166664   90.45739746    2.91000009    3.03999996
   14.90472221   93.69550323    2.93000007    3.01999998
   14.90972137   93.69550323    3.00000000    3.03999996
   14.91361046   87.95439911    3.01999998    3.01999998
   14.91694450   88.28150177    3.00000000    3.01999998
   14.92027855   93.50579834    3.00000000    3.01999998
   14.92333412   85.31009674    3.00000000    3.01999998
   14.92666721   85.34600067    2.94000006    3.01999998
   14.92750072   88.20639801    2.91000009    3.01999998
   14.93055630   80.44249725    2.82999992    3.01999998
   14.93361092   84.06020355    2.80999994    3.01999998
   14.93694496   81.24299622    2.84999990    3.01999998
   14.94000053   90.33429718    2.84999990    3.03999996
   14.94333363   81.91729736    2.82999992    3.03999996
   14.94666672   83.78890228    2.80999994    3.03999996
   14.94972229   82.47650146    2.78999996    3.03999996
   14.95305538   88.01950073    2.78999996    3.01999998
   14.95638847   94.83480072    2.73000002    3.03999996
   14.96083355   94.83480072    2.73000002    3.03999996
   14.96500015   87.18669891    2.73000002    3.01999998
   14.96805477   92.33260345    2.75000000    3.03999996
   14.97138882   90.03330231    2.75000000    3.01999998
   14.97472191   89.14469910    2.69000006    3.03999996
   14.97749996   90.94969940    2.71000004    3.03999996
   14.97833252   84.22540283    2.71000004    3.01999998
   14.98138809   91.04239655    2.78999996    3.03999996
   14.98472214   84.68289948    2.80999994    3.01999998
   14.98805618   85.28910065    2.82999992    3.01999998
   14.99111176   74.87439728    2.89000010    3.01999998
   14.99444485   87.92109680    2.94000006    3.03999996
   14.99750042   81.57800293    3.07999992    3.01999998
   15.00083351   81.66459656    3.11999989    3.01999998
   15.00416660   82.23410034    3.16000009    3.01999998
   15.00722218   86.25289917    3.11999989    3.01999998
   15.01194477   86.25289917    3.07999992    3.03999996
   15.01611137   86.59149933    3.09999990    3.01999998
   15.01944447   88.95950317    3.09999990    3.01999998
   15.02250004   90.10489655    3.09999990    3.01999998
   15.02583313   96.09020233    3.07999992    3.01999998
   15.02750015   93.75550079    3.07999992    3.01999998
   15.02972221   86.91590118    3.11999989    3.03999996
   15.03277779   85.50869751    3.16000009    3.01999998
   15.03611183   79.14540100    3.14000010    3.01999998
   15.03944492   86.41999817    3.09999990    3.01999998
   15.04250050   90.80069733    3.11999989    3.01999998
   15.04583359   80.08860016    3.16000009    3.03999996
   15.04888916   79.79309845    3.25000000    3.03999996
   15.05222225   91.82579803    3.34999990    3.01999998
   15.05555534   75.66359711    3.50000000    3.01999998
   15.05861092   92.25920105    3.57999992    3.01999998
   15.06305599   92.25920105    3.70000005    3.00000000
   15.06722260   92.22949982    3.75000000    3.00000000
   15.07055569   93.02239990    3.73000002    3.00000000
   15.07388878   90.90249634    3.68000007    3.01999998
   15.07722187   88.02189636    3.57999992    3.01999998
   15.07777786   88.70520020    3.57999992    3.00000000
   15.08055592   79.83509827    3.59999990    3.01999998
   15.08388901   89.74990082    3.61999989    3.01999998
   15.08694458   91.88089752    3.61999989    3.01999998
   15.09027767   86.17449951    3.59999990    3.01999998
   15.09361076   88.07430267    3.59999990    3.01999998
   15.09666634   90.53900146    3.59999990    3.01999998
   15.10000038   79.04039764    3.61999989    3.01999998
   15.10333347   85.17310333    3.66000009    3.01999998
   15.10638905   79.48940277    3.66000009    3.01999998
   15.10972214   84.86650085    3.68000007    3.01999998
   15.11444473   84.86650085    3.72000003    3.01999998
   15.11833382   85.67150116    3.73000002    3.01999998
   15.12166691   81.51509857    3.73000002    3.01999998
   15.12500000   76.85430145    3.75000000    3.01999998
   15.12777805   92.32489777    3.76999998    3.01999998
   15.12861156   96.29209900    3.76999998    3.03999996
   15.13194466   92.67430115    3.78999996    3.01999998
   15.13500023   88.76480103    3.86999989    3.01999998
   15.13833332   80.53469849    3.93000007    3.00000000
   15.14166641   78.67199707    3.97000003    3.00000000
   15.14472198   77.76719666    4.00000000    3.01999998
   15.14805508   85.19409943    4.05999994    3.00000000
   15.15111065   81.45970154    4.11999989    3.00000000
   15.15444374   85.43990326    4.17999983    3.01999998
   15.15777779   77.99369812    4.17999983    3.00000000
   15.16083336   82.29900360    4.23999977    3.01999998
   15.16555500   82.29900360    4.28999996    3.00000000
   15.16972256   76.46530151    4.30999994    3.00000000
   15.17277813   87.93740082    4.32999992    3.01999998
   15.17611122   82.54669952    4.34999990    3.00000000
   15.17777824   86.56569672    4.34999990    3.00000000
   15.17972279   84.31279755    4.34999990    3.00000000
   15.18305588   84.54129791    4.34999990    3.00000000
   15.18611145   82.80090332    4.36999989    2.98000002
   15.18944454   80.38899994    4.34999990    3.00000000
   15.19277763   80.01650238    4.36999989    3.01999998
   15.19583321   86.35949707    4.34999990    3.00000000
   15.19916630   87.79060364    4.30999994    3.01999998
   15.20249939   74.59239960    4.28999996    2.98000002
   15.20555496   77.30549622    4.34999990    2.98000002
   15.20888901   79.30850220    4.38999987    3.00000000
   15.21194458   79.34700012    4.34999990    3.00000000
   15.21666622   79.34700012    4.30999994    3.00000000
   15.22083282   93.72109985    4.28999996    3.00000000
   15.22416592   79.69409943    4.30999994    3.01999998
   15.22722149   87.67359924    4.30999994    3.01999998
   15.22777748   89.29499817    4.32999992    3.00000000
   15.23083305   95.63140106    4.32999992    3.00000000
   15.23416710   98.99970245    4.32999992    2.98000002
   15.23722267   87.59510040    4.34999990    3.00000000
   15.24055576   77.32219696    4.38999987    3.01999998
   15.24388885   91.05919647    4.40999985    3.00000000
   15.24694443   87.16790009    4.44999981    2.98000002
   15.25027752   87.62830353    4.44999981    3.01999998
   15.25333309   89.91210175    4.48999977    3.01999998
   15.25666714   96.63549805    4.48999977    3.00000000
   15.26000023  100.13700104    4.51000023    3.00000000
   15.26305580   96.45429993    4.53000021    3.00000000
   15.26777744   96.45429993    4.57999992    3.01999998
   15.27222157   92.85890198    4.59999990    3.00000000
   15.27555561   90.66280365    4.59999990    2.98000002
   15.27777767   88.66439819    4.61999989    3.00000000
   15.27916622   93.57180023    4.61999989    2.98000002
   15.28222179   94.54709625    4.69999981    3.00000000
   15.28555584   83.16230011    4.78000021    2.98000002
   15.28888893   89.52149963    4.65999985    2.98000002
   15.29194450   90.15470123    4.61999989    2.98000002
   15.29527855   89.41809845    4.59999990    2.98000002
   15.29833412   96.66750336    4.55999994    3.00000000
   15.30166721   97.69290161    4.53999996    3.00000000
   15.30500031   89.92579651    4.53999996    2.98000002
   15.30833340   88.63110352    4.53000021    3.00000000
   15.31138897   92.45939636    4.51000023    3.00000000
   15.31472206   87.97019958    4.46999979    3.00000000
   15.31916618   87.97019958    4.36999989    3.00000000
   15.32305527   88.52130127    4.28999996    3.01999998
   15.32638836   92.52860260    4.32999992    3.00000000
   15.32777786   91.66670227    4.30999994    3.00000000
   15.32999992   92.35479736    4.32999992    3.00000000
   15.33333302   88.12989807    4.32999992    3.00000000
   15.33638859   94.38729858    4.32999992    3.01999998
   15.33972168   90.20570374    4.32999992    3.01999998
   15.34305477   84.56800079    4.38999987    3.00000000
   15.34611034   84.15560150    4.40999985    3.00000000
   15.34944439   89.47730255    4.44999981    3.00000000
   15.35277843   81.26619720    4.44999981    2.98000002
   15.35638905   83.53029633    4.44999981    3.00000000
   15.35972214   93.79810333    4.46999979    3.01999998
   15.36277771   80.65850067    4.46999979    3.00000000
   15.36611176   80.09860229    4.44999981    2.98000002
   15.37027836   80.09860229    4.42999983    3.00000000
   15.37472248   89.81980133    4.48999977    3.00000000
   15.37777805   83.34130096    4.53999996    3.00000000
   15.37833309   79.56860352    4.53999996    3.00000000
   15.38138866   83.02320099    4.53000021    3.00000000
   15.38472176   77.44629669    4.53000021    3.00000000
   15.38805580   80.89730072    4.53999996    3.00000000
   15.39138889   84.69750214    4.55999994    3.00000000
   15.39444447   80.57180023    4.57999992    3.00000000
   15.39777756   76.43409729    4.61999989    2.98000002
   15.40111065   79.45330048    4.63999987    3.00000000
   15.40416622   82.11630249    4.61999989    3.00000000
   15.40749931   85.46250153    4.63999987    2.98000002
   15.41055489   86.14890289    4.63999987    3.01999998
   15.41388893   86.97019958    4.61999989    3.00000000
   15.41722298   87.57769775    4.57999992    3.00000000
   15.42138958   87.57769775    4.55999994    2.98000002
   15.42555618   83.63659668    4.69999981    3.00000000
   15.42777824   84.22200012    4.76000023    3.00000000
   15.42916679   83.68270111    4.76000023    2.98000002
   15.43249989   87.11759949    4.76000023    2.98000002
   15.43611145   81.03140259    4.76000023    3.00000000
   15.43916702   80.26170349    4.73999977    2.98000002
   15.44250011   77.62570190    4.73999977    3.00000000
   15.44555569   83.22940063    4.78000021    3.00000000
   15.44888878   79.32679749    4.80000019    3.00000000
   15.45222187   80.22630310    4.78000021    3.00000000
   15.45527744   76.09839630    4.78000021    3.00000000
   15.45861053   76.53450012    4.71999979    3.00000000
   15.46194458   81.67720032    4.69999981    3.00000000
   15.46500015   83.72669983    4.71999979    3.00000000
   15.46833324   80.13670349    4.61999989    3.00000000
   15.47249985   80.13670349    4.53999996    2.98000002
   15.47666645   85.32270050    4.53999996    3.01999998
   15.47777748   89.67800140    4.55999994    3.00000000
   15.48027706   86.85990143    4.53999996    3.01999998
   15.48361111   81.11940002    4.53999996    3.01999998
   15.48666668   89.30539703    4.46999979    3.01999998
   15.49000072   82.45500183    4.38999987    3.00000000
   15.49305534   84.84700012    4.30999994    3.00000000
   15.49638939   86.04789734    4.30999994    3.01999998
   15.49972248   82.19029999    4.23999977    3.01999998
   15.50277805   84.72139740    4.13999987    3.01999998
   15.50611115   92.29350281    4.03999996    3.01999998
   15.50944424   89.86900330    3.99000001    3.01999998
   15.51249981   94.94219971    3.95000005    3.01999998
   15.51583290   91.54810333    3.91000009    3.01999998
   15.51888847   82.37830353    3.86999989    3.01999998
   15.52388859   82.37830353    3.78999996    3.00000000
   15.52777767   91.16819763    3.72000003    3.01999998
   15.53111076   76.08640289    3.68000007    3.01999998
   15.53444481   88.58370209    3.66000009    3.01999998
   15.53750038   81.38629913    3.64000010    3.01999998
   15.54083347   89.25650024    3.66000009    3.01999998
   15.54416752   79.97049713    3.66000009    3.01999998
   15.54722309   81.90329742    3.70000005    3.01999998
   15.55055618   93.60610199    3.75000000    3.03999996
   15.55388927   83.74490356    3.80999994    3.01999998
   15.55694485   92.34539795    3.93000007    3.01999998
   15.56027794   84.24199677    3.99000001    3.01999998
   15.56361103   87.32849884    4.00000000    3.01999998
   15.56666660   82.86910248    4.00000000    3.00000000
   15.56999969   89.56210327    3.97000003    3.01999998
   15.57499981   89.56210327    3.99000001    3.01999998
   15.57916641   84.88700104    3.99000001    3.01999998
   15.58222198   80.94120026    3.99000001    3.01999998
   15.58555508   82.70189667    3.97000003    3.01999998
   15.58888817   87.25140381    3.95000005    3.01999998
   15.59194374   84.72309875    3.95000005    3.01999998
   15.59527779   83.52999878    3.95000005    3.01999998
   15.59833336   90.26509857    3.93000007    3.01999998
   15.60166740   84.26300049    3.91000009    3.01999998
   15.60500050   90.73629761    3.89000010    3.01999998
   15.60805607   92.58049774    3.91000009    3.01999998
   15.61138916   82.57219696    3.86999989    3.01999998
   15.61472225   78.51850128    3.82999992    3.01999998
   15.61777782   83.06030273    3.76999998    3.01999998
   15.62111092   82.05449677    3.68000007    3.01999998
   15.62611103   82.05449677    3.59999990    3.01999998
   15.63027763   90.35389709    3.51999998    3.01999998
   15.63361073   83.11589813    3.51999998    3.01999998
   15.63666630   87.54000092    3.51999998    3.01999998
   15.64000034   86.18730164    3.53999996    3.01999998
   15.64333344   98.02739716    3.51999998    3.01999998
   15.64638901   90.03179932    3.51999998    3.03999996
   15.64999962   88.97769928    3.50000000    3.01999998
   15.65333271   93.37220001    3.46000004    3.03999996
   15.65638828   89.59130096    3.45000005    3.03999996
   15.65972137   80.49829865    3.43000007    3.01999998
   15.66305542   94.04550171    3.41000009    3.03999996
   15.66611099   93.32920074    3.39000010    3.03999996
   15.66944504   70.62609863    3.36999989    3.01999998
   15.67250061   93.96250153    3.32999992    3.05999994
   15.67722225   93.96250153    3.25000000    3.01999998
   15.68138885   82.60019684    3.20000005    3.03999996
   15.68472195   83.65200043    3.16000009    3.05999994
   15.68777752   90.42620087    3.09999990    3.03999996
   15.69111156   90.82550049    3.05999994    3.03999996
   15.69444466   86.62760162    3.00000000    3.03999996
   15.69750023   75.40460205    3.00000000    3.01999998
   15.70083332   80.93389893    2.98000002    3.01999998
   15.70416641   83.23229980    2.94000006    3.03999996
   15.70722198   87.95459747    2.91000009    3.03999996
   15.71055508   86.34169769    2.91000009    3.01999998
   15.71361065   87.04859924    2.91000009    3.03999996
   15.71694374   82.19170380    2.86999989    3.01999998
   15.72027779   90.12359619    2.86999989    3.01999998
   15.72333336   88.18309784    2.82999992    3.01999998
   15.74472237   81.99420166    2.57999992    3.01999998
   15.74499989   82.87650299    2.57999992    3.01999998
   15.74833393   82.43289948    2.50000000    3.01999998
   15.75166702   77.33509827    2.48000002    3.05999994
   15.75472260   84.41780090    2.44000006    3.03999996
   15.75805569   84.05319977    2.40000010    3.01999998
   15.76111126   81.17520142    2.39000010    3.03999996
   15.76444435   82.45989990    2.36999989    3.03999996
   15.76777744   74.50379944    2.36999989    3.05999994
   15.77083302   90.62840271    2.36999989    3.01999998
   15.77416611   88.04779816    2.32999992    3.03999996
   15.77972221   88.04779816    2.26999998    3.01999998
   15.78388977   82.47219849    2.23000002    3.03999996
   15.78722286   91.99379730    2.21000004    3.03999996
   15.79027843   83.71479797    2.19000006    3.03999996
   15.79361153   93.36759949    2.15000010    3.03999996
   15.79444504   87.96130371    2.15000010    3.01999998
   15.79722309   90.41480255    2.13000011    3.03999996
   15.80027771   95.48999786    2.13000011    3.03999996
   15.80361176   80.44229889    2.09999990    3.01999998
   15.80694485   86.75610352    2.07999992    3.00000000
   15.81000042   87.77919769    2.05999994    3.01999998
   15.81333351   89.52610016    2.01999998    3.01999998
   15.81666660   84.78949738    2.00000000    3.03999996
   15.81972218   89.90920258    1.94000006    3.01999998
   15.82305527   84.81580353    1.91999996    3.03999996
   15.82611084   85.08540344    1.89999998    3.01999998
   15.83111095   85.08540344    1.85000002    3.01999998
   15.83500004   87.24949646    1.80999994    3.03999996
   15.83833313   90.59089661    1.80999994    3.03999996
   15.84166622   92.08660126    1.76999998    3.03999996
   15.84444427   87.00319672    1.75000000    3.01999998
   15.84527779   78.27390289    1.71000004    3.01999998
   15.84833336   90.39929962    1.64999998    3.03999996
   15.85166740   83.27349854    1.60000002    3.03999996
   15.85500050   87.02780151    1.51999998    3.03999996
   15.85805607   77.28119659    1.46000004    3.01999998
   15.86138916   83.43460083    1.36000001    3.01999998
   15.86472225   79.38310242    1.33000004    3.01999998
   15.86777782   82.17459869    1.26999998    3.03999996
   15.87111092   77.22869873    1.21000004    3.03999996
   15.87416649   85.30339813    1.21000004    3.01999998
   15.87750053   82.75579834    1.19000006    3.01999998
   15.88222218   82.75579834    1.14999998    3.01999998
   15.88638878   91.53269958    1.07000005    3.03999996
   15.88944435   81.64640045    1.01999998    3.01999998
   15.89277744   90.63860321    0.95999998    3.00000000
   15.89444447   82.62809753    0.92000002    3.01999998
   15.89638901   94.15930176    0.89999998    3.01999998
   15.89944458   91.70240021    0.83999997    2.98000002
   15.90277767   82.52149963    0.76999998    3.01999998
   15.90611076   78.21009827    0.69000000    3.00000000
   15.90916634   77.88510132    0.63000000    3.00000000
   15.91249943   77.66609955    0.56999999    3.01999998
   15.91583252   80.91770172    0.51999998    3.00000000
   15.91888905   78.96119690    0.46000001    3.00000000
   15.92222214   91.66519928    0.38000000    2.98000002
   15.92527771   89.11599731    0.34000000    3.00000000
   15.92861176   80.28119659    0.30000001    2.98000002
   15.93333340   80.28119659    0.23000000    3.00000000
   15.93750000   79.02100372    0.19000000    2.98000002
   15.94083309   82.96420288    0.17000000    3.00000000
   15.94388866   83.38050079    0.13000000    2.98000002
   15.94444466   83.46070099    0.13000000    2.98000002
   15.94750023   86.81929779    0.11000000    2.93000007
   15.95083332   82.94080353    0.09000000    2.78999996
   15.95388889   90.75789642    0.09000000    2.57999992
   15.95722198   87.25090027    0.09000000    2.26999998
   15.96055508   91.56569672    0.09000000    1.98000002
   15.96361065   90.42250061    0.07000000    1.61000001
   15.96694374   83.73629761    0.07000000    1.25000000
   15.96999931   84.67250061    0.07000000    0.94000000
   15.97333336   86.03690338    0.05000000    0.63000000
   15.97666645   83.68890381    0.07000000    0.34000000
   15.97972202   84.19460297    0.07000000    0.19000000
   15.98472214   84.19460297    0.07000000    0.01000000
   15.98861122   92.40450287    0.07000000    0.01000000
   15.99194431   82.82859802    0.07000000    0.01000000
   15.99444485   86.40679932    0.07000000    0.01000000
   15.99555588   83.80870056    0.07000000    0.01000000
   15.99888897   79.99469757    0.07000000    0.01000000
   16.00194359   87.98860168    0.07000000    0.01000000
   16.00527763   82.19290161    0.07000000    0.01000000
   16.00861168   90.93750000    0.07000000    0.01000000
   16.01166725   92.31439972    0.07000000    0.01000000
   16.01499939   89.09750366    0.07000000    0.01000000
   16.01805496   92.26229858    0.07000000    0.01000000
   16.02138901   85.35910034    0.07000000    0.01000000
   16.02472115   88.81950378    0.07000000    0.01000000
   16.02777672   85.01589966    0.07000000    0.01000000
   16.03111076   91.67600250    0.07000000    0.01000000
   16.03583336   91.67600250    0.07000000    0.01000000
   16.03999901   84.82679749    0.07000000    0.01000000
   16.04305458   88.68650055    0.07000000    0.01000000
   16.04444313   83.42810059    0.07000000    0.01000000
   16.04666710   82.47480011    0.07000000    0.01000000
   16.04999924   79.62049866    0.07000000    0.01000000
   16.05305481   83.26219940    0.07000000    0.01000000
   16.05638885   88.09179688    0.07000000    0.01000000
   16.05972099   81.38999939    0.07000000    0.01000000
   16.06305504   80.78929901    0.07000000    0.01000000
   16.06638718   79.25170135    0.07000000    0.01000000
   16.06972313   81.67859650    0.07000000    0.01000000
   16.07277870   79.91770172    0.07000000    0.01000000
   16.07611275   86.00530243    0.07000000    0.01000000
   16.07916832   88.73059845    0.07000000    0.01000000
   16.08250046   84.23349762    0.07000000    0.01000000
   16.08694458   84.23349762    0.07000000    0.01000000
   16.09111214   90.74590302    0.07000000    0.01000000
   16.09416771   98.73519897    0.07000000    0.01000000
   16.09472275   87.18769836    0.07000000    0.01000000
   16.09805679   85.92079926    0.07000000    0.01000000
   16.10138893   89.45149994    0.07000000    0.01000000
   16.10444450   87.92070007    0.07000000    0.01000000
   16.10777855   82.55680084    0.07000000    0.01000000
   16.11111069   82.96679688    0.07000000    0.01000000
   16.11416626   84.60119629    0.07000000    0.01000000
   16.11750031   91.96379852    0.07000000    0.01000000
   16.12083435   87.03990173    0.07000000    0.01000000
   16.12388992   89.45379639    0.07000000    0.01000000
   16.12722206   86.33200073    0.07000000    0.01000000
   16.13027763   86.53199768    0.07000000    0.01000000
   16.13361168   93.21080017    0.07000000    0.01000000
   16.13805580   93.21080017    0.07000000    0.01000000
   16.14222145   87.72540283    0.07000000    0.01000000
   16.14472198   85.35919952    0.07000000    0.01000000
   16.14583397   96.31690216    0.07000000    0.01000000
   16.14916611   91.84069824    0.07000000    0.01000000
   16.15222168   86.84719849    0.07000000    0.01000000
   16.15555573   88.90249634    0.07000000    0.01000000
   16.15861130   84.22519684    0.07000000    0.01000000
   16.16194344   88.12210083    0.07000000    0.01000000
   16.16527748   86.89440155    0.07000000    0.01000000
   16.16833305   89.33350372    0.07000000    0.01000000
   16.17166519   92.17500305    0.07000000    0.01000000
   16.17499924   78.87619781    0.07000000    0.01000000
   16.17805481   85.64050293    0.07000000    0.01000000
   16.18138885   95.41609955    0.07000000    0.01000000
   16.18444443   92.84020233    0.07000000    0.01000000
   16.18916512   92.84020233    0.07000000    0.01000000
   16.19333267   92.84220123    0.07000000    0.01000000
   16.19472122   84.45559692    0.07000000    0.01000000
   16.19694328   83.68289948    0.07000000    0.01000000
   16.20027924   90.82769775    0.07000000    0.01000000
   16.20333481   88.27690125    0.07000000    0.01000000
   16.20666695   94.06069946    0.07000000    0.01000000
   16.21000099   86.75039673    0.07000000    0.01000000
   16.21305656   93.61759949    0.07000000    0.01000000
   16.21638870   88.85769653    0.07000000    0.01000000
   16.21944427   85.26020050    0.07000000    0.01000000
   16.22277832   78.71360016    0.07000000    0.01000000
   16.22611237   84.57160187    0.07000000    0.01000000
   16.22916794   82.82939911    0.07000000    0.01000000
   16.23250008   87.36499786    0.07000000    0.01000000
   16.23583412   94.21289825    0.07000000    0.01000000
   16.24055672   94.21289825    0.07000000    0.01000000
   16.24472237   81.16159821    0.07000000    0.01000000
   16.24527740   84.89109802    0.07000000    0.01000000
   16.24833298   85.36750031    0.07000000    0.01000000
   16.25166702   80.89869690    0.07000000    0.01000000
   16.25472260   83.99780273    0.07000000    0.01000000
   16.25805473   80.16929626    0.07000000    0.01000000
   16.26138878   86.15200043    0.07000000    0.01000000
   16.26444435   84.51010132    0.07000000    0.01000000
   16.26777840   88.17030334    0.07000000    0.01000000
   16.27111053   82.04910278    0.07000000    0.01000000
   16.27416611   91.52799988    0.07000000    0.01000000
   16.27750015   88.58450317    0.07000000    0.01000000
   16.28055573   84.28160095    0.07000000    0.01000000
   16.28388786   83.03869629    0.07000000    0.01000000
   16.28722191   99.07640076    0.07000000    0.01000000
   16.29166603   99.07640076    0.07000000    0.01000000
   16.29583359   79.03780365    0.07000000    0.01000000
   16.29888916   83.54879761    0.07000000    0.01000000
   16.30222130   91.28230286    0.07000000    0.01000000
   16.30555534   89.97679901    0.07000000    0.01000000
   16.30861092   88.92859650    0.07000000    0.01000000
   16.31194305   91.78820038    0.07000000    0.01000000
   16.31527710   90.89230347    0.07000000    0.01000000
   16.31833458   93.02809906    0.07000000    0.01000000
   16.32166672   87.59120178    0.07000000    0.01000000
   16.32472229   91.24079895    0.07000000    0.01000000
   16.32805634   85.05020142    0.07000000    0.01000000
   16.33139038   92.52809906    0.07000000    0.01000000
   16.33444595   87.73780060    0.07000000    0.01000000
   16.33777809   85.20539856    0.07000000    0.01000000
   16.34277916   85.20539856    0.07000000    0.01000000
   16.34694481   87.63739777    0.07000000    0.01000000
   16.35027885   83.34410095    0.07000000    0.01000000
   16.35333443   85.96410370    0.07000000    0.01000000
   16.35666656   87.47440338    0.07000000    0.01000000
   16.36000061   81.07250214    0.07000000    0.01000000
   16.36305618   85.31900024    0.07000000    0.01000000
   16.36638832   85.11389923    0.07000000    0.01000000
   16.36944389   91.69180298    0.07000000    0.01000000
   16.37277794   94.93750000    0.07000000    0.01000000
   16.37611198   86.37999725    0.07000000    0.01000000
   16.37916756   93.44170380    0.07000000    0.01000000
   16.38249969   79.68499756    0.07000000    0.01000000
   16.38583374   83.19509888    0.07000000    0.01000000
   16.38888931   89.97070313    0.07000000    0.01000000
   16.39388847   89.97070313    0.07000000    0.01000000
   16.39805603   89.27890015    0.07000000    0.01000000
   16.40138817   84.09510040    0.07000000    0.01000000
   16.40472221   83.81729889    0.07000000    0.01000000
   16.40777779   89.58020020    0.07000000    0.01000000
   16.41110992   82.39769745    0.07000000    0.01000000
   16.41416550   91.26830292    0.07000000    0.01000000
   16.41749954   72.77079773    0.07000000    0.01000000
   16.42083359   74.65419769    0.07000000    0.01000000
   16.42388916   84.84709930    0.07000000    0.01000000
   16.42722130   83.43109894    0.07000000    0.01000000
   16.43055534   76.95279694    0.07000000    0.01000000
   16.43361092   93.16979980    0.07000000    0.01000000
   16.43694305   78.05560303    0.07000000    0.01000000
   16.44027710   87.87380219    0.07000000    0.01000000
   16.44527626   87.87380219    0.07000000    0.01000000
   16.44944382   86.36609650    0.07000000    0.01000000
   16.45250130   80.29940033    0.07000000    0.01000000
   16.45583344   89.22879791    0.07000000    0.01000000
   16.45888901   81.76560211    0.07000000    0.01000000
   16.46222305   89.45339966    0.07000000    0.01000000
   16.46555710  104.16699982    0.07000000    0.01000000
   16.46861076   87.87870026    0.07000000    0.01000000
   16.47194481   95.65390015    0.07000000    0.01000000
   16.47527885   96.38569641    0.07000000    0.01000000
   16.47833443   92.68240356    0.07000000    0.01000000
   16.48166656   87.87180328    0.07000000    0.01000000
   16.48472214   93.70169830    0.07000000    0.01000000
   16.48805618   95.13150024    0.07000000    0.01000000
   16.49138832   93.05079651    0.07000000    0.01000000
   16.49638939   93.05079651    0.07000000    0.01000000
   16.50055504   93.27390289    0.07000000    0.01000000
   16.50361061   99.22550201    0.07000000    0.01000000
   16.50694466  103.67600250    0.07000000    0.01000000
   16.51027870   97.22949982    0.07000000    0.01000000
   16.51333427   98.95369720    0.07000000    0.01000000
   16.51666641   95.01339722    0.07000000    0.01000000
   16.52000046  101.85399628    0.07000000    0.01000000
   16.52305603   94.72229767    0.07000000    0.01000000
   16.52638817  111.92500305    0.07000000    0.01000000
   16.52944374   91.91059875    0.07000000    0.01000000
   16.53277779  105.03900146    0.07000000    0.01000000
   16.53610992   99.28880310    0.07000000    0.01000000
   16.53916550  100.68299866    0.07000000    0.01000000
   16.54249954   91.33920288    0.07000000    0.01000000
   16.54749870   91.33920288    0.07000000    0.01000000
   16.55166626   98.22560120    0.07000000    0.01000000
   16.55499840   99.35739899    0.07000000    0.01000000
   16.55805397   90.49659729    0.07000000    0.01000000
   16.56138802   93.11009979    0.07000000    0.01000000
   16.56472206  100.85299683    0.07000000    0.01000000
   16.56777954   87.54589844    0.07000000    0.01000000
   16.57111168   85.56880188    0.07000000    0.01000000
   16.57416725   88.25839996    0.07000000    0.01000000
   16.57750130   88.08779907    0.07000000    0.01000000
   16.58083344   84.35030365    0.07000000    0.01000000
   16.58388901   90.14309692    0.07000000    0.01000000
   16.58722305   82.14109802    0.07000000    0.01000000
   16.59055710   94.22899628    0.07000000    0.01000000
   16.59361267   92.50050354    0.07000000    0.01000000
   16.59861183   92.50050354    0.07000000    0.01000000
   16.60277748   78.86080170    0.07000000    0.01000000
   16.60611153   84.68620300    0.07000000    0.01000000
   16.60944557   85.55429840    0.07000000    0.01000000
   16.61250114   98.29479980    0.07000000    0.01000000
   16.61583328  103.37300110    0.07000000    0.01000000
   16.61888885   95.32330322    0.07000000    0.01000000
   16.62222290   89.40779877    0.07000000    0.01000000
   16.62555504   86.97010040    0.07000000    0.01000000
   16.62861061   86.11199951    0.07000000    0.01000000
   16.63194466   94.53800201    0.07000000    0.01000000
   16.63527679   88.07270050    0.07000000    0.01000000
   16.63833237   93.20189667    0.07000000    0.01000000
   16.64166641   95.73329926    0.07000000    0.01000000
   16.64472198   92.96360016    0.07000000    0.01000000
   16.64999962   92.96360016    0.07000000    0.01000000
   16.65416718   96.17040253    0.07000000    0.01000000
   16.65722275   90.38140106    0.07000000    0.01000000
   16.66055489   79.58119965    0.07000000    0.01000000
   16.66361046   95.29910278    0.07000000    0.01000000
   16.66694450   90.91750336    0.07000000    0.01000000
   16.67027664   90.50540161    0.07000000    0.01000000
   16.67333221   82.17160034    0.07000000    0.01000000
   16.67666626   75.72599792    0.07000000    0.01000000
   16.68000031   86.25460052    0.07000000    0.01000000
   16.68305397   86.52159882    0.07000000    0.01000000
   16.68638802   87.55780029    0.07000000    0.01000000
   16.68944359   94.32039642    0.07000000    0.01000000
   16.69277763   89.84760284    0.07000000    0.01000000
   16.69610977   84.31759644    0.07000000    0.01000000
   16.70111275   84.31759644    0.07000000    0.01000000
   16.70527840   79.03820038    0.07000000    0.01000000
   16.70833397   89.73829651    0.07000000    0.01000000
   16.71166801   85.30470276    0.07000000    0.01000000
   16.71500015   90.35410309    0.07000000    0.01000000
   16.71805573   85.04969788    0.07000000    0.01000000
   16.72138977   86.79799652    0.07000000    0.01000000
   16.72472191   86.40100098    0.07000000    0.01000000
   16.72777748   87.60939789    0.07000000    0.01000000
   16.73111153   81.39350128    0.07000000    0.01000000
   16.73416710   81.17960358    0.07000000    0.01000000
   16.73750114   84.44509888    0.07000000    0.01000000
   16.74083328   82.33110046    0.07000000    0.01000000
   16.74388885   85.68430328    0.07000000    0.01000000
   16.76499939   85.68430328    0.07000000    0.01000000
   16.76916695   91.36340332    0.07000000    0.01000000
   16.77222252   88.65650177    0.07000000    0.01000000
   16.77555466   85.13990021    0.07000000    0.01000000
   16.77888870   89.29570007    0.07000000    0.01000000
   16.78194427   95.93240356    0.07000000    0.01000000
   16.78527641   82.29290009    0.07000000    0.01000000
   16.78833199   92.59400177    0.07000000    0.01000000
   16.79166603   84.15319824    0.07000000    0.01000000
   16.79500008   90.60820007    0.07000000    0.01000000
   16.79805565   81.38259888    0.07000000    0.01000000
   16.80138779   77.93550110    0.07000000    0.01000000
   16.80472183  101.87400055    0.07000000    0.01000000
   16.80777740   96.38870239    0.07000000    0.01000000
   16.81110954   99.92600250    0.07000000    0.01000000
   16.81250000   82.49510193    0.07000000    0.01000000
   16.81666756   82.49510193    0.07000000    0.01000000
   16.82083511   99.87210083    0.07000000    0.01000000
   16.82389069   86.56960297    0.07000000    0.01000000
   16.82722282  105.90100098    0.07000000    0.01000000
   16.83027840   90.73819733    0.07000000    0.01000000
   16.83361244   81.46720123    0.07000000    0.01000000
   16.83694458   94.63970184    0.07000000    0.01000000
   16.84000015   90.27739716    0.07000000    0.01000000
   16.84333420   87.05740356    0.07000000    0.01000000
   16.84666824   97.79119873    0.07000000    0.01000000
   16.84972191   87.79010010    0.07000000    0.01000000
   16.85305595   95.91400146    0.07000000    0.01000000
   16.85611153   95.96440125    0.07000000    0.01000000
   16.85944557   91.95629883    0.07000000    0.01000000
   16.86250114   92.80639648    0.07000000    0.01000000
   16.86305618   94.11000061    0.07000000    0.01000000
   16.86777878   94.11000061    0.07000000    0.01000000
   16.87194443   91.88480377    0.07000000    0.01000000
   16.87500000   87.35639954    0.07000000    0.01000000
   16.87833405   92.61170197    0.07000000    0.01000000
   16.88166618   98.18969727    0.07000000    0.01000000
   16.88472176   91.76080322    0.07000000    0.01000000
   16.88805580   97.31079865    0.07000000    0.01000000
   16.89138794   94.30000305    0.07000000    0.01000000
   16.89444351   90.41940308    0.07000000    0.01000000
   16.89777756  107.42600250    0.07000000    0.01000000
   16.90083313   98.82859802    0.07000000    0.01000000
   16.90416718   91.05899811    0.07000000    0.01000000
   16.90749931   94.06300354    0.07000000    0.01000000
   16.91055489   96.51740265    0.07000000    0.01000000
   16.91250038  111.77600098    0.07000000    0.01000000
   16.91416550   95.93750000    0.07000000    0.01000000
   16.91888809   95.93750000    0.07000000    0.01000000
   16.92305565   78.13500214    0.07000000    0.01000000
   16.92638779   84.40149689    0.07000000    0.01000000
   16.92944336   87.01820374    0.07000000    0.01000000
   16.93277740   88.59750366    0.07000000    0.01000000
   16.93610954   95.37359619    0.07000000    0.01000000
   16.93916512   84.48410034    0.07000000    0.01000000
   16.94249916   81.90940094    0.07000000    0.01000000
   16.94555473   79.12470245    0.07000000    0.01000000
   16.94888878   91.35530090    0.07000000    0.01000000
   16.95222282   87.54650116    0.07000000    0.01000000
   16.95527840   85.02439880    0.07000000    0.01000000
   16.95861244   86.93800354    0.07000000    0.01000000
   16.96194458   81.27790070    0.07000000    0.01000000
   16.96250153   87.43920135    0.07000000    0.01000000
   16.96555710   93.62629700    0.07000000    0.01000000
   16.97000122   93.62629700    0.07000000    0.01000000
   16.97416687   77.92690277    0.07000000    0.01000000
   16.97750092   85.23429871    0.07000000    0.01000000
   16.98083305   81.67240143    0.07000000    0.01000000
   16.98388863   84.65850067    0.07000000    0.01000000
   16.98722267   81.94069672    0.07000000    0.01000000
   16.99027824   86.36579895    0.07000000    0.01000000
   16.99361229   82.07510376    0.07000000    0.01000000
   16.99694443   87.66130066    0.07000000    0.01000000
   17.00000000   83.55380249    0.07000000    0.01000000
   17.00333405   84.39730072    0.07000000    0.01000000
   17.00666618   84.18939972    0.07000000    0.01000000
   17.00972176   87.50279999    0.07000000    0.01000000
   17.01250076   94.29650116    0.07000000    0.01000000
   17.01333427   85.63310242    0.07000000    0.01000000
   17.01666641   87.59909821    0.07000000    0.01000000
   17.02138901   87.59909821    0.07000000    0.01000000
   17.02555466   82.40930176    0.07000000    0.01000000
   17.02861023   83.43289948    0.07000000    0.01000000
   17.03194427   86.03459930    0.07000000    0.01000000
   17.03527641   85.55310059    0.07000000    0.01000000
   17.03833199   82.68250275    0.07000000    0.01000000
   17.04166603   85.54900360    0.07000000    0.01000000
   17.04472160   83.32080078    0.07000000    0.01000000
   17.04805565   90.24230194    0.07000000    0.01000000
   17.05138779   88.70140076    0.07000000    0.01000000
   17.05444336   87.94069672    0.07000000    0.01000000
   17.05777740   95.70269775    0.07000000    0.01000000
   17.06110954   93.37129974    0.07000000    0.01000000
   17.06250000   91.00869751    0.07000000    0.01000000
   17.06472206   95.13259888    0.07000000    0.01000000
   17.06777954  100.20200348    0.07000000    0.01000000
   17.07250023  100.20200348    0.07000000    0.01000000
   17.07666779   93.16000366    0.07000000    0.01000000
   17.07972336   94.25920105    0.07000000    0.01000000
   17.08305550   91.22920227    0.07000000    0.01000000
   17.08638954   86.47019958    0.07000000    0.01000000
   17.08944511   85.42639923    0.07000000    0.01000000
   17.09277916   94.89129639    0.07000000    0.01000000
   17.09583473   94.15399933    0.07000000    0.01000000
   17.09916687   92.35299683    0.07000000    0.01000000
   17.10250092   87.39810181    0.07000000    0.01000000
   17.10555649   91.47589874    0.07000000    0.01000000
   17.10888863   82.05729675    0.07000000    0.01000000
   17.11222267   86.83789825    0.07000000    0.01000000
   17.11250114   80.82230377    0.07000000    0.01000000
   17.11555672   86.86280060    0.07000000    0.01000000
   17.11888885   88.23329926    0.07000000    0.01000000
   17.12361145   88.23329926    0.07000000    0.01000000
   17.12777710   86.39890289    0.07000000    0.01000000
   17.13111115   92.20960236    0.07000000    0.01000000
   17.13416672   89.35019684    0.07000000    0.01000000
   17.13750076   91.45269775    0.07000000    0.01000000
   17.14083290   96.11910248    0.07000000    0.01000000
   17.14388847  101.43199921    0.07000000    0.01000000
   17.14722252   98.72219849    0.07000000    0.01000000
   17.15027809  104.76999664    0.07000000    0.01000000
   17.15361023   93.08080292    0.07000000    0.01000000
   17.15694427   86.33080292    0.07000000    0.01000000
   17.15999985  108.89499664    0.07000000    0.01000000
   17.16250038  103.13500214    0.07000000    0.01000000
   17.16361046  101.50299835    0.07000000    0.01000000
   17.16694450   95.92449951    0.07000000    0.01000000
   17.17000008   98.12870026    0.07000000    0.01000000
   17.17472076   98.12870026    0.07000000    0.01000000
   17.17888832  101.90899658    0.07000000    0.01000000
   17.18222237   80.86340332    0.07000000    0.01000000
   17.18527603   92.59449768    0.07000000    0.01000000
   17.18861008   93.66359711    0.07000000    0.01000000
   17.19194412   89.61000061    0.07000000    0.01000000
   17.19499969   85.31990051    0.07000000    0.01000000
   17.19833183  104.33000183    0.07000000    0.01000000
   17.20166779   99.28540039    0.07000000    0.01000000
   17.20472336  103.06199646    0.07000000    0.01000000
   17.20805550   99.79319763    0.07000000    0.01000000
   17.21138954  100.72100067    0.07000000    0.01000000
   17.21277809   84.27529907    0.07000000    0.01000000
   17.21500015   88.06939697    0.07000000    0.01000000
   17.21833420   92.54299927    0.07000000    0.01000000
   17.22138977   91.10240173    0.07000000    0.01000000
   17.22611237   91.10240173    0.07000000    0.01000000
   17.23000145  103.06099701    0.07000000    0.01000000
   17.23333359   94.54810333    0.07000000    0.01000000
   17.23666763   89.06050110    0.07000000    0.01000000
   17.23972321   98.67430115    0.07000000    0.01000000
   17.24305534   91.97769928    0.07000000    0.01000000
   17.24638939   95.66750336    0.07000000    0.01000000
   17.24944496   87.83070374    0.07000000    0.01000000
   17.25277710   91.10720062    0.07000000    0.01000000
   17.25583267   87.41359711    0.07000000    0.01000000
   17.25916672   92.73020172    0.07000000    0.01000000
   17.26250076   92.01920319    0.07000000    0.01000000
   17.26305580   91.70670319    0.07000000    0.01000000
   17.26611137   93.02189636    0.07000000    0.01000000
   17.26944351   94.79319763    0.07000000    0.01000000
   17.27249908   79.13269806    0.07000000    0.01000000
   17.27722168   79.13269806    0.07000000    0.01000000
   17.28138924   92.86280060    0.07000000    0.01000000
   17.28444481   93.06860352    0.07000000    0.01000000
   17.28777695   92.00569916    0.07000000    0.01000000
   17.29111099   98.78309631    0.07000000    0.01000000
   17.29416656   98.50820160    0.07000000    0.01000000
   17.29749870   89.27980042    0.07000000    0.01000000
   17.30055428   92.50520325    0.07000000    0.01000000
   17.30388832  105.14600372    0.07000000    0.01000000
   17.30722237   90.08229828    0.07000000    0.01000000
   17.31027794   92.06310272    0.07000000    0.01000000
   17.31305504   85.48519897    0.07000000    0.01000000
   17.31388855   94.22640228    0.07000000    0.01000000
   17.31722260   84.24720001    0.07000000    0.01000000
   17.32027817   96.48789978    0.07000000    0.01000000
   17.32361221   96.65560150    0.07000000    0.01000000
   17.32833481   96.65560150    0.07000000    0.01000000
   17.33250046   91.11399841    0.07000000    0.01000000
   17.33583450   93.36589813    0.07000000    0.01000000
   17.33889008  105.85399628    0.07000000    0.01000000
   17.34222221  108.27300262    0.07000000    0.01000000
   17.34527779   80.10009766    0.07000000    0.01000000
   17.34861183  104.05100250    0.07000000    0.01000000
   17.35194397   91.31490326    0.07000000    0.01000000
   17.35499954   98.12930298    0.07000000    0.01000000
   17.35833359  100.64099884    0.07000000    0.01000000
   17.36166763   99.17659760    0.07000000    0.01000000
   17.36305618   95.73570251    0.07000000    0.01000000
   17.36527824  104.22100067    0.07000000    0.01000000
   17.36833382   73.49130249    0.07000000    0.01000000
   17.37166595   88.12680054    0.07000000    0.01000000
   17.37472153   74.95649719    0.07000000    0.01000000
   17.37944412   74.95649719    0.07000000    0.01000000
   17.38361168   85.03939819    0.07000000    0.01000000
   17.38694382   84.28959656    0.07000000    0.01000000
   17.38999939   93.96880341    0.07000000    0.01000000
   17.39333344   91.75019836    0.07000000    0.01000000
   17.39666748   93.17050171    0.07000000    0.01000000
   17.39972115   91.81030273    0.07000000    0.01000000
   17.40305519   99.01830292    0.07000000    0.01000000
   17.40638924   87.59960175    0.07000000    0.01000000
   17.40944481   89.87239838    0.07000000    0.01000000
   17.41277695   72.46399689    0.07000000    0.01000000
   17.41333389   77.31809998    0.07000000    0.01000000
   17.41638756   87.12809753    0.07000000    0.01000000
   17.41972160   88.70469666    0.07000000    0.01000000
   17.42305565   86.83020020    0.07000000    0.01000000
   17.42611122   85.45249939    0.07000000    0.01000000
   17.43083191   85.45249939    0.07000000    0.01000000
   17.43472099   81.95860291    0.07000000    0.01000000
   17.43805504   86.07869720    0.07000000    0.01000000
   17.44138718   91.70110321    0.07000000    0.01000000
   17.44444275   90.09010315    0.07000000    0.01000000
   17.44777679   96.35849762    0.07000000    0.01000000
   17.45111275   98.00070190    0.07000000    0.01000000
   17.45416832   92.41619873    0.07000000    0.01000000
   17.45750046   84.83869934    0.07000000    0.01000000
   17.46083450  102.05999756    0.07000000    0.01000000
   17.46333504   94.10119629    0.07000000    0.01000000
   17.46444511  101.67199707    0.07000000    0.01000000
   17.46750069  100.89600372    0.07000000    0.01000000
   17.47083473   90.66780090    0.07000000    0.01000000
   17.47389030  100.98999786    0.07000000    0.01000000
   17.47722244   83.17910004    0.07000000    0.01000000
   17.48194504   83.17910004    0.07000000    0.01000000
   17.48611069  102.62300110    0.07000000    0.01000000
   17.48916626   88.53520203    0.07000000    0.01000000
   17.49250031   96.37519836    0.07000000    0.01000000
   17.49583435   92.15460205    0.07000000    0.01000000
   17.49888992   93.48509979    0.07000000    0.01000000
   17.50222206   96.86250305    0.07000000    0.01000000
   17.50527763   94.73269653    0.07000000    0.01000000
   17.50861168   85.97889709    0.07000000    0.01000000
   17.51166725   91.47229767    0.07000000    0.01000000
   17.51333427   91.57050323    0.07000000    0.01000000
   17.51527786   80.44889832    0.07000000    0.01000000
   17.51861000   85.16410065    0.07000000    0.01000000
   17.52194405   99.33380127    0.07000000    0.01000000
   17.52527809   89.62290192    0.07000000    0.01000000
   17.52833366   94.25330353    0.07000000    0.01000000
   17.53305435   94.25330353    0.07000000    0.01000000
   17.53722191   90.56009674    0.07000000    0.01000000
   17.54027748   99.04750061    0.07000000    0.01000000
   17.54361153   90.57039642    0.07000000    0.01000000
   17.54694366   82.57489777    0.07000000    0.01000000
   17.54999924   95.31880188    0.07000000    0.01000000
   17.55333328   78.15930176    0.07000000    0.01000000
   17.55638885   88.41690063    0.07000000    0.01000000
   17.55972099   86.18650055    0.07000000    0.01000000
   17.56305504   91.58760071    0.07000000    0.01000000
   17.56333351   90.42279816    0.07000000    0.01000000
   17.56666756   92.37300110    0.07000000    0.01000000
   17.57000160   93.85569763    0.07000000    0.01000000
   17.57305717  102.90200043    0.07000000    0.01000000
   17.57638931  102.57199860    0.07000000    0.01000000
   17.57972336  101.29000092    0.07000000    0.01000000
   17.58416748  101.29000092    0.07000000    0.01000000
   17.58833313   96.35479736    0.07000000    0.01000000
   17.59166718  107.91000366    0.07000000    0.01000000
   17.59472275   83.27010345    0.07000000    0.01000000
   17.59805679   96.86699677    0.07000000    0.01000000
   17.60138893   95.64969635    0.07000000    0.01000000
   17.60444450   92.34960175    0.07000000    0.01000000
   17.60777855   83.57199860    0.07000000    0.01000000
   17.61111069   94.40249634    0.07000000    0.01000000
   17.61361122   80.74759674    0.07000000    0.01000000
   17.61472321   80.99440002    0.07000000    0.01000000
   17.61777878   83.23349762    0.07000000    0.01000000
   17.62111092   88.26750183    0.07000000    0.01000000
   17.62444496   94.20279694    0.07000000    0.01000000
   17.62750053   96.96109772    0.07000000    0.01000000
   17.63083267   98.40200043    0.07000000    0.01000000
   17.63555527   98.40200043    0.07000000    0.01000000
   17.63944435   94.65689850    0.07000000    0.01000000
   17.64277840   90.11769867    0.07000000    0.01000000
   17.64611053   90.61849976    0.07000000    0.01000000
   17.64916611   84.67890167    0.07000000    0.01000000
   17.65250015   93.34380341    0.07000000    0.01000000
   17.65583229   87.31179810    0.07000000    0.01000000
   17.65888786   82.13749695    0.07000000    0.01000000
   17.66222191   90.45429993    0.07000000    0.01000000
   17.66361046   78.60150146    0.07000000    0.01000000
   17.66583252   76.53520203    0.07000000    0.01000000
   17.66888809   85.42060089    0.07000000    0.01000000
   17.67222214   91.32849884    0.07000000    0.01000000
   17.67555428   90.09120178    0.07000000    0.01000000
   17.67860985   89.14510345    0.07000000    0.01000000
   17.68194389   94.86889648    0.07000000    0.01000000
   17.68666649   94.86889648    0.07000000    0.01000000
   17.69083214   88.41079712    0.07000000    0.01000000
   17.69388771   86.82830048    0.07000000    0.01000000
   17.69722176   86.86710358    0.07000000    0.01000000
   17.70055580   89.94329834    0.07000000    0.01000000
   17.70361137   94.08280182    0.07000000    0.01000000
   17.70694542   84.72699738    0.07000000    0.01000000
   17.71027946   93.63670349    0.07000000    0.01000000
   17.71333504   92.63500214    0.07000000    0.01000000
   17.71389008   92.85189819    0.07000000    0.01000000
   17.71722221   89.84220123    0.07000000    0.01000000
   17.72027779   95.01899719    0.07000000    0.01000000
   17.72361183   88.21440125    0.07000000    0.01000000
   17.72694588   91.57150269    0.07000000    0.01000000
   17.73000145   92.91120148    0.07000000    0.01000000
   17.73333359  100.85299683    0.07000000    0.01000000
   17.73777771  100.85299683    0.07000000    0.01000000
   17.74194527   89.71810150    0.07000000    0.01000000
   17.74527740  100.22899628    0.07000000    0.01000000
   17.74833298  103.09500122    0.07000000    0.01000000
   17.75166702   94.52870178    0.07000000    0.01000000
   17.75472260   91.81670380    0.07000000    0.01000000
   17.75805473  101.24600220    0.07000000    0.01000000
   17.76138878   91.95079803    0.07000000    0.01000000
   17.77833366   94.26450348    0.07000000    0.01000000
   17.78111076   96.97360229    0.07000000    0.01000000
   17.78416634   94.14420319    0.07000000    0.01000000
   17.78916550   94.14420319    0.07000000    0.01000000
   17.79333305   99.72489929    0.07000000    0.01000000
   17.79666710   93.28869629    0.07000000    0.01000000
   17.79972076   97.91739655    0.07000000    0.01000000
   17.80305481   81.78379822    0.07000000    0.01000000
   17.80611038   90.33470154    0.07000000    0.01000000
   17.80944443   89.46289825    0.07000000    0.01000000
   17.81277657   96.09420013    0.07000000    0.01000000
   17.81583214   96.56529999    0.07000000    0.01000000
   17.81916809   81.00189972    0.07000000    0.01000000
   17.82250023   92.99680328    0.07000000    0.01000000
   17.82555580   78.55380249    0.07000000    0.01000000
   17.82833481   87.78289795    0.07000000    0.01000000
   17.82916832   89.31400299    0.07000000    0.01000000
   17.83250046   87.41570282    0.07000000    0.01000000
   17.83555603   86.11070251    0.07000000    0.01000000
   17.84027863   86.11070251    0.07000000    0.01000000
   17.84444427   85.42510223    0.07000000    0.01000000
   17.84777832   93.58940125    0.07000000    0.01000000
   17.85083389   93.30120087    0.07000000    0.01000000
   17.85416794   92.70099640    0.07000000    0.01000000
   17.85750008  100.15299988    0.07000000    0.01000000
   17.86055565   82.90299988    0.07000000    0.01000000
   17.86388969   84.35079956    0.07000000    0.01000000
   17.86722183   84.37319946    0.07000000    0.01000000
   17.87027740   82.14430237    0.07000000    0.01000000
   17.87361145   93.10019684    0.07000000    0.01000000
   17.87666702   87.64630127    0.07000000    0.01000000
   17.87833405   96.55120087    0.07000000    0.01000000
   17.88027763   99.95400238    0.07000000    0.01000000
   17.88361168   92.26670074    0.07000000    0.01000000
   17.88694382   93.56449890    0.07000000    0.01000000
   17.89138794   93.56449890    0.07000000    0.01000000
   17.89555550   96.43229675    0.07000000    0.01000000
   17.89888954   91.79399872    0.07000000    0.01000000
   17.90222168   95.05670166    0.07000000    0.01000000
   17.90527725   95.10549927    0.07000000    0.01000000
   17.90861130   94.11060333    0.07000000    0.01000000
   17.91166687   88.76159668    0.07000000    0.01000000
   17.91499901   97.33000183    0.07000000    0.01000000
   17.91833305   94.85179901    0.07000000    0.01000000
   17.92138863  108.29199982    0.07000000    0.01000000
   17.92472076   87.24379730    0.07000000    0.01000000
   17.92805481   88.29979706    0.07000000    0.01000000
   17.92833328   79.04419708    0.07000000    0.01000000
   17.93166542   93.98310089    0.07000000    0.01000000
   17.93499947   86.57160187    0.07000000    0.01000000
   17.93805504   84.36000061    0.07000000    0.01000000
   17.94277763   84.36000061    0.07000000    0.01000000
   17.94694328   83.14689636    0.07000000    0.01000000
   17.95000076   82.20269775    0.07000000    0.01000000
   17.95333481   79.82379913    0.07000000    0.01000000
   17.95639038   79.58580017    0.07000000    0.01000000
   17.95972252   86.09950256    0.07000000    0.01000000
   17.96305656   81.80110168    0.07000000    0.01000000
   17.96611214   85.17769623    0.07000000    0.01000000
   17.96944427   79.95290375    0.07000000    0.01000000
   17.97277832   93.85590363    0.07000000    0.01000000
   17.97583389   86.98079681    0.07000000    0.01000000
   17.97833443   97.30249786    0.07000000    0.01000000
   17.97944450   83.14620209    0.07000000    0.01000000
   17.98277855   89.20140076    0.07000000    0.01000000
   17.98583412   97.38240051    0.07000000    0.01000000
   17.98916626   85.47149658    0.07000000    0.01000000
   17.99388885   85.47149658    0.07000000    0.01000000
   17.99805641   79.78800201    0.07000000    0.01000000
   18.00111198   84.56050110    0.07000000    0.01000000
   18.00444412   95.52909851    0.07000000    0.01000000
   18.00777817   89.75599670    0.07000000    0.01000000
   18.01083374   84.44409943    0.07000000    0.01000000
   18.01416588   84.95200348    0.07000000    0.01000000
   18.01749992   76.27100372    0.07000000    0.01000000
   18.02055550   85.50949860    0.07000000    0.01000000
   18.02388954   96.01609802    0.07000000    0.01000000
   18.02694511   96.59919739    0.07000000    0.01000000
   18.02833366   92.30860138    0.07000000    0.01000000
   18.03055573   92.96179962    0.07000000    0.01000000
   18.03388786   87.11250305    0.07000000    0.01000000
   18.03694344   89.91829681    0.07000000    0.01000000
   18.04027748  104.96499634    0.07000000    0.01000000
   18.04500008  104.96499634    0.07000000    0.01000000
   18.04916573   96.42199707    0.07000000    0.01000000
   18.05249977   95.95200348    0.07000000    0.01000000
   18.05555534   92.74729919    0.07000000    0.01000000
   18.05888748   91.23049927    0.07000000    0.01000000
   18.06222153   79.95290375    0.07000000    0.01000000
   18.06527710   90.85919952    0.07000000    0.01000000
   18.06861115   90.37139893    0.07000000    0.01000000
   18.07194519   98.05059814    0.07000000    0.01000000
   18.07500076   96.49420166    0.07000000    0.01000000
   18.07833481   87.21559906    0.07000000    0.01000000
   18.07888985   83.48909760    0.07000000    0.01000000
   18.08194542   87.64769745    0.07000000    0.01000000
   18.08527756  104.23300171    0.07000000    0.01000000
   18.08861160   85.58609772    0.07000000    0.01000000
   18.09166718   90.56109619    0.07000000    0.01000000
   18.09611130   90.56109619    0.07000000    0.01000000
   18.10027885   98.36840057    0.07000000    0.01000000
   18.10361099  113.98699951    0.07000000    0.01000000
   18.10694504  102.49600220    0.07000000    0.01000000
   18.11000061  103.21900177    0.07000000    0.01000000
   18.11333466  101.16100311    0.07000000    0.01000000
   18.11638832  103.04499817    0.07000000    0.01000000
   18.11972237  111.59500122    0.07000000    0.01000000
   18.12305641   99.36270142    0.07000000    0.01000000
   18.12611198  103.23300171    0.07000000    0.01000000
   18.12888908   99.64350128    0.07000000    0.01000000
   18.12972260   94.15899658    0.07000000    0.01000000
   18.13305473   90.09279633    0.07000000    0.01000000
   18.13638878   90.15910339    0.07000000    0.01000000
   18.13944435   90.64129639    0.07000000    0.01000000
   18.14277840  103.27500153    0.07000000    0.01000000
   18.14749908  103.27500153    0.07000000    0.01000000
   18.15166664  101.05200195    0.07000000    0.01000000
   18.15472221  107.66899872    0.07000000    0.01000000
   18.15805435  100.29399872    0.07000000    0.01000000
   18.16110992   76.98400116    0.07000000    0.01000000
   18.16444397  113.51000214    0.07000000    0.01000000
   18.16777802   90.54709625    0.07000000    0.01000000
   18.17083359   92.60669708    0.07000000    0.01000000
   18.17416573  101.00599670    0.07000000    0.01000000
   18.17749977  102.91000366    0.07000000    0.01000000
   18.17888832  107.72599792    0.07000000    0.01000000
   18.18111038  107.82700348    0.07000000    0.01000000
   18.18416595   97.85169983    0.07000000    0.01000000
   18.18750000   98.65059662    0.07000000    0.01000000
   18.19055557   96.62850189    0.07000000    0.01000000
   18.19388771   99.78659821    0.07000000    0.01000000
   18.19861031   99.78659821    0.07000000    0.01000000
   18.20277786   87.64140320    0.07000000    0.01000000
   18.20583344  100.17800140    0.07000000    0.01000000
   18.20916748   95.40809631    0.07000000    0.01000000
   18.21250153  104.86799622    0.07000000    0.01000000
   18.21555710   95.67880249    0.07000000    0.01000000
   18.21888924  109.37500000    0.07000000    0.01000000
   18.22222328  104.82099915    0.07000000    0.01000000
   18.22527885  105.47899628    0.07000000    0.01000000
   18.22861099  102.02700043    0.07000000    0.01000000
   18.22916794  106.06500244    0.07000000    0.01000000
   18.23222351  100.88099670    0.07000000    0.01000000
   18.23555565   92.39949799    0.07000000    0.01000000
   18.23888969   93.05269623    0.07000000    0.01000000
   18.24194527   99.15229797    0.07000000    0.01000000
   18.24527740   92.52549744    0.07000000    0.01000000
   18.24972153   92.52549744    0.07000000    0.01000000
   18.25388908   87.59179688    0.07000000    0.01000000
   18.25722313   90.92620087    0.07000000    0.01000000
   18.26027870   97.15570068    0.07000000    0.01000000
   18.26361084   93.07250214    0.07000000    0.01000000
   18.26694489   91.54789734    0.07000000    0.01000000
   18.27000046   93.68270111    0.07000000    0.01000000
   18.27333260   96.73770142    0.07000000    0.01000000
   18.27638817   96.54750061    0.07000000    0.01000000
   18.27916718   97.34950256    0.07000000    0.01000000
   18.28027725  103.22499847    0.07000000    0.01000000
   18.28333282   92.69529724    0.07000000    0.01000000
   18.28666687   98.25509644    0.07000000    0.01000000
   18.28972244   96.56900024    0.07000000    0.01000000
   18.29305458   94.04190063    0.07000000    0.01000000
   18.29638863  100.19200134    0.07000000    0.01000000
   18.30083275  100.19200134    0.07000000    0.01000000
   18.30499840   96.68199921    0.07000000    0.01000000
   18.30833244   84.10109711    0.07000000    0.01000000
   18.31166649   99.32689667    0.07000000    0.01000000
   18.31472206   92.08029938    0.07000000    0.01000000
   18.31805611   84.79949951    0.07000000    0.01000000
   18.32111168   90.84329987    0.07000000    0.01000000
   18.32444572   91.81340027    0.07000000    0.01000000
   18.32777786   93.34269714    0.07000000    0.01000000
   18.32916832   98.32160187    0.07000000    0.01000000
   18.33139038   84.58699799    0.07000000    0.01000000
   18.33444595   92.55249786    0.07000000    0.01000000
   18.33777809   85.50209808    0.07000000    0.01000000
   18.34083366   94.12789917    0.07000000    0.01000000
   18.34416771   88.21019745    0.07000000    0.01000000
   18.34749985   86.33740234    0.07000000    0.01000000
   18.35222244   86.33740234    0.07000000    0.01000000
   18.35639000   84.04959869    0.07000000    0.01000000
   18.35944557   78.68509674    0.07000000    0.01000000
   18.36277771   82.19960022    0.07000000    0.01000000
   18.36583328   96.45189667    0.07000000    0.01000000
   18.36916733   92.17479706    0.07000000    0.01000000
   18.37249947   89.86080170    0.07000000    0.01000000
   18.37555504   82.56610107    0.07000000    0.01000000
   18.37888908   80.58300018    0.07000000    0.01000000
   18.37944412   89.94390106    0.07000000    0.01000000
   18.38249969   84.56919861    0.07000000    0.01000000
   18.38583374   87.73999786    0.07000000    0.01000000
   18.38916588   86.63099670    0.07000000    0.01000000
   18.39222145   89.87480164    0.07000000    0.01000000
   18.39555550   92.67340088    0.07000000    0.01000000
   18.39888954   86.63150024    0.07000000    0.01000000
   18.40333366   86.63150024    0.07000000    0.01000000
   18.40749931   86.45349884    0.07000000    0.01000000
   18.41055489   82.17469788    0.07000000    0.01000000
   18.41388893   95.76740265    0.07000000    0.01000000
   18.41722107   86.07250214    0.07000000    0.01000000
   18.42027664   95.12570190    0.07000000    0.01000000
   18.42361069  102.98000336    0.07000000    0.01000000
   18.42694473  101.08399963    0.07000000    0.01000000
   18.42944336  100.72799683    0.07000000    0.01000000
   18.43027687  102.56199646    0.07000000    0.01000000
   18.43361092  100.40599823    0.07000000    0.01000000
   18.43694305   84.52760315    0.07000000    0.01000000
   18.43999863   79.60019684    0.07000000    0.01000000
   18.44333267   88.36750031    0.07000000    0.01000000
   18.44666672   92.40059662    0.07000000    0.01000000
   18.44972038  101.79499817    0.07000000    0.01000000
   18.45444489  101.79499817    0.07000000    0.01000000
   18.45861244  106.79399872    0.07000000    0.01000000
   18.46194458  102.97399902    0.07000000    0.01000000
   18.46500015   95.94470215    0.07000000    0.01000000
   18.46833420   97.60379791    0.07000000    0.01000000
   18.47166634   93.44190216    0.07000000    0.01000000
   18.47472191   97.18229675    0.07000000    0.01000000
   18.47805595   93.99710083    0.07000000    0.01000000
   18.47944450   99.43990326    0.07000000    0.01000000
   18.48166656   91.62349701    0.07000000    0.01000000
   18.48472214   96.77639771    0.07000000    0.01000000
   18.48805618   94.17590332    0.07000000    0.01000000
   18.49111176   91.25990295    0.07000000    0.01000000
   18.49444389  107.16200256    0.07000000    0.01000000
   18.49777794   99.29460144    0.07000000    0.01000000
   18.50083351   81.12689972    0.07000000    0.01000000
   18.50555611   81.12689972    0.07000000    0.01000000
   18.50972176   91.04740143    0.07000000    0.01000000
   18.51305580   99.96690369    0.07000000    0.01000000
   18.51638794   93.67690277    0.07000000    0.01000000
   18.51944351  103.45600128    0.07000000    0.01000000
   18.52277756  106.15200043    0.07000000    0.01000000
   18.52583313  100.13400269    0.07000000    0.01000000
   18.52916718   90.96240234    0.07000000    0.01000000
   18.52972221   90.87619781    0.07000000    0.01000000
   18.53305435   89.22270203    0.07000000    0.01000000
   18.53610992   93.29560089    0.07000000    0.01000000
   18.53944397   94.72280121    0.07000000    0.01000000
   18.54249954   89.92130280    0.07000000    0.01000000
   18.54583359   93.21579742    0.07000000    0.01000000
   18.54916573   94.60579681    0.07000000    0.01000000
   18.55222130   89.50109863    0.07000000    0.01000000
   18.55694389   89.50109863    0.07000000    0.01000000
   18.56110954   87.02050018    0.07000000    0.01000000
   18.56416512   91.60119629    0.07000000    0.01000000
   18.56750107   90.52339935    0.07000000    0.01000000
   18.57055664   90.68789673    0.07000000    0.01000000
   18.57389069   98.19519806    0.07000000    0.01000000
   18.57722282   83.14769745    0.07000000    0.01000000
   18.57972336   91.94660187    0.07000000    0.01000000
   18.58083344   99.21240234    0.07000000    0.01000000
   18.58388901   86.92649841    0.07000000    0.01000000
   18.58722305   72.18080139    0.07000000    0.01000000
   18.59027863   71.67379761    0.07000000    0.01000000
   18.59361267   87.74169922    0.07000000    0.01000000
   18.59694481  103.16300201    0.07000000    0.01000000
   18.60000038   98.24130249    0.07000000    0.01000000
   18.60333443   93.14450073    0.07000000    0.01000000
   18.60805511   93.14450073    0.07000000    0.01000000
   18.61222267   85.23349762    0.07000000    0.01000000
   18.61527824   95.82389832    0.07000000    0.01000000
   18.61861038  101.55200195    0.07000000    0.01000000
   18.62194443   88.70130157    0.07000000    0.01000000
   18.62500000  100.84999847    0.07000000    0.01000000
   18.62833405   98.27790070    0.07000000    0.01000000
   18.62972260   97.16030121    0.07000000    0.01000000
   18.63194466   89.97489929    0.07000000    0.01000000
   18.63500023   87.46589661    0.07000000    0.01000000
   18.63833237   99.83170319    0.07000000    0.01000000
   18.64166641   89.47270203    0.07000000    0.01000000
   18.64472198   96.40540314    0.07000000    0.01000000
   18.64805603   92.45549774    0.07000000    0.01000000
   18.65111160  112.93900299    0.07000000    0.01000000
   18.65444374  105.72899628    0.07000000    0.01000000
   18.65916634  105.72899628    0.07000000    0.01000000
   18.66333389  102.80599976    0.07000000    0.01000000
   18.66666603   93.27020264    0.07000000    0.01000000
   18.66972160  109.08000183    0.07000000    0.01000000
   18.67305565   85.20600128    0.07000000    0.01000000
   18.67638779   96.73750305    0.07000000    0.01000000
   18.67944336   96.03780365    0.07000000    0.01000000
   18.68000031  102.80699921    0.07000000    0.01000000
   18.68333244   77.52860260    0.07000000    0.01000000
   18.68638802   93.64479828    0.07000000    0.01000000
   18.68972206   95.25930023    0.07000000    0.01000000
   18.69305420   91.71309662    0.07000000    0.01000000
   18.69610977  103.39299774    0.07000000    0.01000000
   18.69944382   95.05410004    0.07000000    0.01000000
   18.70250130   92.53990173    0.07000000    0.01000000
   18.70583344   91.79039764    0.07000000    0.01000000
   18.71027946   91.79039764    0.07000000    0.01000000
   18.71444511  100.30400085    0.07000000    0.01000000
   18.71777916   92.93699646    0.07000000    0.01000000
   18.72083473   96.20649719    0.07000000    0.01000000
   18.72416687   87.53389740    0.07000000    0.01000000
   18.72750092   94.15499878    0.07000000    0.01000000
   18.73000145   99.23950195    0.07000000    0.01000000
   18.73111153   96.18360138    0.07000000    0.01000000
   18.73416710   89.75150299    0.07000000    0.01000000
   18.73750114   89.41480255    0.07000000    0.01000000
   18.74083328   97.28469849    0.07000000    0.01000000
   18.74388885   94.03289795    0.07000000    0.01000000
   18.74722290   87.56140137    0.07000000    0.01000000
   18.75027847  105.57399750    0.07000000    0.01000000
   18.75361061   94.25099945    0.07000000    0.01000000
   18.75694466   95.30580139    0.07000000    0.01000000
   18.76166725   95.30580139    0.07000000    0.01000000
   18.76555634   85.51480103    0.07000000    0.01000000
   18.76888847   88.62349701    0.07000000    0.01000000
   18.77222252   97.43849945    0.07000000    0.01000000
   18.77527809   98.04370117    0.07000000    0.01000000
   18.79500008   93.80130005    0.07000000    0.01000000
   18.79555511   93.53489685    0.07000000    0.01000000
   18.79888916   96.95899963    0.07000000    0.01000000
   18.80194283   87.02010345    0.07000000    0.01000000
   18.80527687   98.65139771    0.07000000    0.01000000
   18.80861092   96.35410309    0.07000000    0.01000000
   18.81277657   96.35410309    0.07000000    0.01000000
   18.81694603  101.22499847    0.07000000    0.01000000
   18.82000160   96.74960327    0.07000000    0.01000000
   18.82333374   92.69619751    0.07000000    0.01000000
   18.82666779   97.89250183    0.07000000    0.01000000
   18.82972336   84.58219910    0.07000000    0.01000000
   18.83305550  105.13500214    0.07000000    0.01000000
   18.83611107   95.30039978    0.07000000    0.01000000
   18.83944511  105.12999725    0.07000000    0.01000000
   18.84277916   92.11650085    0.07000000    0.01000000
   18.84555626   86.76290131    0.07000000    0.01000000
   18.84638977   96.24990082    0.07000000    0.01000000
   18.84972191   99.91210175    0.07000000    0.01000000
   18.85277748   97.85240173    0.07000000    0.01000000
   18.85611153   90.04000092    0.07000000    0.01000000
   18.85916710   93.76229858    0.07000000    0.01000000
   18.86388969   93.76229858    0.07000000    0.01000000
   18.86805534   89.81430054    0.07000000    0.01000000
   18.87138939   91.33730316    0.07000000    0.01000000
   18.87444496   90.54979706    0.07000000    0.01000000
   18.87777710   95.86170197    0.07000000    0.01000000
   18.88083267   95.37390137    0.07000000    0.01000000
   18.88416672   94.47570038    0.07000000    0.01000000
   18.88750076   95.24330139    0.07000000    0.01000000
   18.89055634   96.83170319    0.07000000    0.01000000
   18.89388847   98.30090332    0.07000000    0.01000000
   18.89555550   93.39779663    0.07000000    0.01000000
   18.89749908   91.92600250    0.07000000    0.01000000
   18.90083313  101.39299774    0.07000000    0.01000000
   18.90388870  101.86299896    0.07000000    0.01000000
   18.90722275   99.86370087    0.07000000    0.01000000
   18.91027832   86.86440277    0.07000000    0.01000000
   18.91499901   86.86440277    0.07000000    0.01000000
   18.91916656   89.19599915    0.07000000    0.01000000
   18.92249870   99.77269745    0.07000000    0.01000000
   18.92555428   94.71060181    0.07000000    0.01000000
   18.92888832   98.14119720    0.07000000    0.01000000
   18.93222237   85.04010010    0.07000000    0.01000000
   18.93527603   98.47779846    0.07000000    0.01000000
   18.93861008   93.44080353    0.07000000    0.01000000
   18.94194412  101.43099976    0.07000000    0.01000000
   18.94499969  103.24299622    0.07000000    0.01000000
   18.94555473   98.35379791    0.07000000    0.01000000
   18.94861031  104.20200348    0.07000000    0.01000000
   18.95166779   91.05120087    0.07000000    0.01000000
   18.95499992   92.88249969    0.07000000    0.01000000
   18.95833397   98.39489746    0.07000000    0.01000000
   18.96138954   95.46399689    0.07000000    0.01000000
   18.96638870   95.46399689    0.07000000    0.01000000
   18.97027779  100.01599884    0.07000000    0.01000000
   18.97361183   90.99220276    0.07000000    0.01000000
   18.97694588   87.23329926    0.07000000    0.01000000
   18.98000145   95.51679993    0.07000000    0.01000000
   18.98333359   96.27089691    0.07000000    0.01000000
   18.98638916   95.69020081    0.07000000    0.01000000
   18.98972321   88.57029724    0.07000000    0.01000000
   18.99305534   91.70339966    0.07000000    0.01000000
   18.99555588   99.04290009    0.07000000    0.01000000
   18.99666786  101.94000244    0.07000000    0.01000000
   19.00000000   95.26049805    0.07000000    0.01000000
   19.00305557   90.31300354    0.07000000    0.01000000
   19.00638962   88.31300354    0.07000000    0.01000000
   19.00944519   85.71890259    0.07000000    0.01000000
   19.01277733   88.55090332    0.07000000    0.01000000
   19.01749992   88.55090332    0.07000000    0.01000000
   19.02166557   84.39610291    0.07000000    0.01000000
   19.02472115   88.14489746    0.07000000    0.01000000
   19.02805519   94.91889954    0.07000000    0.01000000
   19.03111076   97.02130127    0.07000000    0.01000000
   19.03444481   91.54910278    0.07000000    0.01000000
   19.03777695  101.02700043    0.07000000    0.01000000
   19.04111099   90.29740143    0.07000000    0.01000000
   19.04416656   96.32160187    0.07000000    0.01000000
   19.04583359   91.38849640    0.07000000    0.01000000
   19.04777718   88.82949829    0.07000000    0.01000000
   19.05111122   96.62270355    0.07000000    0.01000000
   19.05416679   90.57730103    0.07000000    0.01000000
   19.05749893   85.16429901    0.07000000    0.01000000
   19.06055450   84.83989716    0.07000000    0.01000000
   19.06388855   80.60230255    0.07000000    0.01000000
   19.06861115   80.60230255    0.07000000    0.01000000
   19.07277870   88.95980072    0.07000000    0.01000000
   19.07583427   81.30390167    0.07000000    0.01000000
   19.07916832   91.61199951    0.07000000    0.01000000
   19.08250046   94.29640198    0.07000000    0.01000000
   19.08555603   97.21749878    0.07000000    0.01000000
   19.08889008   95.13909912    0.07000000    0.01000000
   19.09222221   94.54489899    0.07000000    0.01000000
   19.09527779   86.91600037    0.07000000    0.01000000
   19.09583473   98.47519684    0.07000000    0.01000000
   19.10583305   96.61430359    0.00000000    0.00000000
   19.10972214  107.63300323    0.00000000    0.00000000
   19.11361122   94.78829956    0.00000000    0.00000000
   19.11694527   96.09690094    0.07000000    0.01000000
   19.12361145   96.09690094    0.07000000    0.01000000
   19.12777710   81.23400116    0.07000000    0.01000000
   19.13111115   95.85710144    0.07000000    0.01000000
   19.13416672   89.05069733    0.07000000    0.01000000
   19.13750076   99.93350220    0.07000000    0.01000000
   19.14083290   95.58619690    0.07000000    0.01000000
   19.14388847   94.68360138    0.07000000    0.01000000
   19.14611053  102.59899902    0.07000000    0.01000000
   19.14749908   99.46269989    0.07000000    0.01000000
   19.15083313  106.75499725    0.07000000    0.01000000
   19.15388870  108.25000000    0.07000000    0.01000000
   19.15722275   95.64939880    0.07000000    0.01000000
   19.16055489   98.09140015    0.07000000    0.01000000
   19.16361046   87.20709991    0.07000000    0.01000000
   19.16694450  100.08999634    0.07000000    0.01000000
   19.17027664   88.18939972    0.07000000    0.01000000
   19.17499924   88.18939972    0.07000000    0.01000000
   19.17888832   89.63480377    0.07000000    0.01000000
   19.18222237   98.50640106    0.07000000    0.01000000
   19.18555450  101.84899902    0.07000000    0.01000000
   19.18861008   95.89700317    0.07000000    0.01000000
   19.19194412   92.84850311    0.07000000    0.01000000
   19.19499969   94.90650177    0.07000000    0.01000000
   19.19610977   99.40560150    0.07000000    0.01000000
   19.19861031   92.06030273    0.07000000    0.01000000
   19.20194435  111.73899841    0.07000000    0.01000000
   19.20499992  103.98200226    0.07000000    0.01000000
   19.20833397  101.47299957    0.07000000    0.01000000
   19.21166801   94.88420105    0.07000000    0.01000000
   19.21472359  103.79900360    0.07000000    0.01000000
   19.21805573  100.24299622    0.07000000    0.01000000
   19.22138977   99.45369720    0.07000000    0.01000000
   19.22611237   99.45369720    0.07000000    0.01000000
   19.23027802  106.94100189    0.07000000    0.01000000
   19.23333359   94.07479858    0.07000000    0.01000000
   19.23666763   92.40799713    0.07000000    0.01000000
   19.23999977   77.62090302    0.07000000    0.01000000
   19.24305534   91.40660095    0.07000000    0.01000000
   19.24611092   94.01470184    0.07000000    0.01000000
   19.24666786   82.45809937    0.07000000    0.01000000
   19.25000000   98.75469971    0.07000000    0.01000000
   19.25305557   87.97660065    0.07000000    0.01000000
   19.25638962   94.42389679    0.07000000    0.01000000
   19.25972176   94.64119720    0.07000000    0.01000000
   19.26277733   80.65329742    0.07000000    0.01000000
   19.26611137   88.41110229    0.07000000    0.01000000
   19.26944351   92.91089630    0.07000000    0.01000000
   19.27249908   77.85209656    0.07000000    0.01000000
   19.27722168   77.85209656    0.07000000    0.01000000
   19.28138924  100.81800079    0.07000000    0.01000000
   19.28444481  103.89099884    0.07000000    0.01000000
   19.28777695   90.84989929    0.07000000    0.01000000
   19.29111099   87.76319885    0.07000000    0.01000000
   19.29416656   81.33670044    0.07000000    0.01000000
   19.29611015   89.94460297    0.07000000    0.01000000
   19.29777718   90.85440063    0.07000000    0.01000000
   19.30111122   90.75109863    0.07000000    0.01000000
   19.30444336   76.70860291    0.07000000    0.01000000
   19.30749893   87.06269836    0.07000000    0.01000000
   19.31083298   84.63569641    0.07000000    0.01000000
   19.31388855   86.24759674    0.07000000    0.01000000
   19.31722260   84.26170349    0.07000000    0.01000000
   19.32055664   77.86180115    0.07000000    0.01000000
   19.32361221   91.08149719    0.07000000    0.01000000
   19.32833481   91.08149719    0.07000000    0.01000000
   19.33250046   96.88829803    0.07000000    0.01000000
   19.33583450   93.09539795    0.07000000    0.01000000
   19.33889008   90.23519897    0.07000000    0.01000000
   19.34222221   94.50640106    0.07000000    0.01000000
   19.34555626   85.12999725    0.07000000    0.01000000
   19.34611130   80.60849762    0.07000000    0.01000000
   19.34889030   89.42130280    0.07000000    0.01000000
   19.35222244   90.93589783    0.07000000    0.01000000
   19.35555649   96.15100098    0.07000000    0.01000000
   19.35861206   93.11910248    0.07000000    0.01000000
   19.36194420   95.64389801    0.07000000    0.01000000
   19.36499977   97.85510254    0.07000000    0.01000000
   19.36833382   99.69550323    0.07000000    0.01000000
   19.37166595   97.17359924    0.07000000    0.01000000
   19.37472153   91.00070190    0.07000000    0.01000000
   19.37944412   91.00070190    0.07000000    0.01000000
   19.38361168   92.46990204    0.07000000    0.01000000
   19.38694382   88.23709869    0.07000000    0.01000000
   19.39027786   91.53060150    0.07000000    0.01000000
   19.39333344   96.18589783    0.07000000    0.01000000
   19.39611053   93.27510071    0.07000000    0.01000000
   19.39694405  100.68800354    0.07000000    0.01000000
   19.40027809   82.93859863    0.07000000    0.01000000
   19.40361023   95.71510315    0.07000000    0.01000000
   19.40666580   88.74330139    0.07000000    0.01000000
   19.40999985   89.30549622    0.07000000    0.01000000
   19.41333389   82.19239807    0.07000000    0.01000000
   19.41638756   92.26580048    0.07000000    0.01000000
   19.41972160   89.34410095    0.07000000    0.01000000
   19.42277718   90.32640076    0.07000000    0.01000000
   19.42611122   83.77790070    0.07000000    0.01000000
   19.43083191   83.77790070    0.07000000    0.01000000
   19.43499947  100.44300079    0.07000000    0.01000000
   19.43805504   89.24980164    0.07000000    0.01000000
   19.44138718  102.74900055    0.07000000    0.01000000
   19.44444275  100.47200012    0.07000000    0.01000000
   19.44610977   95.45800018    0.07000000    0.01000000
   19.44805527   99.31449890    0.07000000    0.01000000
   19.45138931   88.12030029    0.07000000    0.01000000
   19.45472336   88.02580261    0.07000000    0.01000000
   19.45777893   96.51889801    0.07000000    0.01000000
   19.46111107   92.59220123    0.07000000    0.01000000
   19.46444511  102.07900238    0.07000000    0.01000000
   19.46750069   90.65000153    0.07000000    0.01000000
   19.47083473   90.62670135    0.07000000    0.01000000
   19.47389030   95.64080048    0.07000000    0.01000000
   19.47722244   97.47029877    0.07000000    0.01000000
   19.48194504   97.47029877    0.07000000    0.01000000
   19.48611069   96.52259827    0.07000000    0.01000000
   19.48944473   98.28009796    0.07000000    0.01000000
   19.49250031  102.51100159    0.07000000    0.01000000
   19.49583435  103.27700043    0.07000000    0.01000000
   19.49638939   98.45690155    0.07000000    0.01000000
   19.49972153   95.07050323    0.07000000    0.01000000
   19.50277710   94.39340210    0.07000000    0.01000000
   19.50611115  101.87599945    0.07000000    0.01000000
   19.50916672   99.46459961    0.07000000    0.01000000
   19.51250076   99.19719696    0.07000000    0.01000000
   19.51583290   96.46219635    0.07000000    0.01000000
   19.51888847   99.25669861    0.07000000    0.01000000
   19.52222252  103.04900360    0.07000000    0.01000000
   19.52555466  101.40899658    0.07000000    0.01000000
   19.52861023  100.43199921    0.07000000    0.01000000
   19.53305435  100.43199921    0.07000000    0.01000000
   19.53722191   91.74710083    0.07000000    0.01000000
   19.54055595  100.31199646    0.07000000    0.01000000
   19.54388809   86.47109985    0.07000000    0.01000000
   19.54638863   95.86609650    0.07000000    0.01000000
   19.54749870   93.02059937    0.07000000    0.01000000
   19.55055428   90.10160065    0.07000000    0.01000000
   19.55388832   83.07839966    0.07000000    0.01000000
   19.55694389   79.66660309    0.07000000    0.01000000
   19.56027794   87.11750031    0.07000000    0.01000000
   19.56361008   83.90409851    0.07000000    0.01000000
   19.56666756   91.59950256    0.07000000    0.01000000
   19.57000160   88.69329834    0.07000000    0.01000000
   19.57305717   90.45220184    0.07000000    0.01000000
   19.57638931   80.70999908    0.07000000    0.01000000
   19.57972336   88.80130005    0.07000000    0.01000000
   19.58444595   88.80130005    0.07000000    0.01000000
   19.58861160   85.49099731    0.07000000    0.01000000
   19.59166718   90.54720306    0.07000000    0.01000000
   19.59500122   83.95539856    0.07000000    0.01000000
   19.59638977   87.26329803    0.07000000    0.01000000
   19.59861183   90.30719757    0.07000000    0.01000000
   19.60166740   85.09480286    0.07000000    0.01000000
   19.60499954   89.10939789    0.07000000    0.01000000
   19.60805511   94.05300140    0.07000000    0.01000000
   19.61138916   94.87770081    0.07000000    0.01000000
   19.61472321   92.91040039    0.07000000    0.01000000
   19.61777878   90.78980255    0.07000000    0.01000000
   19.62111092   98.22789764    0.07000000    0.01000000
   19.62444496   89.03630066    0.07000000    0.01000000
   19.62750053   93.02770233    0.07000000    0.01000000
   19.63083267   82.35099792    0.07000000    0.01000000
   19.63555527   82.35099792    0.07000000    0.01000000
   19.63972282   87.06739807    0.07000000    0.01000000
   19.64305496   83.81510162    0.07000000    0.01000000
   19.64611053   97.70899963    0.07000000    0.01000000
   19.64666748   89.52429962    0.07000000    0.01000000
   19.64999962   93.79609680    0.07000000    0.01000000
   19.65305519   84.82099915    0.07000000    0.01000000
   19.65638924   92.66940308    0.07000000    0.01000000
   19.65972137   93.38749695    0.07000000    0.01000000
   19.66277695   86.87149811    0.07000000    0.01000000
   19.66611099   90.28669739    0.07000000    0.01000000
   19.66916656   91.31639862    0.07000000    0.01000000
   19.67249870   83.65940094    0.07000000    0.01000000
   19.67583275   92.37259674    0.07000000    0.01000000
   19.67888832   94.95410156    0.07000000    0.01000000
   19.68222237   95.54889679    0.07000000    0.01000000
   19.68666649   95.54889679    0.07000000    0.01000000
   19.69083214   92.40429688    0.07000000    0.01000000
   19.69416618   95.74579620    0.07000000    0.01000000
   19.69666672   92.00879669    0.07000000    0.01000000
   19.69777679  100.18900299    0.07000000    0.01000000
   19.70083427   86.64289856    0.07000000    0.01000000
   19.70416832   87.41239929    0.07000000    0.01000000
   19.70750046   93.71289825    0.07000000    0.01000000
   19.71055603   81.45680237    0.07000000    0.01000000
   19.71389008  102.95600128    0.07000000    0.01000000
   19.71722221  102.30400085    0.07000000    0.01000000
   19.72027779   92.38970184    0.07000000    0.01000000
   19.72361183  101.99800110    0.07000000    0.01000000
   19.72694588   93.65309906    0.07000000    0.01000000
   19.73000145  103.36299896    0.07000000    0.01000000
   19.73333359   96.98470306    0.07000000    0.01000000
   19.73805618   96.98470306    0.07000000    0.01000000
   19.74194527   95.53079987    0.07000000    0.01000000
   19.74527740   91.71720123    0.07000000    0.01000000
   19.74666786   90.80419922    0.07000000    0.01000000
   19.74888992   92.34760284    0.07000000    0.01000000
   19.75194359   98.97859955    0.07000000    0.01000000
   19.75527763   94.14820099    0.07000000    0.01000000
   19.75861168   96.31670380    0.07000000    0.01000000
   19.76166725   96.23020172    0.07000000    0.01000000
   19.76499939   94.85849762    0.07000000    0.01000000
   19.76833344   87.63710022    0.07000000    0.01000000
   19.77138901   82.51129913    0.07000000    0.01000000
   19.77472115   86.93109894    0.07000000    0.01000000
   19.77777672   93.63410187    0.07000000    0.01000000
   19.78111076   95.40350342    0.07000000    0.01000000
   19.78444481   88.31670380    0.07000000    0.01000000
   19.78916550   88.31670380    0.07000000    0.01000000
   19.79333305   96.36530304    0.07000000    0.01000000
   19.79638863   90.05930328    0.07000000    0.01000000
   19.79694366   96.91079712    0.07000000    0.01000000
   19.81638718   96.48639679    0.07000000    0.01000000
   19.81972313   95.32640076    0.07000000    0.01000000
   19.82305717   91.93190002    0.07000000    0.01000000
   19.82611275   96.39710236    0.07000000    0.01000000
   19.82944489   92.00990295    0.07000000    0.01000000
   19.83277893   84.09420013    0.07000000    0.01000000
   19.83583450   90.32540131    0.07000000    0.01000000
   19.84027863   90.32540131    0.07000000    0.01000000
   19.84444427  104.16799927    0.07000000    0.01000000
   19.84694481   94.09970093    0.07000000    0.01000000
   19.84805679   86.63670349    0.07000000    0.01000000
   19.85111237  100.93599701    0.07000000    0.01000000
   19.85444450   92.68199921    0.07000000    0.01000000
   19.85777855   96.01149750    0.07000000    0.01000000
   19.86083412   87.65299988    0.07000000    0.01000000
   19.86416626   87.69010162    0.07000000    0.01000000
   19.86750031   96.07990265    0.07000000    0.01000000
   19.87055588   87.86579895    0.07000000    0.01000000
   19.87388992   93.32399750    0.07000000    0.01000000
   19.87694550   95.11440277    0.07000000    0.01000000
   19.88027763  103.49400330    0.07000000    0.01000000
   19.88361168   92.42700195    0.07000000    0.01000000
   19.88666725   94.85690308    0.07000000    0.01000000
   19.89138794   94.85690308    0.07000000    0.01000000
   19.89555550   87.01999664    0.07000000    0.01000000
   19.89694405   82.95839691    0.07000000    0.01000000
   19.89916611   84.20059967    0.07000000    0.01000000
   19.90250015   92.99310303    0.07000000    0.01000000
   19.90555573   83.41940308    0.07000000    0.01000000
   19.90888786   96.14820099    0.07000000    0.01000000
   19.91222191   88.98760223    0.07000000    0.01000000
   19.91527748   93.17279816    0.07000000    0.01000000
   19.91860962   84.43759918    0.07000000    0.01000000
   19.92194366   96.41899872    0.07000000    0.01000000
   19.92499924   93.23629761    0.07000000    0.01000000
   19.92833328  100.48699951    0.07000000    0.01000000
   19.93138885   87.99079895    0.07000000    0.01000000
   19.93472099   89.06839752    0.07000000    0.01000000
   19.93805504   87.94029999    0.07000000    0.01000000
   19.94277763   87.94029999    0.07000000    0.01000000
   19.94666672   83.07740021    0.07000000    0.01000000
   19.94722176   87.41040039    0.07000000    0.01000000
   19.95055580   84.75140381    0.07000000    0.01000000
   19.95444489   90.52449799    0.00000000    0.00000000
   19.95833397   85.34719849    0.00000000    0.00000000
   19.96222305   79.49500275    0.00000000    0.00000000
   19.96611214   89.66169739    0.00000000    0.00000000
   19.96972275   86.78620148    0.00000000    0.00000000
   19.97361183   84.46150208    0.00000000    0.00000000
   19.97750092   79.30549622    0.00000000    0.00000000
   19.98139000   87.49430084    0.00000000    0.00000000
   19.98527718   80.48229980    0.00000000    0.00000000
   19.98916626   96.80840302    0.00000000    0.00000000
   19.99472237   96.80840302    0.00000000    0.00000000
   19.99972153   96.32460022    0.00000000    0.00000000
   20.00333405   98.60030365    0.00000000    0.00000000
   20.00722313  100.61699677    0.00000000    0.00000000
   20.01111031   99.34909821    0.00000000    0.00000000
   20.01499939   97.20069885    0.00000000    0.00000000
   20.01888847  103.90599823    0.00000000    0.00000000
   20.02277756   97.66310120    0.00000000    0.00000000
   20.02666664  102.15000153    0.00000000    0.00000000
   20.03055573   96.01139832    0.00000000    0.00000000
   20.03416634  100.55100250    0.00000000    0.00000000
   20.03805542   93.75930023    0.00000000    0.00000000
   20.04194450   98.88020325    0.00000000    0.00000000
   20.04666710   98.88020325    0.00000000    0.00000000
   20.05138779   98.88670349    0.00000000    0.00000000
   20.05527687  102.99400330    0.00000000    0.00000000
   20.05916595   97.50599670    0.00000000    0.00000000
   20.06305504  100.89099884    0.00000000    0.00000000
   20.06694603  102.19499969    0.00000000    0.00000000
   20.07083511  100.05300140    0.00000000    0.00000000
   20.07472229   97.05339813    0.00000000    0.00000000
   20.07861137   86.46890259    0.00000000    0.00000000
   20.08250046   94.13590240    0.00000000    0.00000000
   20.08638954   89.46170044    0.00000000    0.00000000
   20.09000015   86.06870270    0.00000000    0.00000000
   20.09388924   93.45339966    0.00000000    0.00000000
   20.09861183   93.45339966    0.00000000    0.00000000
   20.10333443   97.39350128    0.00000000    0.00000000
   20.10722351   95.75240326    0.00000000    0.00000000
   20.11111069   74.79799652    0.00000000    0.00000000
   20.11499977   90.20600128    0.00000000    0.00000000
   20.11888885   90.49600220    0.00000000    0.00000000
   20.12277794   83.10970306    0.00000000    0.00000000
   20.12666702   93.92900085    0.00000000    0.00000000
   20.13055611   93.09580231    0.00000000    0.00000000
   20.13416672   84.07160187    0.00000000    0.00000000
   20.13805580   81.88390350    0.00000000    0.00000000
   20.14194489   92.14479828    0.00000000    0.00000000
   20.14583397   97.78939819    0.00000000    0.00000000
   20.15055466   97.78939819    0.00000000    0.00000000
   20.15527725   89.05180359    0.00000000    0.00000000
   20.15916634   87.49639893    0.00000000    0.00000000
   20.16305542  100.10700226    0.00000000    0.00000000
   20.16694450   92.57409668    0.00000000    0.00000000
   20.17083359   92.95410156    0.00000000    0.00000000
   20.17472076   87.81379700    0.00000000    0.00000000
   20.17860985   99.84500122    0.00000000    0.00000000
   20.18222237   81.08029938    0.00000000    0.00000000
   20.18610954   98.18470001    0.00000000    0.00000000
   20.18999863   91.72830200    0.00000000    0.00000000
   20.19388771   95.46160126    0.00000000    0.00000000
   20.19777679   87.94629669    0.00000000    0.00000000
   20.20250130   87.94629669    0.00000000    0.00000000
   20.20722389   85.76889801    0.00000000    0.00000000
   20.21111107   94.43740082    0.00000000    0.00000000
   20.21500015   88.36840057    0.00000000    0.00000000
   20.21888924   92.97059631    0.00000000    0.00000000
   20.22277832   95.63539886    0.00000000    0.00000000
   20.22666740   87.05850220    0.00000000    0.00000000
   20.23027802   96.49810028    0.00000000    0.00000000
   20.23416710   98.68049622    0.00000000    0.00000000
   20.23805618   91.29409790    0.00000000    0.00000000
   20.24194527   94.34570313    0.00000000    0.00000000
   20.24583435   90.57189941    0.00000000    0.00000000
   20.24972153   99.26260376    0.00000000    0.00000000
   20.25444412   99.26260376    0.00000000    0.00000000
   20.25916672   92.62550354    0.00000000    0.00000000
   20.26305580   93.78420258    0.00000000    0.00000000
   20.26694489   82.16680145    0.00000000    0.00000000
   20.27083397   84.23940277    0.00000000    0.00000000
   20.27472115   89.33319855    0.00000000    0.00000000
   20.27861023  112.21099854    0.00000000    0.00000000
   20.28222275   94.24539948    0.00000000    0.00000000
   20.28610992   91.87719727    0.00000000    0.00000000
   20.28999901   92.50370026    0.00000000    0.00000000
   20.29388809   93.49530029    0.00000000    0.00000000
   20.29777718   85.33979797    0.00000000    0.00000000
   20.30166626   84.99220276    0.00000000    0.00000000
   20.30638885   84.99220276    0.00000000    0.00000000
   20.31110954   87.37079620    0.00000000    0.00000000
   20.31499863   82.84980011    0.00000000    0.00000000
   20.31888962   95.53990173    0.00000000    0.00000000
   20.32277870   87.39140320    0.00000000    0.00000000
   20.32666779   81.53589630    0.00000000    0.00000000
   20.33027840   83.81320190    0.00000000    0.00000000
   20.33416748   79.90160370    0.00000000    0.00000000
   20.33805656   91.81449890    0.00000000    0.00000000
   20.34194565   82.08059692    0.00000000    0.00000000
   20.34583473   85.79630280    0.00000000    0.00000000
   20.34972191   84.50350189    0.00000000    0.00000000
   20.35361099   86.40879822    0.00000000    0.00000000
   20.35833359   86.40879822    0.00000000    0.00000000
   20.36305618   95.36460114    0.00000000    0.00000000
   20.36694527   93.02559662    0.00000000    0.00000000
   20.37083435   94.16609955    0.00000000    0.00000000
   20.37444496   89.15979767    0.00000000    0.00000000
   20.37833405   88.53350067    0.00000000    0.00000000
   20.38222313   83.98380280    0.00000000    0.00000000
   20.38611031   87.93779755    0.00000000    0.00000000
   20.38999939   88.03959656    0.00000000    0.00000000
   20.39388847   84.18890381    0.00000000    0.00000000
   20.39777756   92.37000275    0.00000000    0.00000000
   20.40166664   87.66449738    0.00000000    0.00000000
   20.40555573   86.69370270    0.00000000    0.00000000
   20.41027832   86.69370270    0.00000000    0.00000000
   20.41527748   89.93830109    0.00000000    0.00000000
   20.41888809   99.17620087    0.00000000    0.00000000
   20.42277718   89.02950287    0.00000000    0.00000000
   20.42666626   92.69750214    0.00000000    0.00000000
   20.43055534  105.01699829    0.00000000    0.00000000
   20.43444443   96.42050171    0.00000000    0.00000000
   20.43833160   89.43270111    0.00000000    0.00000000
   20.44222069   96.02619934    0.00000000    0.00000000
   20.44610977   89.83170319    0.00000000    0.00000000
   20.45000076   88.69200134    0.00000000    0.00000000
   20.45388985   83.18630219    0.00000000    0.00000000
   20.45805550   92.94280243    0.00000000    0.00000000
   20.46389008   92.94280243    0.00000000    0.00000000
   20.46888924   82.73970032    0.00000000    0.00000000
   20.47277832   80.85780334    0.00000000    0.00000000
   20.47666740   89.64450073    0.00000000    0.00000000
   20.48055649   87.99990082    0.00000000    0.00000000
   20.48444557   84.73090363    0.00000000    0.00000000
   20.48861122   86.82559967    0.00000000    0.00000000
   20.49250031   74.78109741    0.00000000    0.00000000
   20.49638939   87.94869995    0.00000000    0.00000000
   20.50027847   81.31179810    0.00000000    0.00000000
   20.50416756   84.62300110    0.00000000    0.00000000
   20.50805473   95.95600128    0.00000000    0.00000000
   20.51416588   95.95600128    0.00000000    0.00000000
   20.51916695   92.62870026    0.00000000    0.00000000
   20.52305603   92.36170197    0.00000000    0.00000000
   20.52722168  100.83000183    0.00000000    0.00000000
   20.53111076   77.03839874    0.00000000    0.00000000
   20.53527641   92.54350281    0.00000000    0.00000000
   20.53916550   89.28379822    0.00000000    0.00000000
   20.54277802   82.96730042    0.00000000    0.00000000
   20.54666710   95.32879639    0.00000000    0.00000000
   20.55055428   91.17980194    0.00000000    0.00000000
   20.55472183   86.45040131    0.00000000    0.00000000
   20.55861092   95.46160126    0.00000000    0.00000000
   20.56527710   95.46160126    0.00000000    0.00000000
   20.57000160   85.87280273    0.00000000    0.00000000
   20.57389069   88.90039825    0.00000000    0.00000000
   20.57777786   90.24780273    0.00000000    0.00000000
   20.58166695   91.86360168    0.00000000    0.00000000
   20.58555603   81.05269623    0.00000000    0.00000000
   20.58916664   90.34030151    0.00000000    0.00000000
   20.59305573  101.40000153    0.00000000    0.00000000
   20.59694481   84.26969910    0.00000000    0.00000000
   20.60083389   83.92099762    0.00000000    0.00000000
   20.60499954   95.36550140    0.00000000    0.00000000
   20.60888863   93.83029938    0.00000000    0.00000000
   20.61638832   93.83029938    0.00000000    0.00000000
   20.62111092   88.47579956    0.00000000    0.00000000
   20.62500000   85.38839722    0.00000000    0.00000000
   20.62888908   87.04499817    0.00000000    0.00000000
   20.63277817   77.11669922    0.00000000    0.00000000
   20.63666725   93.00099945    0.00000000    0.00000000
   20.64027786   78.20189667    0.00000000    0.00000000
   20.64416695   86.63020325    0.00000000    0.00000000
   20.64805603   85.00189972    0.00000000    0.00000000
   20.65194321   86.38179779    0.00000000    0.00000000
   20.65611076   83.27510071    0.00000000    0.00000000
   20.65999985   91.11779785    0.00000000    0.00000000
   20.66388893   83.02639771    0.00000000    0.00000000
   20.66916656   83.02639771    0.00000000    0.00000000
   20.67388916   90.94170380    0.00000000    0.00000000
   20.67777634   91.83300018    0.00000000    0.00000000
   20.68138885   91.71769714    0.00000000    0.00000000
   20.68527603  102.51999664    0.00000000    0.00000000
   20.68916512   88.20269775    0.00000000    0.00000000
   20.69305420   94.73169708    0.00000000    0.00000000
   20.69722176  102.83799744    0.00000000    0.00000000
   20.70111275   89.15709686    0.00000000    0.00000000
   20.70472336   94.82779694    0.00000000    0.00000000
   20.70861244   94.17340088    0.00000000    0.00000000
   20.71250153   95.99050140    0.00000000    0.00000000
   20.71666718   96.00779724    0.00000000    0.00000000
   20.72166634   96.00779724    0.00000000    0.00000000
   20.72638893   91.19499969    0.00000000    0.00000000
   20.73027802  101.29299927    0.00000000    0.00000000
   20.73388863   94.60970306    0.00000000    0.00000000
   20.73777771   95.33049774    0.00000000    0.00000000
   20.74166679   98.57740021    0.00000000    0.00000000
   20.74555588   95.30570221    0.00000000    0.00000000
   20.74944496   89.47000122    0.00000000    0.00000000
   20.75333405   97.73290253    0.00000000    0.00000000
   20.75694466   89.97470093    0.00000000    0.00000000
   20.76083374   90.28060150    0.00000000    0.00000000
   20.76472282   95.92870331    0.00000000    0.00000000
   20.76638794   88.21140289    0.00000000    0.00000000
   20.77277756   88.21140289    0.00000000    0.00000000
   20.77750015   95.04579926    0.00000000    0.00000000
   20.78138924   91.91049957    0.00000000    0.00000000
   20.78527641  104.16400146    0.00000000    0.00000000
   20.78916550   99.69450378    0.00000000    0.00000000
   20.79305458   94.63449860    0.00000000    0.00000000
   20.79694366  102.44400024    0.00000000    0.00000000
   20.80083275   91.71949768    0.00000000    0.00000000
   20.80444336   99.45300293    0.00000000    0.00000000
   20.80833244   96.55249786    0.00000000    0.00000000
   20.81222153  104.47100067    0.00000000    0.00000000
   20.81611061   94.60440063    0.00000000    0.00000000
   20.81666756   98.23940277    0.00000000    0.00000000
   20.83805656   98.23940277    0.00000000    0.00000000
   20.84277916   89.74829865    0.00000000    0.00000000
   20.84666824   96.34300232    0.00000000    0.00000000
   20.85055542   91.08630371    0.00000000    0.00000000
   20.85472298   95.11280060    0.00000000    0.00000000
   20.85861206   91.05619812    0.00000000    0.00000000
   20.86250114  103.52600098    0.00000000    0.00000000
   20.86638832   89.00150299    0.00000000    0.00000000
   20.86722183   95.49909973    0.00000000    0.00000000
   20.87083435   89.73999786    0.00000000    0.00000000
   20.87472153   86.86260223    0.00000000    0.00000000
   20.87888908   94.08090210    0.00000000    0.00000000
   20.88249969   97.05180359    0.00000000    0.00000000
   20.88916588   97.05180359    0.00000000    0.00000000
   20.89388847   94.34030151    0.00000000    0.00000000
   20.89777756   89.66020203    0.00000000    0.00000000
   20.90166664   95.77909851    0.00000000    0.00000000
   20.90555573   98.71549988    0.00000000    0.00000000
   20.90944481   92.01570129    0.00000000    0.00000000
   20.91333389   93.92279816    0.00000000    0.00000000
   20.91722107   92.09999847    0.00000000    0.00000000
   20.91777802   97.87329865    0.00000000    0.00000000
   20.92138863   98.69989777    0.00000000    0.00000000
   20.92527771   96.44300079    0.00000000    0.00000000
   20.92916679   91.63899994    0.00000000    0.00000000
   20.93277740   92.82129669    0.00000000    0.00000000
   20.94027710   92.82129669    0.00000000    0.00000000
   20.94527626  100.58699799    0.00000000    0.00000000
   20.94888878   97.47920227    0.00000000    0.00000000
   20.95277786   81.26229858    0.00000000    0.00000000
   20.95666695   97.68219757    0.00000000    0.00000000
   20.96055603   97.81890106    0.00000000    0.00000000
   20.96444511   91.10260010    0.00000000    0.00000000
   20.96833420   94.72489929    0.00000000    0.00000000
   20.96888924   95.51249695    0.00000000    0.00000000
   20.97249985   90.03040314    0.00000000    0.00000000
   20.97638893   97.59760284    0.00000000    0.00000000
   20.98027802   91.61299896    0.00000000    0.00000000
   20.98416710   98.17199707    0.00000000    0.00000000
   20.99166679   98.17199707    0.00000000    0.00000000
   20.99638939   89.14279938    0.00000000    0.00000000
   21.00027847   88.03289795    0.00000000    0.00000000
   21.00416756   85.41539764    0.00000000    0.00000000
   21.00777817   93.01969910    0.00000000    0.00000000
   21.01166725   93.90090179    0.00000000    0.00000000
   21.01555634   88.33370209    0.00000000    0.00000000
   21.01805496   92.42269897    0.00000000    0.00000000
   21.01972198   85.39689636    0.00000000    0.00000000
   21.02361107   99.63559723    0.00000000    0.00000000
   21.02750015   89.60079956    0.00000000    0.00000000
   21.03138924   81.34120178    0.00000000    0.00000000
   21.03527641   90.17150116    0.00000000    0.00000000
   21.03916550   95.61199951    0.00000000    0.00000000
   21.04388809   95.61199951    0.00000000    0.00000000
   21.04861069   94.28970337    0.00000000    0.00000000
   21.05249977   93.27700043    0.00000000    0.00000000
   21.05666542   92.40360260    0.00000000    0.00000000
   21.06055450   91.88960266    0.00000000    0.00000000
   21.06444359   89.28279877    0.00000000    0.00000000
   21.06805611  102.16999817    0.00000000    0.00000000
   21.06861115   92.66880035    0.00000000    0.00000000
   21.07222366   86.52590179    0.00000000    0.00000000
   21.07611275   93.91000366    0.00000000    0.00000000
   21.08000183   93.13559723    0.00000000    0.00000000
   21.08388901   90.06069946    0.00000000    0.00000000
   21.08777809   92.37200165    0.00000000    0.00000000
   21.09500122   92.37200165    0.00000000    0.00000000
   21.09972191   91.54799652    0.00000000    0.00000000
   21.10361099   93.54799652    0.00000000    0.00000000
   21.10750008   86.93859863    0.00000000    0.00000000
   21.11138916   88.91600037    0.00000000    0.00000000
   21.11499977   96.06580353    0.00000000    0.00000000
   21.11888885   90.71949768    0.00000000    0.00000000
   21.11944389   87.52909851    0.00000000    0.00000000
   21.12361145   86.94860077    0.00000000    0.00000000
   21.12750053   89.13610077    0.00000000    0.00000000
   21.13138962   89.36560059    0.00000000    0.00000000
   21.13527679   87.66580200    0.00000000    0.00000000
   21.13944435   96.04540253    0.00000000    0.00000000
   21.14611053   96.04540253    0.00000000    0.00000000
   21.15083313   96.30740356    0.00000000    0.00000000
   21.15472221   92.06950378    0.00000000    0.00000000
   21.15861130   96.76119995    0.00000000    0.00000000
   21.16250038   92.25509644    0.00000000    0.00000000
   21.16638756   80.65930176    0.00000000    0.00000000
   21.17000008   88.79650116    0.00000000    0.00000000
   21.17055511   97.09899902    0.00000000    0.00000000
   21.17444420   98.66570282    0.00000000    0.00000000
   21.17833328   97.17559814    0.00000000    0.00000000
   21.18222237   95.44450378    0.00000000    0.00000000
