    HOUR (UT)   FLARE FACTOR    SKY TESTER    SUN TESTER
   11.47222137   -1.00000000   -1.00000000   -1.00000000
   12.06361103  193.82299805    0.00000000    0.00000000
   12.06694412  186.00000000    0.00000000    0.00000000
   12.06999969  217.85099792    0.00000000    0.00000000
   12.07333374  205.06100464    0.00000000    0.00000000
   12.07638836  199.95300293    0.00000000    0.00000000
   12.07972240  209.36900330    0.00000000    0.00000000
   12.08388901  209.36900330    0.00000000    0.00000000
   12.08805561  209.15100098    0.00000000    0.00000000
   12.09111118  218.35499573    1.21000004    2.03999996
   12.09444427  220.00900269    1.21000004    2.03999996
   12.09694386  195.14799500    1.21000004    2.03999996
   12.09805489  207.94500732    1.21000004    2.03999996
   12.10138893  188.83999634    1.21000004    2.03999996
   12.10472298  213.07200623    1.21000004    2.03999996
   12.10777855  208.81500244    1.21000004    2.03999996
   12.11111164  197.47799683    1.21000004    2.03999996
   12.11444473  211.53500366    1.21000004    2.03999996
   12.11750031  197.21699524    1.21000004    2.03999996
   12.12083340  188.40199280    1.21000004    2.03999996
   12.12666702  188.40199280    1.21000004    2.03999996
   12.13083363  197.19799805    1.21000004    2.03999996
   12.13416672  196.27299500    1.21000004    2.03999996
   12.13722229  198.69799805    1.21000004    2.03999996
   12.14055538  211.50599670    1.21000004    2.03999996
   12.14388847  178.76100159    1.21000004    2.03999996
   12.14722252  187.86199951    1.21000004    2.03999996
   12.15027714  193.36500549    1.21000004    2.03999996
   12.15361118  192.75900269    1.21000004    2.03999996
   12.15666676  201.14799500    1.21000004    2.03999996
   12.15999985  190.66799927    1.21000004    2.03999996
   12.16333294  197.94200134    1.21000004    2.03999996
   12.16388893  201.90699768    1.21000004    2.03999996
   12.16972256  201.90699768    1.21000004    2.03999996
   12.17361164  185.28399658    1.21000004    2.03999996
   12.17694473  198.77400208    1.21000004    2.03999996
   12.18027782  190.88299561    1.21000004    2.03999996
   12.18333340  191.33000183    1.21000004    2.03999996
   12.18666649  193.50500488    1.21000004    2.03999996
   12.19000053  194.55700684    1.21000004    2.03999996
   12.19305515  186.19099426    1.21000004    2.03999996
   12.19638920  189.26600647    1.21000004    2.03999996
   12.19722271  189.97900391    1.21000004    2.03999996
   12.19972229  194.27099609    1.21000004    2.03999996
   12.20305538  194.54499817    1.21000004    2.03999996
   12.20638847  192.81399536    1.21000004    2.03999996
   12.21249962  192.81399536    1.21000004    2.03999996
   12.21666622  187.67799377    1.21000004    2.03999996
   12.21972179  204.22000122    1.21000004    2.03999996
   12.22305489  198.19500732    1.21000004    2.03999996
   12.22611046  185.39799500    1.21000004    2.03999996
   12.22944355  192.83099365    1.21000004    2.03999996
   12.23055553  195.54200745    1.21000004    2.03999996
   12.23305511  200.73199463    1.21000004    2.03999996
   12.23638916  181.90699768    1.21000004    2.03999996
   12.23972225  190.71800232    1.21000004    2.03999996
   12.24305534  196.95199585    1.21000004    2.03999996
   12.24638939  193.05700684    1.21000004    2.03999996
   12.24972248  201.79800415    1.21000004    2.03999996
   12.25527763  201.79800415    1.21000004    2.03999996
   12.25944424  187.83200073    1.21000004    2.03999996
   12.26249981  190.90600586    1.21000004    2.03999996
   12.26388931  193.65499878    1.21000004    2.03999996
   12.26611137  184.92199707    1.21000004    2.03999996
   12.26944447  199.50199890    1.21000004    2.03999996
   12.27277756  192.49800110    1.21000004    2.03999996
   12.27583313  178.65299988    1.21000004    2.03999996
   12.27916622  182.56799316    1.21000004    2.03999996
   12.28222179  198.95100403    1.21000004    2.03999996
   12.28555584  189.35000610    1.21000004    2.03999996
   12.28888893  190.75300598    1.21000004    2.03999996
   12.29194450  196.65199280    1.21000004    2.03999996
   12.29805565  196.65199280    1.21000004    2.03999996
   12.30222225  195.91099548    1.21000004    2.03999996
   12.30555534  184.36399841    1.21000004    2.03999996
   12.30861092  195.01699829    1.21000004    2.03999996
   12.31194496  182.43600464    1.21000004    2.03999996
   12.31527805  190.56100464    1.21000004    2.03999996
   12.31833363  181.28100586    1.21000004    2.03999996
   12.32166672  193.39999390    1.21000004    2.03999996
   12.32472229  196.21099854    1.21000004    2.03999996
   12.32805538  192.93600464    1.21000004    2.03999996
   12.33055592  200.60499573    1.21000004    2.03999996
   12.33166695  193.42300415    1.21000004    2.03999996
   12.33500004  193.45500183    1.21000004    2.03999996
   12.34111118  193.45500183    1.21000004    2.03999996
   12.34499931  198.64199829    1.21000004    2.03999996
   12.34833336  190.00199890    1.21000004    2.03999996
   12.35166740  195.22700500    1.21000004    2.03999996
   12.35472298  183.65499878    1.21000004    2.03999996
   12.35805607  195.61500549    1.21000004    2.03999996
   12.36138916  194.05099487    1.21000004    2.03999996
   12.36388969  195.73199463    1.21000004    2.03999996
   12.36472225  188.66299438    1.21000004    2.03999996
   12.36805534  198.74499512    1.21000004    2.03999996
   12.37138939  195.10099792    1.21000004    2.03999996
   12.37444496  186.36999512    1.21000004    2.03999996
   12.37777805  191.52699280    1.21000004    2.03999996
   12.38388920  191.52699280    1.21000004    2.03999996
   12.38805580  196.70399475    1.21000004    2.03999996
   12.39111137  194.18600464    1.21000004    2.03999996
   12.39444447  181.17399597    1.21000004    2.03999996
   12.39722252  185.87100220    1.21000004    2.03999996
   12.39805508  196.68800354    1.21000004    2.03999996
   12.40138817  182.05299377    1.21000004    2.03999996
   12.40472221  186.16200256    1.21000004    2.03999996
   12.40777779  184.26899719    1.21000004    2.03999996
   12.41111088  185.51400757    1.21000004    2.03999996
   12.41416645  179.45700073    1.21000004    2.03999996
   12.41750050  186.30299377    1.21000004    2.03999996
   12.42083359  188.97900391    1.21000004    2.03999996
   12.42666721  188.97900391    1.21000004    2.03999996
   12.43083382  177.91499329    1.21000004    2.03999996
   12.43388939  184.00399780    1.21000004    2.03999996
   12.43722248  183.33799744    1.21000004    2.03999996
   12.44055557  188.93899536    1.21000004    2.03999996
   12.44361115  200.87699890    1.21000004    2.03999996
   12.44694424  207.20899963    1.21000004    2.03999996
   12.45027733  187.86500549    1.21000004    2.03999996
   12.45333290  192.96299744    1.21000004    2.03999996
   12.45694447  197.97000122    1.21000004    2.03999996
   12.46027756  200.05400085    1.21000004    2.03999996
   12.46388912  196.78900146    1.21000004    2.03999996
   12.46416664  194.58099365    1.21000004    2.03999996
   12.46944427  194.58099365    1.21000004    2.03999996
   12.47361088  187.34700012    1.21000004    2.03999996
   12.47694397  189.38200378    1.21000004    2.03999996
   12.47999954  180.02400208    1.21000004    2.03999996
   12.48333359  198.12399292    1.21000004    2.03999996
   12.48666668  194.19099426    1.21000004    2.03999996
   12.48972225  187.53999329    1.21000004    2.03999996
   12.49305534  196.99699402    1.21000004    2.03999996
   12.49611092  191.39599609    1.21000004    2.03999996
   12.49750042  192.80799866    1.21000004    2.03999996
   12.49972248  196.40499878    1.21000004    2.03999996
   12.50305557  192.47099304    1.21000004    2.03999996
   12.50611115  197.23300171    1.21000004    2.03999996
   12.51249981  197.23300171    1.21000004    2.03999996
   12.51638889  202.65600586    1.21000004    2.03999996
   12.51972198  211.73899841    1.21000004    2.03999996
   12.52305508  205.58900452    1.21000004    2.03999996
   12.52611065  199.30200195    1.21000004    2.03999996
   12.52944374  201.93299866    1.21000004    2.03999996
   12.53083324  201.86799622    1.21000004    2.03999996
   12.53305531  198.28799438    1.21000004    2.03999996
   12.53638935  193.39999390    1.21000004    2.03999996
   12.53944492  192.63299561    1.21000004    2.03999996
   12.54277802  204.26300049    1.21000004    2.03999996
   12.54611111  189.82499695    1.21000004    2.03999996
   12.54916668  197.16700745    1.21000004    2.03999996
   12.55527782  197.16700745    1.21000004    2.03999996
   12.55944443  184.02000427    1.21000004    2.03999996
   12.56250000  192.74299622    1.21000004    2.03999996
   12.56416702  197.04299927    1.21000004    2.03999996
   12.56611156  185.08799744    1.21000004    2.03999996
   12.56944466  196.08000183    1.21000004    2.03999996
   12.57250023  196.28500366    1.21000004    2.03999996
   12.57583332  185.36199951    1.21000004    2.03999996
   12.57916641  193.66299438    1.21000004    2.03999996
   12.58222198  192.59399414    1.21000004    2.03999996
   12.58555508  195.32600403    1.21000004    2.03999996
   12.58888817  201.19500732    1.21000004    2.03999996
   12.59194374  188.88400269    1.21000004    2.03999996
   12.59805489  188.88400269    1.21000004    2.03999996
   12.60222244  191.73699951    1.21000004    2.03999996
   12.60527802  192.53500366    1.21000004    2.03999996
   12.60861111  192.50599670    1.21000004    2.03999996
   12.61194515  190.02499390    1.21000004    2.03999996
   12.61500072  191.60000610    1.21000004    2.03999996
   12.61833382  185.66499329    1.21000004    2.03999996
   12.62166691  183.94700623    1.21000004    2.03999996
   12.62472248  191.30900574    1.21000004    2.03999996
   12.62805557  184.94700623    1.21000004    2.03999996
   12.63083363  198.23800659    1.21000004    2.03999996
   12.63166714  185.86900330    1.21000004    2.03999996
   12.63500023  175.49200439    1.21000004    2.03999996
   12.64083290  175.49200439    1.21000004    2.03999996
   12.64499950  181.28500366    1.21000004    2.03999996
   12.64833355  183.97700500    1.21000004    2.03999996
   12.65138817  185.34100342    1.21000004    2.03999996
   12.65472221  185.43400574    1.21000004    2.03999996
   12.65805531  182.55599976    1.21000004    2.03999996
   12.66111088  174.86599731    1.21000004    2.03999996
   12.66444397  176.29100037    1.21000004    2.03999996
   12.66472149  188.92399597    1.21000004    2.03999996
   12.66805553  175.58900452    1.21000004    2.03999996
   12.67111111  189.16900635    1.21000004    2.03999996
   12.67444515  183.61399841    1.21000004    2.03999996
   12.67777824  178.59399414    1.21000004    2.03999996
   12.68361092  178.59399414    1.21000004    2.03999996
   12.68777752  179.26199341    1.21000004    2.03999996
   12.69111156  170.05700684    1.21000004    2.03999996
   12.69444466  181.16900635    1.21000004    2.03999996
   12.69777775  177.86900330    1.21000004    2.03999996
   12.69805527  174.27999878    1.21000004    2.03999996
   12.70138836  177.33399963    1.21000004    2.03999996
   12.70444393  176.40699768    1.21000004    2.03999996
   12.70777798  178.14500427    1.21000004    2.03999996
   12.71111107  176.45899963    1.21000004    2.03999996
   12.71416664  182.61700439    1.21000004    2.03999996
   12.71749973  175.20700073    1.21000004    2.03999996
   12.72083282  180.54100037    1.21000004    2.03999996
   12.72666645  180.54100037    1.21000004    2.03999996
   12.73083305  186.56799316    1.21000004    2.03999996
   12.73138809  178.34700012    1.21000004    2.03999996
   12.73444462  179.55099487    1.21000004    2.03999996
   12.73777771  172.80499268    1.21000004    2.03999996
   12.74111176  174.22099304    1.21000004    2.03999996
   12.74416733  169.12199402    1.21000004    2.03999996
   12.74750042  177.15199280    1.21000004    2.03999996
   12.75083351  173.24899292    1.21000004    2.03999996
   12.75388908  176.21499634    1.21000004    2.03999996
   12.75722218  177.92999268    1.21000004    2.03999996
   12.76027775  173.88699341    1.21000004    2.03999996
   12.76361084  176.95100403    1.21000004    2.03999996
   12.76472187  163.03999329    1.21000004    2.03999996
   12.76944447  163.03999329    1.21000004    2.03999996
   12.77361107  169.74400330    1.21000004    2.03999996
   12.77666664  175.01800537    1.21000004    2.03999996
   12.77999973  176.33000183    1.21000004    2.03999996
   12.78333378  170.25100708    1.21000004    2.03999996
   12.78638935  172.92300415    1.21000004    2.03999996
   12.78972244  164.05599976    1.21000004    2.03999996
   12.79305553  167.12199402    1.21000004    2.03999996
   12.79611111  166.24000549    1.21000004    2.03999996
   12.79805565  176.89399719    1.21000004    2.03999996
   12.79972267  169.82499695    1.21000004    2.03999996
   12.80305576  167.24400330    1.21000004    2.03999996
   12.80638885  165.08999634    1.21000004    2.03999996
   12.81222248  165.08999634    1.21000004    2.03999996
   12.81638908  163.43899536    1.21000004    2.03999996
   12.81972218  161.63800049    1.21000004    2.03999996
   12.82277775  157.07000732    1.21000004    2.03999996
   12.82611084  176.49400330    1.21000004    2.03999996
   12.82944393  158.76300049    1.21000004    2.03999996
   12.83138847  168.97900391    1.21000004    2.03999996
   12.83305550  165.33399963    1.21000004    2.03999996
   12.83638859  166.22700500    1.21000004    2.03999996
   12.83972168  175.32699585    1.21000004    2.03999996
   12.84277725  166.73899841    1.21000004    2.03999996
   12.84611034  168.59800720    1.21000004    2.03999996
   12.84916592  165.43499756    1.21000004    2.03999996
   12.85500050  165.43499756    1.21000004    2.03999996
   12.85916710  188.73500061    1.21000004    2.03999996
   12.86250019  173.83700562    1.21000004    2.03999996
   12.86472225  168.63000488    1.21000004    2.03999996
   12.86611176  167.32400513    1.21000004    2.03999996
   12.86944485  174.09399414    1.21000004    2.03999996
   12.87277794  165.55599976    1.21000004    2.03999996
   12.87583351  168.00500488    1.21000004    2.03999996
   12.87916660  167.82499695    1.21000004    2.03999996
   12.88222218  170.42500305    1.21000004    2.03999996
   12.88555527  172.19299316    1.21000004    2.03999996
   12.88888836  162.03500366    1.21000004    2.03999996
   12.89194393  158.95799255    1.21000004    2.03999996
   12.89805508  158.95799255    1.21000004    2.03999996
   12.90222168  160.85499573    1.21000004    2.03999996
   12.90527725  169.27600098    1.21000004    2.03999996
   12.90861034  162.68299866    1.21000004    2.03999996
   12.91194439  160.26100159    1.21000004    2.03999996
   12.91499996  161.62600708    1.21000004    2.03999996
   12.91833401  165.26300049    1.21000004    2.03999996
   12.92138958  164.14900208    1.21000004    2.03999996
   12.92472267  168.36199951    1.21000004    2.03999996
   12.92805576  162.68699646    1.21000004    2.03999996
   12.93111134  164.52400208    1.21000004    2.03999996
   12.93305588  165.54299927    1.21000004    2.03999996
   12.93500042  162.43800354    1.21000004    2.03999996
   12.94083309  162.43800354    1.21000004    2.03999996
   12.94499969  163.23399353    1.21000004    2.03999996
   12.94805527  160.04499817    1.21000004    2.03999996
   12.95138836  155.32800293    1.21000004    2.03999996
   12.95472240  155.94700623    1.21000004    2.03999996
   12.95777798  158.91000366    1.21000004    2.03999996
   12.96111107  165.86199951    1.21000004    2.03999996
   12.96444416  169.83599854    1.21000004    2.03999996
   12.96638870  157.96400452    1.21000004    2.03999996
   12.96805477  162.28599548    1.21000004    2.03999996
   12.97111034  163.83999634    1.21000004    2.03999996
   12.97444439  162.91900635    1.21000004    2.03999996
   12.97749996  160.65299988    1.21000004    2.03999996
   12.98361111  160.65299988    1.21000004    2.03999996
   12.98777771  165.08200073    1.21000004    2.03999996
   12.99111176  166.13999939    1.21000004    2.03999996
   12.99416733  165.52099609    1.21000004    2.03999996
   12.99750042  165.35000610    1.21000004    2.03999996
   13.00000000  165.66499329    1.21000004    2.03999996
   13.00111103  166.94400024    1.21000004    2.03999996
   13.00444412  162.39700317    1.21000004    2.03999996
   13.00777817  165.55700684    1.21000004    2.03999996
   13.01083374  166.41799927    1.21000004    2.03999996
   13.01416683  168.27400208    1.21000004    2.03999996
   13.01722240  161.27499390    1.21000004    2.03999996
   13.02055550  164.51100159    1.21000004    2.03999996
   13.02638817  164.51100159    1.21000004    2.03999996
   13.03055573  164.91400146    1.21000004    2.03999996
   13.03333378  169.04100037    1.21000004    2.03999996
   13.03416729  161.74800110    1.21000004    2.03999996
   13.03750038  168.47799683    1.21000004    2.03999996
   13.04083347  166.30599976    1.21000004    2.03999996
   13.04388905  164.68099976    1.21000004    2.03999996
   13.04722309  159.36900330    1.21000004    2.03999996
   13.05027771  159.91000366    1.21000004    2.03999996
   13.05361176  161.83799744    1.21000004    2.03999996
   13.05694485  164.53900146    1.21000004    2.03999996
   13.06000042  164.60299683    1.21000004    2.03999996
   13.06333351  169.25100708    1.21000004    2.03999996
   13.08444405  169.25100708    1.21000004    2.03999996
   13.08861065  169.29600525    1.21000004    2.03999996
   13.09194374  170.32899475    1.21000004    2.03999996
   13.09499931  188.65100098    1.21000004    2.03999996
   13.09833336  197.03700256    1.21000004    2.03999996
   13.10166740  170.81500244    1.21000004    2.03999996
   13.10472298  177.98300171    1.21000004    2.03999996
   13.10805607  181.26499939    1.21000004    2.03999996
   13.11111164  189.42199707    1.21000004    2.03999996
   13.11444473  177.90699768    1.21000004    2.03999996
   13.11527824  180.66000366    1.21000004    2.03999996
   13.11805534  172.70500183    1.21000004    2.03999996
   13.12111092  172.72999573    1.21000004    2.03999996
   13.12722206  172.72999573    1.21000004    2.03999996
   13.13138866  171.47799683    1.21000004    2.03999996
   13.13472176  168.41200256    1.21000004    2.03999996
   13.13777733  166.66999817    1.21000004    2.03999996
   13.14111137  174.90600586    1.21000004    2.03999996
   13.14416695  171.86700439    1.21000004    2.03999996
   13.14750004  168.07899475    1.21000004    2.03999996
   13.14861107  164.87300110    1.21000004    2.03999996
   13.15111065  166.88699341    1.21000004    2.03999996
   13.15416622  170.98599243    1.21000004    2.03999996
   13.15749931  169.12100220    1.21000004    2.03999996
   13.16083336  170.44500732    1.21000004    2.03999996
   13.16388893  170.23199463    1.21000004    2.03999996
   13.17000008  170.23199463    1.21000004    2.03999996
   13.17416668  170.69200134    1.21000004    2.03999996
   13.17750072  169.52900696    1.21000004    2.03999996
   13.18055630  166.42700195    1.21000004    2.03999996
   13.18222237  171.49800110    1.21000004    2.03999996
   13.18444443  168.38900757    1.21000004    2.03999996
   13.18750000  175.28199768    1.21000004    2.03999996
   13.19083309  179.57000732    1.21000004    2.03999996
   13.19388866  162.50900269    1.21000004    2.03999996
   13.19722271  172.03999329    1.21000004    2.03999996
   13.20055580  168.75900269    1.21000004    2.03999996
   13.20361137  162.04899597    1.21000004    2.03999996
   13.20694447  166.49000549    1.21000004    2.03999996
   13.21305561  166.49000549    1.21000004    2.03999996
   13.21722221  168.27999878    1.21000004    2.03999996
   13.22027779  174.98899841    1.21000004    2.03999996
   13.22361088  169.75500488    1.21000004    2.03999996
   13.22694397  172.11999512    1.21000004    2.03999996
   13.22999954  169.02999878    1.21000004    2.03999996
   13.23333359  169.72700500    1.21000004    2.03999996
   13.23638916  171.24499512    1.21000004    2.03999996
   13.23972225  169.91400146    1.21000004    2.03999996
   13.24305534  174.88600159    1.21000004    2.03999996
   13.24611092  168.64300537    1.21000004    2.03999996
   13.24888897  175.67199707    1.21000004    2.03999996
   13.25000000  166.15400696    1.21000004    2.03999996
   13.25583363  166.15400696    1.21000004    2.03999996
   13.26000023  165.24200439    1.21000004    2.03999996
   13.26305580  174.60099792    1.21000004    2.03999996
   13.26638889  163.75900269    1.21000004    2.03999996
   13.26972198  168.09500122    1.21000004    2.03999996
   13.27277756  168.27799988    1.21000004    2.03999996
   13.27611065  177.39199829    1.21000004    2.03999996
   13.27916622  168.53599548    1.21000004    2.03999996
   13.28222179  165.44799805    1.21000004    2.03999996
   13.28305531  171.85400391    1.21000004    2.03999996
   13.28611183  170.28300476    1.21000004    2.03999996
   13.28944492  177.77900696    1.21000004    2.03999996
   13.29277802  165.90199280    1.21000004    2.03999996
   13.29861164  165.90199280    1.21000004    2.03999996
   13.30277824  165.11700439    1.21000004    2.03999996
   13.30611134  168.37399292    1.21000004    2.03999996
   13.30916691  169.15499878    1.21000004    2.03999996
   13.31250000  163.95599365    1.21000004    2.03999996
   13.31555557  158.99299622    1.21000004    2.03999996
   13.31611156  169.89900208    1.21000004    2.03999996
   13.31916618  171.04499817    1.21000004    2.03999996
   13.32250023  167.32699585    1.21000004    2.03999996
   13.32555580  171.07699585    1.21000004    2.03999996
   13.32888889  170.62699890    1.21000004    2.03999996
   13.33222198  166.29699707    1.21000004    2.03999996
   13.33555508  169.94700623    1.21000004    2.03999996
   13.34138870  169.94700623    1.21000004    2.03999996
   13.34555531  161.63600159    1.21000004    2.03999996
   13.34888840  164.78900146    1.21000004    2.03999996
   13.34944439  165.08599854    1.21000004    2.03999996
   13.35249996  167.74400330    1.21000004    2.03999996
   13.35583401  168.47399902    1.21000004    2.03999996
   13.35916710  162.62300110    1.21000004    2.03999996
   13.36222267  168.26199341    1.21000004    2.03999996
   13.36555576  161.60899353    1.21000004    2.03999996
   13.36861134  166.41000366    1.21000004    2.03999996
   13.37194443  170.86900330    1.21000004    2.03999996
   13.37527752  163.58299255    1.21000004    2.03999996
   13.37833309  167.07699585    1.21000004    2.03999996
   13.38444424  167.07699585    1.21000004    2.03999996
   13.38833332  158.01699829    1.21000004    2.03999996
   13.39166641  163.59800720    1.21000004    2.03999996
   13.39499950  166.80200195    1.21000004    2.03999996
   13.39805508  159.85299683    1.21000004    2.03999996
   13.40138817  155.58000183    1.21000004    2.03999996
   13.40472221  161.04600525    1.21000004    2.03999996
   13.40777779  168.15899658    1.21000004    2.03999996
   13.41111088  162.41400146    1.21000004    2.03999996
   13.41416645  161.52900696    1.21000004    2.03999996
   13.41555500  158.22399902    1.21000004    2.03999996
   13.41805553  161.94200134    1.21000004    2.03999996
   13.42111111  154.13400269    1.21000004    2.03999996
   13.42722225  154.13400269    1.21000004    2.03999996
   13.43138885  160.74499512    1.21000004    2.03999996
   13.43444443  168.82800293    1.21000004    2.03999996
   13.43777752  162.44700623    1.21000004    2.03999996
   13.44111156  163.86799622    1.21000004    2.03999996
   13.44416714  167.60600281    1.21000004    2.03999996
   13.44750023  161.35699463    1.21000004    2.03999996
   13.44888878  163.92700195    1.21000004    2.03999996
   13.45111084  163.49000549    1.21000004    2.03999996
   13.45416641  165.74000549    1.21000004    2.03999996
   13.45749950  160.79200745    1.21000004    2.03999996
   13.46083355  161.38299561    1.21000004    2.03999996
   13.46388912  163.62300110    1.21000004    2.03999996
   13.46999931  163.62300110    1.21000004    2.03999996
   13.47416592  168.98599243    1.21000004    2.03999996
   13.47749996  164.56799316    1.21000004    2.03999996
   13.48055553  162.23100281    1.21000004    2.03999996
   13.48249912  150.88699341    1.21000004    2.03999996
   13.48416710  154.62800598    1.21000004    2.03999996
   13.48750019  159.55799866    1.21000004    2.03999996
   13.49083328  164.24200439    1.21000004    2.03999996
   13.49388885  162.13299561    1.21000004    2.03999996
   13.49722290  160.82200623    1.21000004    2.03999996
   13.50055599  152.78599548    1.21000004    2.03999996
   13.50361156  159.71099854    1.21000004    2.03999996
   13.50694466  159.24600220    1.21000004    2.03999996
   13.51277733  159.24600220    1.21000004    2.03999996
   13.51694393  153.67900085    1.21000004    2.03999996
   13.52027798  155.65400696    1.21000004    2.03999996
   13.52333355  158.43800354    1.21000004    2.03999996
   13.52666664  158.14399719    1.21000004    2.03999996
   13.52999973  162.38000488    1.21000004    2.03999996
   13.53305531  160.00100708    1.21000004    2.03999996
   13.53638935  159.05299377    1.21000004    2.03999996
   13.53972244  165.14399719    1.21000004    2.03999996
   13.54277802  168.19700623    1.21000004    2.03999996
   13.54611111  159.88600159    1.21000004    2.03999996
   13.54916668  161.79600525    1.21000004    2.03999996
   13.54944515  150.65400696    1.21000004    2.03999996
   13.55583382  150.65400696    1.21000004    2.03999996
   13.55972195  151.71800232    1.21000004    2.03999996
   13.56305599  158.64399719    1.21000004    2.03999996
   13.56638908  160.11599731    1.21000004    2.03999996
   13.56944466  150.60200500    1.21000004    2.03999996
   13.57277775  158.06300354    1.21000004    2.03999996
   13.57611084  147.62100220    1.21000004    2.03999996
   13.57916641  151.11900330    1.21000004    2.03999996
   13.58249950  149.63900757    1.21000004    2.03999996
   13.58277798  146.93600464    1.21000004    2.03999996
   13.58611107  150.04899597    1.21000004    2.03999996
   13.58944416  149.82899475    1.21000004    2.03999996
   13.59249973  147.21499634    1.21000004    2.03999996
   13.59861088  147.21499634    1.21000004    2.03999996
   13.60277843  149.72399902    1.21000004    2.03999996
   13.60583401  153.77200317    1.21000004    2.03999996
   13.60916710  154.03599548    1.21000004    2.03999996
   13.61250019  154.10400391    1.21000004    2.03999996
   13.61555576  151.64599609    1.21000004    2.03999996
   13.61611176  160.89700317    1.21000004    2.03999996
   13.61944485  151.96800232    1.21000004    2.03999996
   13.62250042  156.96000671    1.21000004    2.03999996
   13.62583351  157.06100464    1.21000004    2.03999996
   13.62916660  139.14999390    1.21000004    2.03999996
   13.63222218  157.00799561    1.21000004    2.03999996
   13.63555527  152.61300659    1.21000004    2.03999996
   13.64138889  152.61300659    1.21000004    2.03999996
   13.64555550  159.72799683    1.21000004    2.03999996
   13.64888859  151.14100647    1.21000004    2.03999996
   13.64944458  147.44299316    1.21000004    2.03999996
   13.65249920  156.69299316    1.21000004    2.03999996
   13.65555477  150.32299805    1.21000004    2.03999996
   13.65888882  152.19099426    1.21000004    2.03999996
   13.66222191  149.87699890    1.21000004    2.03999996
   13.66527748  150.61799622    1.21000004    2.03999996
   13.66861153  154.76899719    1.21000004    2.03999996
   13.67194462  147.57699585    1.21000004    2.03999996
   13.67500019  145.74899292    1.21000004    2.03999996
   13.67833328  149.21800232    1.21000004    2.03999996
   13.68416691  149.21800232    1.21000004    2.03999996
   13.68833351  148.43600464    1.21000004    2.03999996
   13.69166660  151.57600403    1.21000004    2.03999996
   13.69472218  152.16799927    1.21000004    2.03999996
   13.69805527  155.38699341    1.21000004    2.03999996
   13.70138836  145.95799255    1.21000004    2.03999996
   13.70444393  154.80799866    1.21000004    2.03999996
   13.70777798  146.54600525    1.21000004    2.03999996
   13.71111107  151.30700684    1.21000004    2.03999996
   13.71416664  154.27699280    1.21000004    2.03999996
   13.71611118  147.00300598    1.21000004    2.03999996
   13.71777725  148.57299805    1.21000004    2.03999996
   13.72083282  150.63400269    1.21000004    2.03999996
   13.72722149  150.63400269    1.21000004    2.03999996
   13.73111057  146.19200134    1.21000004    2.03999996
   13.73444462  151.47399902    1.21000004    2.03999996
   13.73777771  151.65600586    1.21000004    2.03999996
   13.74083328  146.72099304    1.21000004    2.03999996
   13.74416733  146.38499451    1.21000004    2.03999996
   13.74750042  152.20700073    1.21000004    2.03999996
   13.74944496  159.44200134    1.21000004    2.03999996
   13.75111103  145.16000366    1.21000004    2.03999996
   13.75416660  151.24200439    1.21000004    2.03999996
   13.75749969  152.27600098    1.21000004    2.03999996
   13.76083374  146.34500122    1.21000004    2.03999996
   13.76388931  146.37500000    1.21000004    2.03999996
   13.76999950  146.37500000    1.21000004    2.03999996
   13.77416611  140.43099976    1.21000004    2.03999996
   13.77722168  156.19000244    1.21000004    2.03999996
   13.78055573  146.38699341    1.21000004    2.03999996
   13.78277779  148.01499939    1.21000004    2.03999996
   13.78416729  145.24699402    1.21000004    2.03999996
   13.78722286  146.42999268    1.21000004    2.03999996
   13.79055595  147.74400330    1.21000004    2.03999996
   13.79388905  153.89100647    1.21000004    2.03999996
   13.79694462  141.92999268    1.21000004    2.03999996
   13.80027771  146.99000549    1.21000004    2.03999996
   13.80361176  144.08999634    1.21000004    2.03999996
   13.80666733  145.09500122    1.21000004    2.03999996
   13.81277752  145.09500122    1.21000004    2.03999996
   13.81694412  142.66499329    1.21000004    2.03999996
   13.82027817  147.60299683    1.21000004    2.03999996
   13.82333374  149.63699341    1.21000004    2.03999996
   13.82666683  147.47799683    1.21000004    2.03999996
   13.82972240  151.00799561    1.21000004    2.03999996
   13.83305550  147.57699585    1.21000004    2.03999996
   13.83638859  148.40199280    1.21000004    2.03999996
   13.83972168  142.63099670    1.21000004    2.03999996
   13.84277725  143.94700623    1.21000004    2.03999996
   13.84611034  146.76699829    1.21000004    2.03999996
   13.84916592  146.51699829    1.21000004    2.03999996
   13.84972191  146.53700256    1.21000004    2.03999996
   13.85555553  146.53700256    1.21000004    2.03999996
   13.85972214  144.78999329    1.21000004    2.03999996
   13.86305618  141.57899475    1.21000004    2.03999996
   13.86611176  146.29899597    1.21000004    2.03999996
   13.86944485  149.81100464    1.21000004    2.03999996
   13.87277794  139.37899780    1.21000004    2.03999996
   13.87583351  145.22000122    1.21000004    2.03999996
   13.87916660  146.92100525    1.21000004    2.03999996
   13.88249969  145.28599548    1.21000004    2.03999996
   13.88305569  146.98599243    1.21000004    2.03999996
   13.88611126  145.05200195    1.21000004    2.03999996
   13.88944435  146.16400146    1.21000004    2.03999996
   13.89249992  147.56799316    1.21000004    2.03999996
   13.89833355  147.56799316    1.21000004    2.03999996
   13.90249920  146.21499634    1.21000004    2.03999996
   13.90583324  140.73100281    1.21000004    2.03999996
   13.90916634  146.30499268    1.21000004    2.03999996
   13.91222191  142.96499634    1.21000004    2.03999996
   13.91555500  143.07200623    1.21000004    2.03999996
   13.91638851  147.44999695    1.21000004    2.03999996
   13.91916656  133.28900146    1.21000004    2.03999996
   13.92250061  138.66400146    1.21000004    2.03999996
   13.92555618  149.72300720    1.21000004    2.03999996
   13.92888927  138.11300659    1.21000004    2.03999996
   13.93222237  142.31799316    1.21000004    2.03999996
   13.93527794  145.41700745    1.21000004    2.03999996
   13.94138908  145.41700745    1.21000004    2.03999996
   13.94555569  149.44500732    1.21000004    2.03999996
   13.94861126  145.48699951    1.21000004    2.03999996
   13.94972229  139.87500000    1.21000004    2.03999996
   13.95222187  137.73599243    1.21000004    2.03999996
   13.95555496  145.17199707    1.21000004    2.03999996
   13.95861053  138.52600098    1.21000004    2.03999996
   13.96194458  143.88000488    1.21000004    2.03999996
   13.96527767  153.77699280    1.21000004    2.03999996
   13.96833324  140.93800354    1.21000004    2.03999996
   13.97166634  138.90899658    1.21000004    2.03999996
   13.97499943  141.42300415    1.21000004    2.03999996
   13.97805500  143.21699524    1.21000004    2.03999996
   13.98416710  143.21699524    1.21000004    2.03999996
   13.98833370  138.72599792    1.21000004    2.03999996
   13.99138927  134.13200378    1.21000004    2.03999996
   13.99472237  140.47200012    1.21000004    2.03999996
   13.99805546  133.63999939    1.21000004    2.03999996
   14.00111103  149.48100281    1.21000004    2.03999996
   14.00444412  144.02799988    1.21000004    2.03999996
   14.00777817  133.13699341    1.21000004    2.03999996
   14.01083374  144.85800171    1.21000004    2.03999996
   14.01416683  144.40499878    1.21000004    2.03999996
   14.01638889  155.35499573    1.21000004    2.03999996
   14.01805496  142.90100098    1.21000004    2.03999996
   14.02111053  136.48599243    1.21000004    2.03999996
   14.02694416  136.48599243    1.21000004    2.03999996
   14.03111076  139.64799500    1.21000004    2.03999996
   14.03444481  140.85600281    1.21000004    2.03999996
   14.03750038  141.12699890    1.21000004    2.03999996
   14.04083347  144.08299255    1.21000004    2.03999996
   14.04416752  135.74499512    1.21000004    2.03999996
   14.04722309  139.61199951    1.21000004    2.03999996
   14.05000019  137.63800049    1.21000004    2.03999996
   14.05083370  130.09800720    1.21000004    2.03999996
   14.05416679  126.77999878    1.21000004    2.03999996
   14.05722237  142.94599915    1.21000004    2.03999996
   14.06055546  137.58599854    1.21000004    2.03999996
   14.06388950  138.39199829    1.21000004    2.03999996
   14.06972218  138.39199829    1.21000004    2.03999996
   14.07388878  146.96299744    1.21000004    2.03999996
   14.07722187  154.31599426    1.21000004    2.03999996
   14.08055592  150.00199890    1.21000004    2.03999996
   14.09805489  145.05799866    1.21000004    2.03999996
   14.10055637  158.18899536    1.21000004    2.03999996
   14.10361195  143.89599609    1.21000004    2.03999996
   14.10694504  143.73599243    1.21000004    2.03999996
   14.11277771  143.73599243    1.21000004    2.03999996
   14.11694431  138.11700439    1.21000004    2.03999996
   14.12027836  159.74299622    1.21000004    2.03999996
   14.12333393  143.58799744    1.21000004    2.03999996
   14.12666702  148.25799561    1.21000004    2.03999996
   14.13000011  145.56300354    1.21000004    2.03999996
   14.13138866  152.61099243    1.21000004    2.03999996
   14.13361073  148.45700073    1.21000004    2.03999996
   14.13694477  138.41799927    1.21000004    2.03999996
   14.14027786  136.46800232    1.21000004    2.03999996
   14.14333344  142.56700134    1.21000004    2.03999996
   14.14666653  133.85699463    1.21000004    2.03999996
   14.14972210  145.16099548    1.21000004    2.03999996
   14.15583324  145.16099548    1.21000004    2.03999996
   14.15972137  134.23199463    1.21000004    2.03999996
   14.16305542  144.73300171    1.21000004    2.03999996
   14.16472149  130.50399780    1.21000004    2.03999996
   14.16666698  143.10800171    1.21000004    2.03999996
   14.17000008  143.12199402    1.21000004    2.03999996
   14.17333412  140.90400696    1.21000004    2.03999996
   14.17638874  140.00900269    1.21000004    2.03999996
   14.17972279  137.27000427    1.21000004    2.03999996
   14.18305588  142.31900024    1.21000004    2.03999996
   14.18611145  130.58200073    1.21000004    2.03999996
   14.18944454  140.53700256    1.21000004    2.03999996
   14.19250011  140.38400269    1.21000004    2.03999996
   14.19861126  140.38400269    1.21000004    2.03999996
   14.20277786  144.22000122    1.21000004    2.03999996
   14.20583344  141.82000732    1.21000004    2.03999996
   14.20916653  143.07299805    1.21000004    2.03999996
   14.21249962  142.88400269    1.21000004    2.03999996
   14.21555519  135.61900330    1.21000004    2.03999996
   14.21888828  139.72799683    1.21000004    2.03999996
   14.22194386  145.83599854    1.21000004    2.03999996
   14.22527695  126.37899780    1.21000004    2.03999996
   14.22861099  134.24699402    1.21000004    2.03999996
   14.23138809  134.89599609    1.21000004    2.03999996
   14.23194408  143.63699341    1.21000004    2.03999996
   14.23527813  134.39999390    1.21000004    2.03999996
   14.24138927  134.39999390    1.21000004    2.03999996
   14.24555588  136.14100647    1.21000004    2.03999996
   14.24888897  130.44700623    1.21000004    2.03999996
   14.25194454  135.99099731    1.21000004    2.03999996
   14.25527763  137.75399780    1.21000004    2.03999996
   14.25833321  144.40800476    1.21000004    2.03999996
   14.26166630  135.65899658    1.21000004    2.03999996
   14.26472187  139.79499817    1.21000004    2.03999996
   14.26555538  138.84500122    1.21000004    2.03999996
   14.26861095  150.47999573    1.21000004    2.03999996
   14.27194405  139.48500061    1.21000004    2.03999996
   14.27499962  144.60699463    1.21000004    2.03999996
   14.27833271  148.65199280    1.21000004    2.03999996
   14.28416729  148.65199280    1.21000004    2.03999996
   14.28833389  132.56700134    1.21000004    2.03999996
   14.29166698  141.33500671    1.21000004    2.03999996
   14.29472256  149.14100647    1.21000004    2.03999996
   14.29805565  137.04800415    1.21000004    2.03999996
   14.29833412  139.36199951    1.21000004    2.03999996
   14.30166721  147.20399475    1.21000004    2.03999996
   14.30500031  147.98300171    1.21000004    2.03999996
   14.30805588  145.72500610    1.21000004    2.03999996
   14.31138897  137.71499634    1.21000004    2.03999996
   14.31444454  143.48399353    1.21000004    2.03999996
   14.31777763  142.98800659    1.21000004    2.03999996
   14.32111073  130.67399597    1.21000004    2.03999996
   14.32722187  130.67399597    1.21000004    2.03999996
   14.33138847  147.05700684    1.21000004    2.03999996
   14.33166695  140.68400574    1.21000004    2.03999996
   14.33500004  139.86000061    1.21000004    2.03999996
   14.33833313  143.28199768    1.21000004    2.03999996
   14.34138870  131.94999695    1.21000004    2.03999996
   14.34472179  144.83900452    1.21000004    2.03999996
   14.34777737  138.48300171    1.21000004    2.03999996
   14.35111141  141.33099365    1.21000004    2.03999996
   14.35444450  141.98399353    1.21000004    2.03999996
   14.35750008  137.50599670    1.21000004    2.03999996
   14.36083412  131.05000305    1.21000004    2.03999996
   14.36416721  138.42300415    1.21000004    2.03999996
   14.36472225  141.83099365    1.21000004    2.03999996
   14.36999989  141.83099365    1.21000004    2.03999996
   14.37416649  131.78199768    1.21000004    2.03999996
   14.37722206  133.67999268    1.21000004    2.03999996
   14.38055611  135.34800720    1.21000004    2.03999996
   14.38388920  129.84100342    1.21000004    2.03999996
   14.38694477  127.60099792    1.21000004    2.03999996
   14.39027786  141.09599304    1.21000004    2.03999996
   14.39333344  144.05200195    1.21000004    2.03999996
   14.39666653  141.75900269    1.21000004    2.03999996
   14.39805508  140.35299683    1.21000004    2.03999996
   14.40027714  138.35899353    1.21000004    2.03999996
   14.40361118  146.83900452    1.21000004    2.03999996
   14.40694427  139.26899719    1.21000004    2.03999996
   14.41277695  139.26899719    1.21000004    2.03999996
   14.41694450  131.05400085    1.21000004    2.03999996
   14.42027855  133.31900024    1.21000004    2.03999996
   14.42333412  128.97700500    1.21000004    2.03999996
   14.42666721  126.90699768    1.21000004    2.03999996
   14.43000031  139.01600647    1.21000004    2.03999996
   14.43138885  133.80900574    1.21000004    2.03999996
   14.43333340  139.88900757    1.21000004    2.03999996
   14.43666649  142.96800232    1.21000004    2.03999996
   14.44000053  141.97599792    1.21000004    2.03999996
   14.44305515  144.45399475    1.21000004    2.03999996
   14.44638920  140.14799500    1.21000004    2.03999996
   14.44972229  141.03199768    1.21000004    2.03999996
   14.45555496  141.03199768    1.21000004    2.03999996
   14.46000004  130.01100159    1.21000004    2.03999996
   14.46305561  134.71400452    1.21000004    2.03999996
   14.46472168  135.98500061    1.21000004    2.03999996
   14.46666622  135.50599670    1.21000004    2.03999996
   14.46999931  125.95999908    1.21000004    2.03999996
   14.47333336  128.25399780    1.21000004    2.03999996
   14.47638798  141.02000427    1.21000004    2.03999996
   14.47972202  132.39399719    1.21000004    2.03999996
   14.48305511  133.70700073    1.21000004    2.03999996
   14.48611164  131.73699951    1.21000004    2.03999996
   14.48944473  133.82899475    1.21000004    2.03999996
   14.49277782  137.87699890    1.21000004    2.03999996
   14.49861145  137.87699890    1.21000004    2.03999996
   14.50249958  138.41700745    1.21000004    2.03999996
   14.50583363  137.88200378    1.21000004    2.03999996
   14.50916672  144.27600098    1.21000004    2.03999996
   14.51222229  135.82499695    1.21000004    2.03999996
   14.51555538  137.51600647    1.21000004    2.03999996
   14.51888847  129.29299927    1.21000004    2.03999996
   14.52194405  134.73699951    1.21000004    2.03999996
   14.52527714  139.29400635    1.21000004    2.03999996
   14.52861118  142.78599548    1.21000004    2.03999996
   14.53138828  140.45599365    1.21000004    2.03999996
   14.53194427  126.40399933    1.21000004    2.03999996
   14.53527832  134.64300537    1.21000004    2.03999996
   14.54138947  134.64300537    1.21000004    2.03999996
   14.54555607  142.00199890    1.21000004    2.03999996
   14.54861164  140.41000366    1.21000004    2.03999996
   14.55194473  136.79499817    1.21000004    2.03999996
   14.55527782  138.24299622    1.21000004    2.03999996
   14.55833340  138.56399536    1.21000004    2.03999996
   14.56166649  137.83099365    1.21000004    2.03999996
   14.56472206  141.39900208    1.21000004    2.03999996
   14.56500053  129.89199829    1.21000004    2.03999996
   14.56833363  139.50500488    1.21000004    2.03999996
   14.57166672  132.09300232    1.21000004    2.03999996
   14.57472229  127.01799774    1.21000004    2.03999996
   14.57805538  135.69599915    1.21000004    2.03999996
   14.58416653  135.69599915    1.21000004    2.03999996
   14.58833313  125.10099792    1.21000004    2.03999996
   14.59138870  136.68499756    1.21000004    2.03999996
   14.59472179  133.90299988    1.21000004    2.03999996
   14.59805489  137.92599487    1.21000004    2.03999996
   14.59833336  140.87300110    1.21000004    2.03999996
   14.60166740  139.78500366    1.21000004    2.03999996
   14.60500050  139.38900757    1.21000004    2.03999996
   14.60805607  133.76199341    1.21000004    2.03999996
   14.61138916  132.35400391    1.21000004    2.03999996
   14.61444473  139.50000000    1.21000004    2.03999996
   14.61777782  135.94099426    1.21000004    2.03999996
   14.62111092  138.07299805    1.21000004    2.03999996
   14.62694454  138.07299805    1.21000004    2.03999996
   14.63111115  134.46200562    1.21000004    2.03999996
   14.63166714  134.02099609    1.21000004    2.03999996
   14.63500023  144.84500122    1.21000004    2.03999996
   14.63805580  118.54100037    1.21000004    2.03999996
   14.64138889  144.72900391    1.21000004    2.03999996
   14.64472198  138.17599487    1.21000004    2.03999996
   14.64777756  137.24099731    1.21000004    2.03999996
   14.65111065  136.03900146    1.21000004    2.03999996
   14.65444374  133.83900452    1.21000004    2.03999996
   14.65749931  136.70799255    1.21000004    2.03999996
   14.66083336  139.04699707    1.21000004    2.03999996
   14.66388893  134.68699646    1.21000004    2.03999996
   14.66499996  136.49099731    1.21000004    2.03999996
   14.67000008  136.49099731    1.21000004    2.03999996
   14.67388916  119.05799866    1.21000004    2.03999996
   14.67722225  141.05799866    1.21000004    2.03999996
   14.68055630  135.96200562    1.21000004    2.03999996
   14.68361092  131.60499573    1.21000004    2.03999996
   14.68694496  139.52999878    1.21000004    2.03999996
   14.69027805  132.59500122    1.21000004    2.03999996
   14.69333363  130.44999695    1.21000004    2.03999996
   14.69666672  139.74200439    1.21000004    2.03999996
   14.69833374  139.95700073    1.21000004    2.03999996
   14.70027733  135.13200378    1.21000004    2.03999996
   14.70333290  141.45500183    1.21000004    2.03999996
   14.70666695  134.09700012    1.21000004    2.03999996
   14.71277714  134.09700012    1.21000004    2.03999996
   14.71694374  134.57099915    1.21000004    2.03999996
   14.71999931  142.49699402    1.21000004    2.03999996
   14.72333336  133.81199646    1.21000004    2.03999996
   14.72638798  161.76899719    1.21000004    2.03999996
   14.72972202  138.49899292    1.21000004    2.03999996
   14.73166656  159.40400696    1.21000004    2.03999996
   14.73333359  135.53599548    1.21000004    2.03999996
   14.73638916  153.85800171    1.21000004    2.03999996
   14.73972225  136.10099792    1.21000004    2.03999996
   14.74305534  134.84500122    1.21000004    2.03999996
   14.74611092  159.20399475    1.21000004    2.03999996
   14.74944496  141.37800598    1.21000004    2.03999996
   14.75555515  141.37800598    1.21000004    2.03999996
   14.75972176  131.46099854    1.21000004    2.03999996
   14.76277733  146.90800476    1.21000004    2.03999996
   14.76500034  144.79499817    1.21000004    2.03999996
   14.76666641  136.90400696    1.21000004    2.03999996
   14.76999950  154.96400452    1.21000004    2.03999996
   14.77305508  141.00399780    1.21000004    2.03999996
   14.77638817  138.83799744    1.21000004    2.03999996
   14.77944374  143.80200195    1.21000004    2.03999996
   14.78277779  135.31399536    1.21000004    2.03999996
   14.78611183  144.27799988    1.21000004    2.03999996
   14.78916740  145.77600098    1.21000004    2.03999996
   14.79250050  138.43099976    1.21000004    2.03999996
   14.79833412  138.43099976    1.21000004    2.03999996
   14.80249977  144.49699402    1.21000004    2.03999996
   14.80583382  129.36500549    1.21000004    2.03999996
   14.80888939  130.54699707    1.21000004    2.03999996
   14.81222248  131.12399292    1.21000004    2.03999996
   14.81555557  140.55700684    1.21000004    2.03999996
   14.81861115  134.10299683    1.21000004    2.03999996
   14.82194424  133.88499451    1.21000004    2.03999996
   14.82527733  138.52999878    1.21000004    2.03999996
   14.82833290  137.59199524    1.21000004    2.03999996
   14.83166695  139.82400513    1.21000004    2.03999996
   14.83333302  134.25500488    1.21000004    2.03999996
   14.83527756  134.54600525    1.21000004    2.03999996
   14.84138870  134.54600525    1.21000004    2.03999996
   14.84527779  150.83299255    1.21000004    2.03999996
   14.84861088  139.99000549    1.21000004    2.03999996
   14.85194492  144.96699524    1.21000004    2.03999996
   14.85500050  150.83799744    1.21000004    2.03999996
   14.85833359  142.98599243    1.21000004    2.03999996
   14.86138916  141.81500244    1.21000004    2.03999996
   14.86472225  126.34999847    1.21000004    2.03999996
   14.86666679  136.10899353    1.21000004    2.03999996
   14.86833382  132.32699585    1.21000004    2.03999996
   14.87166691  131.41200256    1.21000004    2.03999996
   14.87472248  126.84799957    1.21000004    2.03999996
   14.87805557  129.53199768    1.21000004    2.03999996
   14.88416672  129.53199768    1.21000004    2.03999996
   14.88833332  149.39900208    1.21000004    2.03999996
   14.89138889  166.35099792    1.21000004    2.03999996
   14.89472198  154.30000305    1.21000004    2.03999996
   14.89777756  139.13000488    1.21000004    2.03999996
   14.90027714  138.90400696    1.21000004    2.03999996
   14.90166664  146.04200745    1.21000004    2.03999996
   14.90472221  145.77999878    1.21000004    2.03999996
   14.90805531  141.71499634    1.21000004    2.03999996
   14.91138840  145.30599976    1.21000004    2.03999996
   14.91444397  150.19200134    1.21000004    2.03999996
   14.91777802  131.27499390    1.21000004    2.03999996
   14.92111111  162.82899475    1.21000004    2.03999996
   14.92694473  162.82899475    1.21000004    2.03999996
   14.93111134  149.30599976    1.21000004    2.03999996
   14.93361092  150.41600037    1.21000004    2.03999996
   14.93472195  127.61599731    1.21000004    2.03999996
   14.93777752  131.10899353    1.21000004    2.03999996
   14.94111156  149.86199951    1.21000004    2.03999996
   14.94444466  138.25799561    1.21000004    2.03999996
   14.94750023  139.58299255    1.21000004    2.03999996
   14.95083332  137.58799744    1.21000004    2.03999996
   14.95416641  141.90400696    1.21000004    2.03999996
   14.95722198  141.59399414    1.21000004    2.03999996
   14.96055508  145.67500305    1.21000004    2.03999996
   14.96361065  140.99299622    1.21000004    2.03999996
   14.96972179  140.99299622    1.21000004    2.03999996
   14.97388840  137.10600281    1.21000004    2.03999996
   14.97722149  144.28100586    1.21000004    2.03999996
   14.98027706  131.95700073    1.21000004    2.03999996
   14.98361111  126.81099701    1.21000004    2.03999996
   14.98694515  134.31799316    1.21000004    2.03999996
   14.99000072  131.20500183    1.21000004    2.03999996
   14.99333382  122.00900269    1.21000004    2.03999996
   14.99638939  138.04100037    1.21000004    2.03999996
   14.99972248  141.55000305    1.21000004    2.03999996
   15.00083351  132.86000061    1.21000004    2.03999996
   15.00333309  135.53399658    1.21000004    2.03999996
   15.00666714  123.97200012    1.21000004    2.03999996
   15.01277733  123.97200012    1.21000004    2.03999996
   15.01666641  135.56599426    1.21000004    2.03999996
   15.01999950  132.57499695    1.21000004    2.03999996
   15.02333355  129.52699280    1.21000004    2.03999996
   15.02638817  133.35800171    1.21000004    2.03999996
   15.02972221  129.86999512    1.21000004    2.03999996
   15.03305531  129.32400513    1.21000004    2.03999996
   15.03416729  124.56500244    1.21000004    2.03999996
   15.03666687  121.71800232    1.21000004    2.03999996
   15.04000092  123.19699860    1.21000004    2.03999996
   15.04305553  119.83799744    1.21000004    2.03999996
   15.04638958  127.06700134    1.21000004    2.03999996
   15.04972267  127.69200134    1.21000004    2.03999996
   15.05555534  127.69200134    1.21000004    2.03999996
   15.05972195  132.81300354    1.21000004    2.03999996
   15.06277752  127.52700043    1.21000004    2.03999996
   15.06611156  132.11500549    1.21000004    2.03999996
   15.06750011  124.00099945    1.21000004    2.03999996
   15.06972218  133.52400208    1.21000004    2.03999996
   15.07277775  131.83099365    1.21000004    2.03999996
   15.07611084  132.25799561    1.21000004    2.03999996
   15.07944393  125.52100372    1.21000004    2.03999996
   15.08249950  130.63400269    1.21000004    2.03999996
   15.08583260  128.81900024    1.21000004    2.03999996
   15.08916664  138.38900757    1.21000004    2.03999996
   15.09222221  122.85900116    1.21000004    2.03999996
   15.09833336  122.85900116    1.21000004    2.03999996
   15.11666679  121.46399689    1.21000004    2.03999996
   15.11999989  133.99499512    1.21000004    2.03999996
   15.12305546  133.09500122    1.21000004    2.03999996
   15.12638855  130.95199585    1.21000004    2.03999996
   15.12972260  139.20500183    1.21000004    2.03999996
   15.13277817  125.01799774    1.21000004    2.03999996
   15.13611126  126.07599640    1.21000004    2.03999996
   15.14138889  126.07599640    1.21000004    2.03999996
   15.14555550  135.80499268    1.21000004    2.03999996
   15.14888859  130.63900757    1.21000004    2.03999996
   15.14972210  130.46699524    1.21000004    2.03999996
   15.15249920  122.68699646    1.21000004    2.03999996
   15.15555477  128.52699280    1.21000004    2.03999996
   15.15888882  124.99600220    1.21000004    2.03999996
   15.16222191  122.03900146    1.21000004    2.03999996
   15.16527748  132.93499756    1.21000004    2.03999996
   15.16861153  133.15899658    1.21000004    2.03999996
   15.17194462  131.05499268    1.21000004    2.03999996
   15.17500019  135.87300110    1.21000004    2.03999996
   15.17833328  134.33599854    1.21000004    2.03999996
   15.18416691  134.33599854    1.21000004    2.03999996
   15.18833351  129.41600037    1.21000004    2.03999996
   15.19166660  127.79900360    1.21000004    2.03999996
   15.19499969  130.85899353    1.21000004    2.03999996
   15.19805527  129.81300354    1.21000004    2.03999996
   15.20138836  129.85200500    1.21000004    2.03999996
   15.20444393  128.84599304    1.21000004    2.03999996
   15.20777798  127.69000244    1.21000004    2.03999996
   15.21111107  124.52999878    1.21000004    2.03999996
   15.21416664  134.93600464    1.21000004    2.03999996
   15.21638870  124.98999786    1.21000004    2.03999996
   15.31138897   -1.00000000   -1.00000000   -1.00000000
   15.41444397   -1.00000000   -1.00000000   -1.00000000
   15.53166676   -1.00000000   -1.00000000   -1.00000000
   15.59888840   76.13259888    1.21000004    2.03999996
   15.60194492  142.91999817    1.21000004    2.03999996
   15.60527802  133.08999634    1.21000004    2.03999996
   15.60861111  132.67100525    1.21000004    2.03999996
   15.61166668  122.85399628    1.21000004    2.03999996
   15.61500072  137.30499268    1.21000004    2.03999996
   15.61916637  137.30499268    1.21000004    2.03999996
   15.62333393  127.40699768    1.21000004    2.03999996
   15.62638855  133.30000305    1.21000004    2.03999996
   15.62972260  118.25499725    1.21000004    2.03999996
   15.63194466  126.66899872    1.21000004    2.03999996
   15.63333321  126.21600342    1.21000004    2.03999996
   15.63666630  119.23999786    1.21000004    2.03999996
   15.63972187  139.33000183    1.21000004    2.03999996
   15.64305496  126.79699707    1.21000004    2.03999996
   15.64611053  114.72499847    1.21000004    2.03999996
   15.64944458  130.22700500    1.21000004    2.03999996
   15.65277767  127.59899902    1.21000004    2.03999996
   15.65583324  122.49800110    1.21000004    2.03999996
   15.66194439  122.49800110    1.21000004    2.03999996
   15.66611099  124.39399719    1.21000004    2.03999996
   15.66916656  123.29599762    1.21000004    2.03999996
   15.67250061  122.32099915    1.21000004    2.03999996
   15.67583370  124.48699951    1.21000004    2.03999996
   15.67888927  133.15499878    1.21000004    2.03999996
   15.68222237  125.52400208    1.21000004    2.03999996
   15.68555546  125.82599640    1.21000004    2.03999996
   15.68861103  130.72799683    1.21000004    2.03999996
   15.69194412  123.75499725    1.21000004    2.03999996
   15.69499969  131.17599487    1.21000004    2.03999996
   15.69833374  122.99600220    1.21000004    2.03999996
   15.69888878  125.93900299    1.21000004    2.03999996
   15.70472240  125.93900299    1.21000004    2.03999996
   15.70888901  131.59100342    1.21000004    2.03999996
   15.71222210  118.41200256    1.21000004    2.03999996
   15.71527767  134.60800171    1.21000004    2.03999996
   15.71861076  128.38900757    1.21000004    2.03999996
   15.72194386  123.18399811    1.21000004    2.03999996
   15.72499943  119.61900330    1.21000004    2.03999996
   15.72833252  122.81700134    1.21000004    2.03999996
   15.73138809  128.10299683    1.21000004    2.03999996
   15.73222160  118.59500122    1.21000004    2.03999996
   15.73527813  123.61399841    1.21000004    2.03999996
   15.73833370  128.88999939    1.21000004    2.03999996
   15.74166679  128.71699524    1.21000004    2.03999996
   15.74750042  128.71699524    1.21000004    2.03999996
   15.75166702  126.13999939    1.21000004    2.03999996
   15.75500011  133.64999390    1.21000004    2.03999996
   15.75833321  119.48999786    1.21000004    2.03999996
   15.76138878  124.89199829    1.21000004    2.03999996
   15.76472187  122.65499878    1.21000004    2.03999996
   15.76555538  126.82299805    1.21000004    2.03999996
   15.76833344  140.19000244    1.21000004    2.03999996
   15.77138901  126.37799835    1.21000004    2.03999996
   15.77472210  129.58599854    1.21000004    2.03999996
   15.77805519  124.21199799    1.21000004    2.03999996
   15.78111076  126.35500336    1.21000004    2.03999996
   15.78444481  131.72900391    1.21000004    2.03999996
   15.79055595  131.72900391    1.21000004    2.03999996
   15.79472256  128.36900330    1.21000004    2.03999996
   15.79777813  136.98399353    1.21000004    2.03999996
   15.79888916  131.16600037    1.21000004    2.03999996
   15.80166721  120.09799957    1.21000004    2.03999996
   15.80472279  136.52699280    1.21000004    2.03999996
   15.80805588  126.06900024    1.21000004    2.03999996
   15.81138897  134.30400085    1.21000004    2.03999996
   15.81444454  128.65800476    1.21000004    2.03999996
   15.81777763  137.66600037    1.21000004    2.03999996
   15.82083321  123.90599823    1.21000004    2.03999996
   15.82416630  136.67799377    1.21000004    2.03999996
   15.82750034  124.85500336    1.21000004    2.03999996
   15.83333302  124.85500336    1.21000004    2.03999996
   15.83749962  132.57400513    1.21000004    2.03999996
   15.84055519  136.75199890    1.21000004    2.03999996
   15.84388828  137.83500671    1.21000004    2.03999996
   15.84722233  139.80900574    1.21000004    2.03999996
   15.85027790  124.41899872    1.21000004    2.03999996
   15.85361195  127.05899811    1.21000004    2.03999996
   15.85694504  118.92299652    1.21000004    2.03999996
   15.86000061  127.78800201    1.21000004    2.03999996
   15.86361122  130.75599670    1.21000004    2.03999996
   15.86555576  122.97799683    1.21000004    2.03999996
   15.86722279  129.11099243    1.21000004    2.03999996
   15.87027836  131.95500183    1.21000004    2.03999996
   15.87611103  131.95500183    1.21000004    2.03999996
   15.88027763  137.28399658    1.21000004    2.03999996
   15.88361073  128.05000305    1.21000004    2.03999996
   15.88666630  130.17700195    1.21000004    2.03999996
   15.89000034  127.52300262    1.21000004    2.03999996
   15.89333344  131.07600403    1.21000004    2.03999996
   15.89638901  127.00700378    1.21000004    2.03999996
   15.89888859  130.42999268    1.21000004    2.03999996
   15.90027714  125.23899841    1.21000004    2.03999996
   15.90333271  135.11999512    1.21000004    2.03999996
   15.90666676  122.75700378    1.21000004    2.03999996
   15.90999985  127.33000183    1.21000004    2.03999996
   15.91305542  123.38600159    1.21000004    2.03999996
   15.91888905  123.38600159    1.21000004    2.03999996
   15.92305565  126.20999908    1.21000004    2.03999996
   15.92638874  121.85199738    1.21000004    2.03999996
   15.92972279  119.69599915    1.21000004    2.03999996
   15.93222237  126.95800018    1.21000004    2.03999996
   15.93333340  124.12699890    1.21000004    2.03999996
   15.93638897  120.50299835    1.21000004    2.03999996
   15.93972206  123.20700073    1.21000004    2.03999996
   15.94305515  126.51799774    1.21000004    2.03999996
   15.94611073  130.15600586    1.21000004    2.03999996
   15.94944477  117.97200012    1.21000004    2.03999996
   15.95249939  120.83399963    1.21000004    2.03999996
   15.95583344  118.29299927    1.21000004    2.03999996
   15.96194458  118.29299927    1.21000004    2.03999996
   15.96611118  122.45800018    1.21000004    2.03999996
   15.96916580  120.94999695    1.21000004    2.03999996
   15.97249985  124.33499908    1.21000004    2.03999996
   15.97555542  123.07800293    1.21000004    2.03999996
   15.97888851  125.20999908    1.21000004    2.03999996
   15.98222160  117.45899963    1.21000004    2.03999996
   15.98527813  124.51200104    1.21000004    2.03999996
   15.98861122  124.65899658    1.21000004    2.03999996
   15.99194431  128.36300659    1.21000004    2.03999996
   15.99499989  125.32499695    1.21000004    2.03999996
   15.99833393  127.28900146    1.21000004    2.03999996
   15.99888897  118.36599731    1.21000004    2.03999996
   16.00472260  118.36599731    1.21000004    2.03999996
   16.00888824  123.93599701    1.21000004    2.03999996
   16.01194382  127.45999908    1.21000004    2.03999996
   16.01527786  121.76200104    1.21000004    2.03999996
   16.01861000  124.66699982    1.21000004    2.03999996
   16.02166557  125.66899872    1.21000004    2.03999996
   16.02499962  122.40699768    1.21000004    2.03999996
   16.02833366  125.20600128    1.21000004    2.03999996
   16.03138924  120.52500153    1.21000004    2.03999996
   16.03222275  119.08000183    1.21000004    2.03999996
   16.03527641  123.12400055    1.21000004    2.03999996
   16.03833199  123.75599670    1.21000004    2.03999996
   16.04166603  121.82499695    1.21000004    2.03999996
   16.04749870  121.82499695    1.21000004    2.03999996
   16.05166626  124.97299957    1.21000004    2.03999996
   16.05499840  124.61699677    1.21000004    2.03999996
   16.05805397  126.02100372    1.21000004    2.03999996
   16.06138802  127.56199646    1.21000004    2.03999996
   16.06472206  121.60099792    1.21000004    2.03999996
   16.06555557  124.94699860    1.21000004    2.03999996
   16.06833458  122.24500275    1.21000004    2.03999996
   16.07139015  121.69499969    1.21000004    2.03999996
   16.07472229  124.26200104    1.21000004    2.03999996
   16.07805634  120.05899811    1.21000004    2.03999996
   16.08111191  126.69200134    1.21000004    2.03999996
   16.08444595  127.80300140    1.21000004    2.03999996
   16.09027863  127.80300140    1.21000004    2.03999996
   16.09444427  127.74600220    1.21000004    2.03999996
   16.09777832  124.81999969    1.21000004    2.03999996
   16.09889030  121.32299805    1.21000004    2.03999996
   16.10138893  119.40899658    1.21000004    2.03999996
   16.10444450  124.82399750    1.21000004    2.03999996
   16.10777855  125.65100098    1.21000004    2.03999996
   16.11111069  119.50599670    1.21000004    2.03999996
   16.11416626  121.68900299    1.21000004    2.03999996
   16.11750031  132.46099854    1.21000004    2.03999996
   16.12083435  126.94799805    1.21000004    2.03999996
   16.12388992  127.95200348    1.21000004    2.03999996
   16.12722206  121.30500031    1.21000004    2.03999996
   16.13333321  121.30500031    1.21000004    2.03999996
   16.13750076  127.25199890    1.21000004    2.03999996
   16.14055634  129.13200378    1.21000004    2.03999996
   16.14388847  121.37300110    1.21000004    2.03999996
   16.14694405  123.14399719    1.21000004    2.03999996
   16.15027809  120.21099854    1.21000004    2.03999996
   16.15361023  120.36699677    1.21000004    2.03999996
   16.15666580  126.38200378    1.21000004    2.03999996
   16.15999985  118.49700165    1.21000004    2.03999996
   16.16333389  123.46900177    1.21000004    2.03999996
   16.16555595  115.08000183    1.21000004    2.03999996
   16.16694450  116.69300079    1.21000004    2.03999996
   16.17000008  120.28900146    1.21000004    2.03999996
   16.17611122  120.28900146    1.21000004    2.03999996
   16.18027687  127.46099854    1.21000004    2.03999996
   16.18333244  128.42599487    1.21000004    2.03999996
   16.18666649  121.04399872    1.21000004    2.03999996
   16.18999863  122.57599640    1.21000004    2.03999996
   16.19305420  134.66900635    1.21000004    2.03999996
   16.19638824  128.78700256    1.21000004    2.03999996
   16.19888878  124.47799683    1.21000004    2.03999996
   16.20000076  126.82499695    1.21000004    2.03999996
   16.20333481  123.81600189    1.21000004    2.03999996
   16.20639038  120.98799896    1.21000004    2.03999996
   16.20972252  126.23100281    1.21000004    2.03999996
   16.21277809  120.52899933    1.21000004    2.03999996
   16.21888924  120.52899933    1.21000004    2.03999996
   16.22305679  127.65499878    1.21000004    2.03999996
   16.22638893  125.90299988    1.21000004    2.03999996
   16.22944450  127.03500366    1.21000004    2.03999996
   16.23222351  132.66799927    1.21000004    2.03999996
   16.23305511  126.08899689    1.21000004    2.03999996
   16.23611069  123.82800293    1.21000004    2.03999996
   16.23944473  122.69499969    1.21000004    2.03999996
   16.24277878  120.65299988    1.21000004    2.03999996
   16.24583435  119.14499664    1.21000004    2.03999996
   16.24916649  122.20300293    1.21000004    2.03999996
   16.25250053  122.13300323    1.21000004    2.03999996
   16.25555611  125.26300049    1.21000004    2.03999996
   16.26166725  125.26300049    1.21000004    2.03999996
   16.26583290  115.42600250    1.21000004    2.03999996
   16.26916695  124.46499634    1.21000004    2.03999996
   16.27249908  118.63600159    1.21000004    2.03999996
   16.27555466  119.48699951    1.21000004    2.03999996
   16.27888870  117.20500183    1.21000004    2.03999996
   16.28222275  120.17600250    1.21000004    2.03999996
   16.28527641  121.52899933    1.21000004    2.03999996
   16.28861046  122.70300293    1.21000004    2.03999996
   16.29194450  127.76100159    1.21000004    2.03999996
   16.29500008  122.03199768    1.21000004    2.03999996
   16.29833221  120.88099670    1.21000004    2.03999996
   16.29888916  117.80500031    1.21000004    2.03999996
   16.30472183  117.80500031    1.21000004    2.03999996
   16.30888748  126.03800201    1.21000004    2.03999996
   16.31194305  120.49099731    1.21000004    2.03999996
   16.31527710  120.07800293    1.21000004    2.03999996
   16.31833458  126.31700134    1.21000004    2.03999996
   16.32166672  124.75499725    1.21000004    2.03999996
   16.32500076  128.49400330    1.21000004    2.03999996
   16.32805634  121.11199951    1.21000004    2.03999996
   16.33139038  121.02799988    1.21000004    2.03999996
   16.33222389  120.42400360    1.21000004    2.03999996
   16.33500099  123.68800354    1.21000004    2.03999996
   16.33833313  124.16799927    1.21000004    2.03999996
   16.34138870  123.45999908    1.21000004    2.03999996
   16.34749985  123.45999908    1.21000004    2.03999996
   16.35166740  126.21600342    1.21000004    2.03999996
   16.35472298  120.36199951    1.21000004    2.03999996
   16.35805511  131.05400085    1.21000004    2.03999996
   16.36138916  122.59899902    1.21000004    2.03999996
   16.36444473  126.97799683    1.21000004    2.03999996
   16.36555672  129.44999695    1.21000004    2.03999996
   16.36805534  126.43699646    1.21000004    2.03999996
   16.37138939  122.59500122    1.21000004    2.03999996
   16.37444496  122.55799866    1.21000004    2.03999996
   16.37777710  119.58000183    1.21000004    2.03999996
   16.38083267  120.47200012    1.21000004    2.03999996
   16.38416672  122.12999725    1.21000004    2.03999996
   16.39027786  122.12999725    1.21000004    2.03999996
   16.39444351  115.70700073    1.21000004    2.03999996
   16.39777756  116.12400055    1.21000004    2.03999996
   16.39888954  118.48300171    1.21000004    2.03999996
   16.40138817  118.55500031    1.21000004    2.03999996
   16.40472221  121.13200378    1.21000004    2.03999996
   16.40777779  117.24700165    1.21000004    2.03999996
   16.41110992  115.09999847    1.21000004    2.03999996
   16.41416550  118.68000031    1.21000004    2.03999996
   16.41749954  128.36300659    1.21000004    2.03999996
   16.42083359  125.94000244    1.21000004    2.03999996
   16.42388916  119.97799683    1.21000004    2.03999996
   16.42722130  120.53199768    1.21000004    2.03999996
   16.43305397  120.53199768    1.21000004    2.03999996
   16.43722153  118.23000336    1.21000004    2.03999996
   16.44055557  119.48100281    1.21000004    2.03999996
   16.44388771  123.12799835    1.21000004    2.03999996
   16.44722176  120.02300262    1.21000004    2.03999996
   16.45027924  117.37799835    1.21000004    2.03999996
   16.45361137  115.26799774    1.21000004    2.03999996
   16.45666695  119.28700256    1.21000004    2.03999996
   16.46000099  115.37999725    1.21000004    2.03999996
   16.46333504  119.13099670    1.21000004    2.03999996
   16.46555710  121.01000214    1.21000004    2.03999996
   16.46694565  119.37300110    1.21000004    2.03999996
   16.47027779  114.25700378    1.21000004    2.03999996
   16.47611237  114.25700378    1.21000004    2.03999996
   16.48000145  122.04000092    1.21000004    2.03999996
   16.48333359  129.40800476    1.21000004    2.03999996
   16.48666763  116.89900208    1.21000004    2.03999996
   16.48972321  130.23300171    1.21000004    2.03999996
   16.49305534  124.73699951    1.21000004    2.03999996
   16.49638939  118.83300018    1.21000004    2.03999996
   16.49888992  118.37899780    1.21000004    2.03999996
   16.50000000  119.84200287    1.21000004    2.03999996
   16.50333405  118.15399933    1.21000004    2.03999996
   16.50638962  118.39099884    1.21000004    2.03999996
   16.50972176  114.19200134    1.21000004    2.03999996
   16.51305580  118.93299866    1.21000004    2.03999996
   16.51888847  118.93299866    1.21000004    2.03999996
   16.52305603  117.90899658    1.21000004    2.03999996
   16.52611160  115.75199890    1.21000004    2.03999996
   16.52944374  121.85500336    1.21000004    2.03999996
   16.53222275  130.23300171    1.21000004    2.03999996
   16.53305435  118.74800110    1.21000004    2.03999996
   16.53638840  115.44400024    1.21000004    2.03999996
   16.53944397  122.32599640    1.21000004    2.03999996
   16.54277802  124.08999634    1.21000004    2.03999996
   16.54611015  119.00000000    1.21000004    2.03999996
   16.54916573  115.19000244    1.21000004    2.03999996
   16.55249977  113.33000183    1.21000004    2.03999996
   16.55555534  126.27799988    1.21000004    2.03999996
   16.56166649  126.27799988    1.21000004    2.03999996
   16.56583214  127.45200348    1.21000004    2.03999996
   16.56916809  123.71600342    1.21000004    2.03999996
   16.57222366  120.86199951    1.21000004    2.03999996
   16.57555580  123.15299988    1.21000004    2.03999996
   16.57861137  123.06099701    1.21000004    2.03999996
   16.58194542  117.78600311    1.21000004    2.03999996
   16.58527756  122.74900055    1.21000004    2.03999996
   16.58833313  118.45700073    1.21000004    2.03999996
   16.59166718  121.21099854    1.21000004    2.03999996
   16.59500122  120.85399628    1.21000004    2.03999996
   16.59805679  114.55200195    1.21000004    2.03999996
   16.59916687  118.74099731    1.21000004    2.03999996
   16.61972237  118.74099731    1.21000004    2.03999996
   16.62388992  129.56100464    1.21000004    2.03999996
   16.62722206  125.57199860    1.21000004    2.03999996
   16.63027763  121.82399750    1.21000004    2.03999996
   16.63249969  120.76200104    1.21000004    2.03999996
   16.63388824  117.20600128    1.21000004    2.03999996
   16.63722229  120.94699860    1.21000004    2.03999996
   16.64027786  121.35099792    1.21000004    2.03999996
   16.64361191  120.21499634    1.21000004    2.03999996
   16.64694405  131.77900696    1.21000004    2.03999996
   16.64999962  130.77499390    1.21000004    2.03999996
   16.65333366  125.82099915    1.21000004    2.03999996
   16.65666580  129.15499878    1.21000004    2.03999996
   16.66250038  129.15499878    1.21000004    2.03999996
   16.66666603  125.40399933    1.21000004    2.03999996
   16.67000008  130.89199829    1.21000004    2.03999996
   16.67305565  131.74299622    1.21000004    2.03999996
   16.67638779  129.99699402    1.21000004    2.03999996
   16.67944336  133.09300232    1.21000004    2.03999996
   16.68277740  128.52600098    1.21000004    2.03999996
   16.68610954  123.29499817    1.21000004    2.03999996
   16.68916512  129.52200317    1.21000004    2.03999996
   16.69249916  121.33599854    1.21000004    2.03999996
   16.69583321  116.28500366    1.21000004    2.03999996
   16.69888878  124.67400360    1.21000004    2.03999996
   16.69944382  125.41000366    1.21000004    2.03999996
   16.70527840  125.41000366    1.21000004    2.03999996
   16.70944595  122.87000275    1.21000004    2.03999996
   16.71277809  122.91999817    1.21000004    2.03999996
   16.71583366  124.36199951    1.21000004    2.03999996
   16.71916771  118.54799652    1.21000004    2.03999996
   16.72249985  120.77100372    1.21000004    2.03999996
   16.72555542  120.36000061    1.21000004    2.03999996
   16.72888947  121.73899841    1.21000004    2.03999996
   16.73222351  115.12699890    1.21000004    2.03999996
   16.73277855  118.41899872    1.21000004    2.03999996
   16.73583412  130.09300232    1.21000004    2.03999996
   16.73888969  118.80200195    1.21000004    2.03999996
   16.74222183  120.95999908    1.21000004    2.03999996
   16.74833298  120.95999908    1.21000004    2.03999996
   16.75250053  116.98000336    1.21000004    2.03999996
   16.75555611  121.76899719    1.21000004    2.03999996
   16.75888824  119.18900299    1.21000004    2.03999996
   16.76222229  121.82299805    1.21000004    2.03999996
   16.76527786  116.04299927    1.21000004    2.03999996
   16.76611137  122.87000275    1.21000004    2.03999996
   16.76888847  120.71099854    1.21000004    2.03999996
   16.77194405  119.02200317    1.21000004    2.03999996
   16.77527809  119.50800323    1.21000004    2.03999996
   16.77861023  119.84600067    1.21000004    2.03999996
   16.78166580  123.44200134    1.21000004    2.03999996
   16.78499985  126.27200317    1.21000004    2.03999996
   16.79111099  126.27200317    1.21000004    2.03999996
   16.79527664  123.30699921    1.21000004    2.03999996
   16.79833221  120.37999725    1.21000004    2.03999996
   16.79944420  116.47599792    1.21000004    2.03999996
   16.80222130  124.41400146    1.21000004    2.03999996
   16.80527687  127.92800140    1.21000004    2.03999996
   16.80861092  115.79000092    1.21000004    2.03999996
   16.81194305  119.40599823    1.21000004    2.03999996
   16.81499863  133.25500488    1.21000004    2.03999996
   16.81833458  126.96399689    1.21000004    2.03999996
   16.82166672  115.13300323    1.21000004    2.03999996
   16.82472229  119.87500000    1.21000004    2.03999996
   16.82805634  119.52200317    1.21000004    2.03999996
   16.83388901  119.52200317    1.21000004    2.03999996
   16.83805656  117.45999908    1.21000004    2.03999996
   16.84138870  123.53700256    1.21000004    2.03999996
   16.84444427  124.04100037    1.21000004    2.03999996
   16.84777832  119.37300110    1.21000004    2.03999996
   16.85083389  120.09999847    1.21000004    2.03999996
   16.85416794  116.91600037    1.21000004    2.03999996
   16.85750008  123.16699982    1.21000004    2.03999996
   16.86055565  114.73799896    1.21000004    2.03999996
   16.86388969  112.47299957    1.21000004    2.03999996
   16.86611176  111.95400238    1.21000004    2.03999996
   16.86750031  118.00000000    1.21000004    2.03999996
   16.87055588  116.92900085    1.21000004    2.03999996
   16.87666702  116.92900085    1.21000004    2.03999996
   16.88083267  119.90100098    1.21000004    2.03999996
   16.88416672  123.61000061    1.21000004    2.03999996
   16.88722229  132.09199524    1.21000004    2.03999996
   16.89055634  119.12300110    1.21000004    2.03999996
   16.89388847  122.59100342    1.21000004    2.03999996
   16.89694405  125.76200104    1.21000004    2.03999996
   16.89944458  136.06300354    1.21000004    2.03999996
   16.90083313  120.36599731    1.21000004    2.03999996
   16.90388870  119.18599701    1.21000004    2.03999996
   16.90722275  116.48600006    1.21000004    2.03999996
   16.91055489  125.00599670    1.21000004    2.03999996
   16.91361046  136.65699768    1.21000004    2.03999996
   16.91972160  136.65699768    1.21000004    2.03999996
   16.92361069  117.97100067    1.21000004    2.03999996
   16.92694473  121.43299866    1.21000004    2.03999996
   16.93027687  113.23200226    1.21000004    2.03999996
   16.93277740  123.92900085    1.21000004    2.03999996
   16.93388748  122.35800171    1.21000004    2.03999996
   16.93694305  122.58000183    1.21000004    2.03999996
   16.94027710  136.19099426    1.21000004    2.03999996
   16.94361115  128.22799683    1.21000004    2.03999996
   16.94666672  129.84700012    1.21000004    2.03999996
   16.95000076  126.57299805    1.21000004    2.03999996
   16.95333481  122.36599731    1.21000004    2.03999996
   16.95639038  123.12799835    1.21000004    2.03999996
   16.96250153  123.12799835    1.21000004    2.03999996
   16.96666718  119.48600006    1.21000004    2.03999996
   16.96972275  120.78700256    1.21000004    2.03999996
   16.97305679  129.15100098    1.21000004    2.03999996
   16.97638893  125.08899689    1.21000004    2.03999996
   16.97944450  118.48699951    1.21000004    2.03999996
   16.98277855  115.21499634    1.21000004    2.03999996
   16.98583412  122.28099823    1.21000004    2.03999996
   16.98916626  123.09899902    1.21000004    2.03999996
   16.99250031  123.37699890    1.21000004    2.03999996
   16.99555588  124.07700348    1.21000004    2.03999996
   16.99888992  122.43499756    1.21000004    2.03999996
   16.99972153  119.16100311    1.21000004    2.03999996
   17.00527763  119.16100311    1.21000004    2.03999996
   17.00944519  114.98100281    1.21000004    2.03999996
   17.01277733  120.18199921    1.21000004    2.03999996
   17.01583290  121.10299683    1.21000004    2.03999996
   17.01916695  116.30100250    1.21000004    2.03999996
   17.02222252  117.06900024    1.21000004    2.03999996
   17.02555466  122.34500122    1.21000004    2.03999996
   17.02888870  115.05000305    1.21000004    2.03999996
   17.03194427  115.87899780    1.21000004    2.03999996
   17.03277779  125.32700348    1.21000004    2.03999996
   17.03583336  125.85700226    1.21000004    2.03999996
   17.03916550  124.44999695    1.21000004    2.03999996
   17.04222107  125.98799896    1.21000004    2.03999996
   17.04805565  125.98799896    1.21000004    2.03999996
   17.05222130  127.42800140    1.21000004    2.03999996
   17.05555534  129.95100403    1.21000004    2.03999996
   17.05861092  115.75800323    1.21000004    2.03999996
   17.06194305  118.31300354    1.21000004    2.03999996
   17.06527710  124.56700134    1.21000004    2.03999996
   17.06611061  127.23799896    1.21000004    2.03999996
   17.06888962  128.22999573    1.21000004    2.03999996
   17.07222366  125.20899963    1.21000004    2.03999996
   17.07527924  119.63800049    1.21000004    2.03999996
   17.07861137  129.15699768    1.21000004    2.03999996
   17.08166695  134.50300598    1.21000004    2.03999996
   17.08500099  129.36799622    1.21000004    2.03999996
   17.09083366  129.36799622    1.21000004    2.03999996
   17.09500122  134.83799744    1.21000004    2.03999996
   17.09833336  126.33200073    1.21000004    2.03999996
   17.09944534  124.25099945    1.21000004    2.03999996
   17.10194397  125.02799988    1.21000004    2.03999996
   17.10527802  120.23100281    1.21000004    2.03999996
   17.10833359  118.26699829    1.21000004    2.03999996
   17.11166763  125.74400330    1.21000004    2.03999996
   17.11499977  119.82399750    1.21000004    2.03999996
   17.11805534  128.78999329    1.21000004    2.03999996
   17.12138939  124.62300110    1.21000004    2.03999996
   17.12472153  124.72599792    1.21000004    2.03999996
   17.12777710  124.58300018    1.21000004    2.03999996
   17.13388824  124.58300018    1.21000004    2.03999996
   17.13805580  116.64399719    1.21000004    2.03999996
   17.14111137  118.53600311    1.21000004    2.03999996
   17.14444351  122.89700317    1.21000004    2.03999996
   17.14749908  117.65200043    1.21000004    2.03999996
   17.15083313  118.86000061    1.21000004    2.03999996
   17.15416718  126.93599701    1.21000004    2.03999996
   17.15722275  124.39900208    1.21000004    2.03999996
   17.16055489  124.74600220    1.21000004    2.03999996
   17.16388893  117.64600372    1.21000004    2.03999996
   17.16611099  121.28900146    1.21000004    2.03999996
   17.16749954  123.11299896    1.21000004    2.03999996
   17.17083359  127.40399933    1.21000004    2.03999996
   17.17666626  127.40399933    1.21000004    2.03999996
   17.18083191  121.77500153    1.21000004    2.03999996
   17.18388748  124.76799774    1.21000004    2.03999996
   17.18722153  120.81500244    1.21000004    2.03999996
   17.19055557  123.57399750    1.21000004    2.03999996
   17.19361115  122.47599792    1.21000004    2.03999996
   17.19694328  121.23899841    1.21000004    2.03999996
   17.19944382  118.78800201    1.21000004    2.03999996
   17.20055580  117.87100220    1.21000004    2.03999996
   17.20388985  124.68900299    1.21000004    2.03999996
   17.20694542  119.85800171    1.21000004    2.03999996
   17.21027946  125.14700317    1.21000004    2.03999996
   17.21361160  132.87699890    1.21000004    2.03999996
   17.21944427  132.87699890    1.21000004    2.03999996
   17.22361183  118.65399933    1.21000004    2.03999996
   17.22694588  126.72200012    1.21000004    2.03999996
   17.23000145  129.66099548    1.21000004    2.03999996
   17.23277855  124.27400208    1.21000004    2.03999996
   17.23361206  124.42099762    1.21000004    2.03999996
   17.23694420  120.57299805    1.21000004    2.03999996
   17.23999977  127.21299744    1.21000004    2.03999996
   17.24333382  128.76100159    1.21000004    2.03999996
   17.24638939  123.77300262    1.21000004    2.03999996
   17.24972153  125.55799866    1.21000004    2.03999996
   17.25305557  129.58799744    1.21000004    2.03999996
   17.25611115  121.09700012    1.21000004    2.03999996
   17.26222229  121.09700012    1.21000004    2.03999996
   17.26638794  127.77999878    1.21000004    2.03999996
   17.26972198  119.50700378    1.21000004    2.03999996
   17.27305603  130.83700562    1.21000004    2.03999996
   17.27611160  118.23999786    1.21000004    2.03999996
   17.27944374  120.96499634    1.21000004    2.03999996
   17.28249931  123.23100281    1.21000004    2.03999996
   17.28583336  123.05799866    1.21000004    2.03999996
   17.28916550  114.57800293    1.21000004    2.03999996
   17.29222107  116.65200043    1.21000004    2.03999996
   17.29555511  120.57800293    1.21000004    2.03999996
   17.29888916  123.20099640    1.21000004    2.03999996
   17.29944420  121.37000275    1.21000004    2.03999996
   17.30527687  121.37000275    1.21000004    2.03999996
   17.30944443  118.80899811    1.21000004    2.03999996
   17.31250000  114.38099670    1.21000004    2.03999996
   17.31583214  117.19200134    1.21000004    2.03999996
   17.31888962  108.11100006    1.21000004    2.03999996
   17.32222366  111.56500244    1.21000004    2.03999996
   17.32555580  111.27200317    1.21000004    2.03999996
   17.32861137  112.94999695    1.21000004    2.03999996
   17.33194542  123.26799774    1.21000004    2.03999996
   17.33277893  111.44400024    1.21000004    2.03999996
   17.33555603  121.15000153    1.21000004    2.03999996
   17.33889008  115.88700104    1.21000004    2.03999996
   17.34194565  116.55400085    1.21000004    2.03999996
   17.34805679  116.55400085    1.21000004    2.03999996
   17.35222244  113.41799927    1.21000004    2.03999996
   17.35527802  119.50700378    1.21000004    2.03999996
   17.35861206  113.82900238    1.21000004    2.03999996
   17.36194420  121.20099640    1.21000004    2.03999996
   17.36499977  115.45800018    1.21000004    2.03999996
   17.36611176  121.84300232    1.21000004    2.03999996
   17.36861038  110.73400116    1.21000004    2.03999996
   17.37194443  112.20800018    1.21000004    2.03999996
   17.37500000  115.83799744    1.21000004    2.03999996
   17.37833405  114.25800323    1.21000004    2.03999996
   17.38166618  114.53900146    1.21000004    2.03999996
   17.38472176  118.78500366    1.21000004    2.03999996
   17.39083290  118.78500366    1.21000004    2.03999996
   17.39500046  118.94499969    1.21000004    2.03999996
   17.39833260  116.06400299    1.21000004    2.03999996
   17.39944458  116.45099640    1.21000004    2.03999996
   17.40194321  113.92099762    1.21000004    2.03999996
   17.40527725  113.12599945    1.21000004    2.03999996
   17.40833282  113.36900330    1.21000004    2.03999996
   17.41166687  118.60299683    1.21000004    2.03999996
   17.41499901  116.01699829    1.21000004    2.03999996
   17.41805458  120.64199829    1.21000004    2.03999996
   17.42138863  121.40000153    1.21000004    2.03999996
   17.42444420  121.69499969    1.21000004    2.03999996
   17.42777634  121.17199707    1.21000004    2.03999996
   17.43361092  121.17199707    1.21000004    2.03999996
   17.43777657  117.08799744    1.21000004    2.03999996
   17.44111061  115.43299866    1.21000004    2.03999996
   17.44444275  114.70800018    1.21000004    2.03999996
   17.44749832  118.03500366    1.21000004    2.03999996
   17.45083427  118.61199951    1.21000004    2.03999996
   17.45416832  118.78399658    1.21000004    2.03999996
   17.45722389  114.43800354    1.21000004    2.03999996
   17.46055603  118.45700073    1.21000004    2.03999996
   17.46361160  119.88300323    1.21000004    2.03999996
   17.46611214  118.04199982    1.21000004    2.03999996
   17.46722221  123.69899750    1.21000004    2.03999996
   17.47055626  120.19799805    1.21000004    2.03999996
   17.47666740  120.19799805    1.21000004    2.03999996
   17.48083305  114.85099792    1.21000004    2.03999996
   17.48388863  122.28500366    1.21000004    2.03999996
   17.48722267  121.19300079    1.21000004    2.03999996
   17.49027824  117.42500305    1.21000004    2.03999996
   17.49361229  120.56800079    1.21000004    2.03999996
   17.49694443  126.67700195    1.21000004    2.03999996
   17.49944496  116.73500061    1.21000004    2.03999996
   17.50055504  126.59300232    1.21000004    2.03999996
   17.50388908  116.56900024    1.21000004    2.03999996
   17.50694466  127.29599762    1.21000004    2.03999996
   17.51027870  115.10500336    1.21000004    2.03999996
   17.51361084  121.99700165    1.21000004    2.03999996
   17.51944351  121.99700165    1.21000004    2.03999996
   17.52361107  116.05999756    1.21000004    2.03999996
   17.52666664  108.54699707    1.21000004    2.03999996
   17.53000069  113.19599915    1.21000004    2.03999996
   17.53305435  113.04399872    1.21000004    2.03999996
   17.53361130  120.17099762    1.21000004    2.03999996
   17.53694344  110.94999695    1.21000004    2.03999996
   17.53999901   89.90309906    1.21000004    2.03999996
   17.54333305  113.81400299    1.21000004    2.03999996
   17.54666710  118.43399811    1.21000004    2.03999996
   17.54972076  112.06600189    1.21000004    2.03999996
   17.55305481  115.69100189    1.21000004    2.03999996
   17.55638885  110.67900085    1.21000004    2.03999996
   17.56222153  110.67900085    1.21000004    2.03999996
   17.56638718  113.55300140    1.21000004    2.03999996
   17.56972313  114.09799957    1.21000004    2.03999996
   17.57277870  119.39199829    1.21000004    2.03999996
   17.57611275  114.36199951    1.21000004    2.03999996
   17.57944489  116.21299744    1.21000004    2.03999996
   17.58250046  115.44100189    1.21000004    2.03999996
   17.58583450  115.97499847    1.21000004    2.03999996
   17.58889008  115.89800262    1.21000004    2.03999996
   17.59222221  115.90299988    1.21000004    2.03999996
   17.59555626  119.69200134    1.21000004    2.03999996
   17.59861183  116.36499786    1.21000004    2.03999996
   17.59972191  113.65799713    1.21000004    2.03999996
   17.60499954  113.65799713    1.21000004    2.03999996
   17.60916710  116.66500092    1.21000004    2.03999996
   17.61250114  116.31300354    1.21000004    2.03999996
   17.61583328  113.41000366    1.21000004    2.03999996
   17.63333321  113.58300018    1.21000004    2.03999996
   17.63583374  113.44200134    1.21000004    2.03999996
   17.63888931  122.80799866    1.21000004    2.03999996
   17.64222145  115.98699951    1.21000004    2.03999996
   17.64805603  115.98699951    1.21000004    2.03999996
   17.65222168  114.00499725    1.21000004    2.03999996
   17.65555573  111.81099701    1.21000004    2.03999996
   17.65861130  112.34300232    1.21000004    2.03999996
   17.66194344  116.21700287    1.21000004    2.03999996
   17.66527748  114.66100311    1.21000004    2.03999996
   17.66666603  119.81600189    1.21000004    2.03999996
   17.66888809  111.85700226    1.21000004    2.03999996
   17.67222214  116.80100250    1.21000004    2.03999996
   17.67555428  121.73300171    1.21000004    2.03999996
   17.67860985  119.45899963    1.21000004    2.03999996
   17.68194389  110.05400085    1.21000004    2.03999996
   17.68527603  112.80100250    1.21000004    2.03999996
   17.69111061  112.80100250    1.21000004    2.03999996
   17.69499969  115.66000366    1.21000004    2.03999996
   17.69833183  121.17600250    1.21000004    2.03999996
   17.70000076  108.06300354    1.21000004    2.03999996
   17.70194435  110.88800049    1.21000004    2.03999996
   17.70527840  114.94999695    1.21000004    2.03999996
   17.70861244  113.21600342    1.21000004    2.03999996
   17.71166801  117.60399628    1.21000004    2.03999996
   17.71500015  111.43399811    1.21000004    2.03999996
   17.71833420  116.32099915    1.21000004    2.03999996
   17.72138977  114.16600037    1.21000004    2.03999996
   17.72472191  110.46600342    1.21000004    2.03999996
   17.72777748  114.60700226    1.21000004    2.03999996
   17.73388863  114.60700226    1.21000004    2.03999996
   17.73805618  114.73000336    1.21000004    2.03999996
   17.74111176  114.08200073    1.21000004    2.03999996
   17.74444389  109.93699646    1.21000004    2.03999996
   17.74777794  114.78600311    1.21000004    2.03999996
   17.75083351  114.94499969    1.21000004    2.03999996
   17.75416756  113.25399780    1.21000004    2.03999996
   17.75722313  111.04799652    1.21000004    2.03999996
   17.76055527  112.12100220    1.21000004    2.03999996
   17.76388931  115.65799713    1.21000004    2.03999996
   17.76666641  110.16999817    1.21000004    2.03999996
   17.76722145  110.15699768    1.21000004    2.03999996
   17.77055550  113.04299927    1.21000004    2.03999996
   17.77666664  113.04299927    1.21000004    2.03999996
   17.78083229  111.59100342    1.21000004    2.03999996
   17.78416634  112.53199768    1.21000004    2.03999996
   17.78722191  112.23999786    1.21000004    2.03999996
   17.79055595  112.80500031    1.21000004    2.03999996
   17.79361153  113.50199890    1.21000004    2.03999996
   17.79694366  108.16799927    1.21000004    2.03999996
   17.79999924  115.50099945    1.21000004    2.03999996
   17.80055428  115.54599762    1.21000004    2.03999996
   17.80388832  116.07299805    1.21000004    2.03999996
   17.80694389  114.94899750    1.21000004    2.03999996
   17.81027794  111.47499847    1.21000004    2.03999996
   17.81361008  113.35700226    1.21000004    2.03999996
   17.81944466  113.35700226    1.21000004    2.03999996
   17.82361221  113.27799988    1.21000004    2.03999996
   17.82694626  111.45400238    1.21000004    2.03999996
   17.83000183  114.02999878    1.21000004    2.03999996
   17.83333397  112.24199677    1.21000004    2.03999996
   17.83361244  114.42700195    1.21000004    2.03999996
   17.83694458  107.16600037    1.21000004    2.03999996
   17.84000015  112.25599670    1.21000004    2.03999996
   17.84333420  113.96299744    1.21000004    2.03999996
   17.84666824  123.63099670    1.21000004    2.03999996
   17.84972191  110.15200043    1.21000004    2.03999996
   17.85305595  115.79199982    1.21000004    2.03999996
   17.85639000  111.41500092    1.21000004    2.03999996
   17.86250114  111.41500092    1.21000004    2.03999996
   17.86666679  111.62699890    1.21000004    2.03999996
   17.86694527  115.39099884    1.21000004    2.03999996
   17.87027740  115.80400085    1.21000004    2.03999996
   17.87361145  114.43699646    1.21000004    2.03999996
   17.87666702  117.18099976    1.21000004    2.03999996
   17.88000107  118.74600220    1.21000004    2.03999996
   17.88305473  118.36399841    1.21000004    2.03999996
   17.88638878  117.66400146    1.21000004    2.03999996
   17.88972282  114.58899689    1.21000004    2.03999996
   17.89305496  123.75000000    1.21000004    2.03999996
   17.89638901  117.80100250    1.21000004    2.03999996
   17.89944458  113.23999786    1.21000004    2.03999996
   17.89999962  108.65899658    1.21000004    2.03999996
   17.90527725  108.65899658    1.21000004    2.03999996
   17.90944481  120.95400238    1.21000004    2.03999996
   17.91250038  106.17199707    1.21000004    2.03999996
   17.91583252  115.25000000    1.21000004    2.03999996
   17.91916656  110.53099823    1.21000004    2.03999996
   17.92222214  108.58899689    1.21000004    2.03999996
   17.92555428  118.62000275    1.21000004    2.03999996
   17.92888832  115.88300323    1.21000004    2.03999996
   17.93222237  112.81199646    1.21000004    2.03999996
   17.93333244  116.38600159    1.21000004    2.03999996
   17.93583298  118.34899902    1.21000004    2.03999996
   17.93916512  122.60600281    1.21000004    2.03999996
   17.94222069  120.70999908    1.21000004    2.03999996
   17.94805527  120.70999908    1.21000004    2.03999996
   17.95222282  115.64700317    1.21000004    2.03999996
   17.95555687  118.61299896    1.21000004    2.03999996
   17.95861244  118.97799683    1.21000004    2.03999996
   17.96194458  118.40299988    1.21000004    2.03999996
   17.96500015  118.67900085    1.21000004    2.03999996
   17.96666718  112.70800018    1.21000004    2.03999996
   17.96888924  116.29499817    1.21000004    2.03999996
   17.97222328  121.84300232    1.21000004    2.03999996
   17.97527885  117.13600159    1.21000004    2.03999996
   17.97861099  119.69000244    1.21000004    2.03999996
   17.98166656  114.50199890    1.21000004    2.03999996
   17.98500061  117.02799988    1.21000004    2.03999996
   17.99083328  117.02799988    1.21000004    2.03999996
   17.99500084  117.79599762    1.21000004    2.03999996
   17.99833298  118.56800079    1.21000004    2.03999996
   18.00000000  120.51999664    1.21000004    2.03999996
   18.00194359  121.76699829    1.21000004    2.03999996
   18.00499916  113.79799652    1.21000004    2.03999996
   18.00833321  117.57399750    1.21000004    2.03999996
   18.01166725  119.71299744    1.21000004    2.03999996
   18.01472282  113.89499664    1.21000004    2.03999996
   18.01805496  115.96299744    1.21000004    2.03999996
   18.02138901  118.71600342    1.21000004    2.03999996
   18.02444458  114.08300018    1.21000004    2.03999996
   18.02777672  118.25199890    1.21000004    2.03999996
   18.03388786  118.25199890    1.21000004    2.03999996
   18.03777695  114.00000000    1.21000004    2.03999996
   18.04111099  117.34899902    1.21000004    2.03999996
   18.04444313  116.87999725    1.21000004    2.03999996
   18.04749870  115.62999725    1.21000004    2.03999996
   18.05083275  113.41400146    1.21000004    2.03999996
   18.05416679  116.46299744    1.21000004    2.03999996
   18.05722237  112.86900330    1.21000004    2.03999996
   18.06055450  113.81300354    1.21000004    2.03999996
   18.06388855  117.16100311    1.21000004    2.03999996
   18.06666756  112.32199860    1.21000004    2.03999996
   18.06750107  114.45300293    1.21000004    2.03999996
   18.07055664  115.08899689    1.21000004    2.03999996
   18.07666779  115.08899689    1.21000004    2.03999996
   18.08083344  114.65599823    1.21000004    2.03999996
   18.08388901  116.06999969    1.21000004    2.03999996
   18.08722305  106.85900116    1.21000004    2.03999996
   18.09055710  111.42600250    1.21000004    2.03999996
   18.09361267  111.41500092    1.21000004    2.03999996
   18.09694481  110.00599670    1.21000004    2.03999996
   18.10000038  111.52300262    1.21000004    2.03999996
   18.10055542  117.16600037    1.21000004    2.03999996
   18.10361099  113.30400085    1.21000004    2.03999996
   18.10694504  113.52600098    1.21000004    2.03999996
   18.11027908  108.72499847    1.21000004    2.03999996
   18.11333466  116.83599854    1.21000004    2.03999996
   18.11944389  116.83599854    1.21000004    2.03999996
   18.12361145  110.03199768    1.21000004    2.03999996
   18.12694550  107.96700287    1.21000004    2.03999996
   18.13000107  112.72200012    1.21000004    2.03999996
   18.13333321  118.40799713    1.21000004    2.03999996
   18.13388824  114.34500122    1.21000004    2.03999996
   18.13694382  116.33399963    1.21000004    2.03999996
   18.14027786  118.00700378    1.21000004    2.03999996
   18.14361191  115.12300110    1.21000004    2.03999996
   18.14666748  116.38999939    1.21000004    2.03999996
   18.14999962  116.95600128    1.21000004    2.03999996
   18.15333366  110.77200317    1.21000004    2.03999996
   18.15638924  108.80699921    1.21000004    2.03999996
   18.16250038  108.80699921    1.21000004    2.03999996
   18.16638756  110.28800201    1.21000004    2.03999996
   18.16694450  118.02600098    1.21000004    2.03999996
   18.17027664  107.44599915    1.21000004    2.03999996
   18.17361069  111.74600220    1.21000004    2.03999996
   18.17666626  114.33100128    1.21000004    2.03999996
   18.18000031  109.32399750    1.21000004    2.03999996
   18.18305397  114.53700256    1.21000004    2.03999996
   18.18638802  111.68699646    1.21000004    2.03999996
   18.18972206  118.04100037    1.21000004    2.03999996
   18.19277763  116.78299713    1.21000004    2.03999996
   18.19610977  118.92400360    1.21000004    2.03999996
   18.19944382  107.60199738    1.21000004    2.03999996
   18.20027924  113.55400085    1.21000004    2.03999996
   18.20527840  113.55400085    1.21000004    2.03999996
   18.20944595  113.26399994    1.21000004    2.03999996
   18.21250153  118.50399780    1.21000004    2.03999996
   18.21583366  112.36699677    1.21000004    2.03999996
   18.21888924  114.57399750    1.21000004    2.03999996
   18.22222328  114.73000336    1.21000004    2.03999996
   18.22583389  111.83499908    1.21000004    2.03999996
   18.22888947  110.49600220    1.21000004    2.03999996
   18.23222351  114.30899811    1.21000004    2.03999996
   18.23361206  109.90499878    1.21000004    2.03999996
   18.23583412  113.98999786    1.21000004    2.03999996
   18.23916626  112.74400330    1.21000004    2.03999996
   18.24222183  110.84799957    1.21000004    2.03999996
   18.24805641  110.84799957    1.21000004    2.03999996
   18.25222206  113.43900299    1.21000004    2.03999996
   18.25527763  113.64499664    1.21000004    2.03999996
   18.25861168  112.04599762    1.21000004    2.03999996
   18.26194382  113.75199890    1.21000004    2.03999996
   18.26499939  110.01899719    1.21000004    2.03999996
   18.26694489  115.10900116    1.21000004    2.03999996
   18.26861000  114.58399963    1.21000004    2.03999996
   18.27194405  113.04900360    1.21000004    2.03999996
   18.27499962  104.00199890    1.21000004    2.03999996
   18.27833366  112.17700195    1.21000004    2.03999996
   18.28138924  108.02200317    1.21000004    2.03999996
   18.28472137  111.23200226    1.21000004    2.03999996
   18.29083252  111.23200226    1.21000004    2.03999996
   18.29500008  112.63700104    1.21000004    2.03999996
   18.29833221  116.32499695    1.21000004    2.03999996
   18.30027771  113.87999725    1.21000004    2.03999996
   18.30194283  110.84799957    1.21000004    2.03999996
   18.30527687  111.72499847    1.21000004    2.03999996
   18.30833244  114.20200348    1.21000004    2.03999996
   18.31166649  112.78199768    1.21000004    2.03999996
   18.31499863  119.12400055    1.21000004    2.03999996
   18.31805611  113.31600189    1.21000004    2.03999996
   18.32139015  109.07900238    1.21000004    2.03999996
   18.32472229  108.21700287    1.21000004    2.03999996
   18.32777786  120.00599670    1.21000004    2.03999996
   18.33388901  120.00599670    1.21000004    2.03999996
   18.33777809  117.71600342    1.21000004    2.03999996
   18.34111214  107.69000244    1.21000004    2.03999996
   18.34444427  116.23500061    1.21000004    2.03999996
   18.34749985  113.80100250    1.21000004    2.03999996
   18.35083389  115.35900116    1.21000004    2.03999996
   18.35388947  115.24800110    1.21000004    2.03999996
   18.35722351  121.38200378    1.21000004    2.03999996
   18.36055565  119.26799774    1.21000004    2.03999996
   18.36361122  116.72399902    1.21000004    2.03999996
   18.36694527  117.93599701    1.21000004    2.03999996
   18.36750031  122.73200226    1.21000004    2.03999996
   18.37083435  128.42500305    1.21000004    2.03999996
   18.37666702  128.42500305    1.21000004    2.03999996
   18.38083267  123.15000153    1.21000004    2.03999996
   18.38388824  126.80000305    1.21000004    2.03999996
   18.38722229  124.97699738    1.21000004    2.03999996
   18.39055634  124.19499969    1.21000004    2.03999996
   18.39361191  124.52300262    1.21000004    2.03999996
   18.39694405  121.15599823    1.21000004    2.03999996
   18.40027809  123.73699951    1.21000004    2.03999996
   18.40083313  120.34100342    1.21000004    2.03999996
   18.40388870  121.12999725    1.21000004    2.03999996
   18.40694427  118.77400208    1.21000004    2.03999996
   18.41027832  118.00099945    1.21000004    2.03999996
   18.41333389  121.41300201    1.21000004    2.03999996
   18.41944313  121.41300201    1.21000004    2.03999996
   18.42361069  116.96900177    1.21000004    2.03999996
   18.42666626  115.08000183    1.21000004    2.03999996
   18.43000031  116.09600067    1.21000004    2.03999996
   18.43333244  109.72100067    1.21000004    2.03999996
   18.43416595  116.16799927    1.21000004    2.03999996
   18.43694305  122.18800354    1.21000004    2.03999996
   18.43999863  123.69999695    1.21000004    2.03999996
   18.44333267  112.81999969    1.21000004    2.03999996
   18.44638824  113.72100067    1.21000004    2.03999996
   18.44972038  119.34799957    1.21000004    2.03999996
   18.45305634  116.33599854    1.21000004    2.03999996
   18.45611191  120.33399963    1.21000004    2.03999996
   18.46222305  120.33399963    1.21000004    2.03999996
   18.46638870  113.39700317    1.21000004    2.03999996
   18.46750069  113.24600220    1.21000004    2.03999996
   18.47027779  111.19300079    1.21000004    2.03999996
   18.47333336  111.69100189    1.21000004    2.03999996
   18.47666740  111.42299652    1.21000004    2.03999996
   18.48000145  123.31199646    1.21000004    2.03999996
   18.48305511  116.06900024    1.21000004    2.03999996
   18.48638916  114.64099884    1.21000004    2.03999996
   18.48944473  113.52200317    1.21000004    2.03999996
   18.49277878  119.64600372    1.21000004    2.03999996
   18.49611092  112.49700165    1.21000004    2.03999996
   18.49916649  111.31700134    1.21000004    2.03999996
   18.50111198  113.34799957    1.21000004    2.03999996
   18.50527763  113.34799957    1.21000004    2.03999996
   18.50916672  114.73699951    1.21000004    2.03999996
   18.51250076  114.57099915    1.21000004    2.03999996
   18.51583290  128.40299988    1.21000004    2.03999996
   18.51888847  117.05200195    1.21000004    2.03999996
   18.52222252  115.29599762    1.21000004    2.03999996
   18.52555466  116.65399933    1.21000004    2.03999996
   18.52861023  118.92500305    1.21000004    2.03999996
   18.53194427  115.62000275    1.21000004    2.03999996
   18.53416634  111.47599792    1.21000004    2.03999996
   18.53555489  114.94100189    1.21000004    2.03999996
   18.53861046  111.47399902    1.21000004    2.03999996
   18.54194450  114.11699677    1.21000004    2.03999996
   18.54805565  114.11699677    1.21000004    2.03999996
   18.55222130  108.07399750    1.21000004    2.03999996
   18.55527687  112.46600342    1.21000004    2.03999996
   18.55861092  112.01599884    1.21000004    2.03999996
   18.56194305  106.39399719    1.21000004    2.03999996
   18.56499863  107.29599762    1.21000004    2.03999996
   18.56750107  109.99299622    1.21000004    2.03999996
   18.56888962  122.48200226    1.21000004    2.03999996
   18.57194519  117.85600281    1.21000004    2.03999996
   18.57527924  110.46099854    1.21000004    2.03999996
   18.57861137  111.28600311    1.21000004    2.03999996
   18.58166695  111.37300110    1.21000004    2.03999996
   18.58500099  112.05000305    1.21000004    2.03999996
   18.59083366  112.05000305    1.21000004    2.03999996
   18.59500122  112.69499969    1.21000004    2.03999996
   18.59833336  114.08799744    1.21000004    2.03999996
   18.60083389  121.23699951    1.21000004    2.03999996
   18.60194397  115.30400085    1.21000004    2.03999996
   18.60499954  116.28600311    1.21000004    2.03999996
   18.60833359  117.13500214    1.21000004    2.03999996
   18.61138916  107.27200317    1.21000004    2.03999996
   18.61472321  113.33200073    1.21000004    2.03999996
   18.61805534  113.08000183    1.21000004    2.03999996
   18.62111092  111.87400055    1.21000004    2.03999996
   18.62444496  112.83100128    1.21000004    2.03999996
   18.62777710  112.55300140    1.21000004    2.03999996
   18.63361168  112.55300140    1.21000004    2.03999996
   18.65194321  112.78299713    1.21000004    2.03999996
   18.65527725  114.61299896    1.21000004    2.03999996
   18.65861130  114.81500244    1.21000004    2.03999996
   18.66166687  111.51200104    1.21000004    2.03999996
   18.66499901  116.58100128    1.21000004    2.03999996
   18.66805458  116.41899872    1.21000004    2.03999996
   18.67138863  110.46199799    1.21000004    2.03999996
   18.67666626  110.46199799    1.21000004    2.03999996
   18.68083191  113.29199982    1.21000004    2.03999996
   18.68416595  117.91600037    1.21000004    2.03999996
   18.68499947  116.49700165    1.21000004    2.03999996
   18.68777657  114.12100220    1.21000004    2.03999996
   18.69111061  112.87799835    1.21000004    2.03999996
   18.69416618  108.76200104    1.21000004    2.03999996
   18.69749832  108.64199829    1.21000004    2.03999996
   18.70083427  117.08799744    1.21000004    2.03999996
   18.70388985  109.84100342    1.21000004    2.03999996
   18.70722389  109.19999695    1.21000004    2.03999996
   18.71055603  115.04199982    1.21000004    2.03999996
   18.71389008  108.24199677    1.21000004    2.03999996
   18.71972275  108.24199677    1.21000004    2.03999996
   18.72361183  109.21800232    1.21000004    2.03999996
   18.72694588  114.51699829    1.21000004    2.03999996
   18.73027802  113.93499756    1.21000004    2.03999996
   18.73333359  109.88400269    1.21000004    2.03999996
   18.73666763  110.29599762    1.21000004    2.03999996
   18.73999977  112.23000336    1.21000004    2.03999996
   18.74305534  108.09400177    1.21000004    2.03999996
   18.74638939  111.48600006    1.21000004    2.03999996
   18.74944496  110.48300171    1.21000004    2.03999996
   18.75166702  113.91699982    1.21000004    2.03999996
   18.75333405  114.42199707    1.21000004    2.03999996
   18.75666618  114.31600189    1.21000004    2.03999996
   18.76250076  114.31600189    1.21000004    2.03999996
   18.76666641  113.29399872    1.21000004    2.03999996
   18.76972198  111.76899719    1.21000004    2.03999996
   18.77305603  117.53800201    1.21000004    2.03999996
   18.77638817  112.84400177    1.21000004    2.03999996
   18.77944374  109.09100342    1.21000004    2.03999996
   18.78277779  106.36599731    1.21000004    2.03999996
   18.78499985  115.29699707    1.21000004    2.03999996
   18.78638840  114.02200317    1.21000004    2.03999996
   18.78972244  115.46199799    1.21000004    2.03999996
   18.79277802  113.20400238    1.21000004    2.03999996
   18.79611015  120.48999786    1.21000004    2.03999996
   18.79944420  113.11399841    1.21000004    2.03999996
   18.80527687  113.11399841    1.21000004    2.03999996
   18.80944443  111.35600281    1.21000004    2.03999996
   18.81277657  111.57299805    1.21000004    2.03999996
   18.81583214  110.77999878    1.21000004    2.03999996
   18.81833458  118.18099976    1.21000004    2.03999996
   18.81944466  111.17199707    1.21000004    2.03999996
   18.82277870  111.94699860    1.21000004    2.03999996
   18.82583427  115.25000000    1.21000004    2.03999996
   18.82916832  115.26999664    1.21000004    2.03999996
   18.83250046  114.51200104    1.21000004    2.03999996
   18.83555603  113.59400177    1.21000004    2.03999996
   18.83889008  116.36100006    1.21000004    2.03999996
   18.84222221  112.58000183    1.21000004    2.03999996
   18.84805679  112.58000183    1.21000004    2.03999996
   18.85222244  118.16400146    1.21000004    2.03999996
   18.85555649  117.76799774    1.21000004    2.03999996
   18.85861206  121.59899902    1.21000004    2.03999996
   18.86194420  113.12300110    1.21000004    2.03999996
   18.86527824  122.10600281    1.21000004    2.03999996
   18.86833382  113.69100189    1.21000004    2.03999996
   18.87166595  113.90200043    1.21000004    2.03999996
   18.87500000  117.26499939    1.21000004    2.03999996
   18.87805557  120.33100128    1.21000004    2.03999996
   18.88138962  125.49099731    1.21000004    2.03999996
   18.88472176  118.84700012    1.21000004    2.03999996
   18.88500023  125.04799652    1.21000004    2.03999996
   18.89111137  125.04799652    1.21000004    2.03999996
   18.89527702  117.01999664    1.21000004    2.03999996
   18.89833260  116.52400208    1.21000004    2.03999996
   18.90166664  122.76399994    1.21000004    2.03999996
   18.90499878  118.41500092    1.21000004    2.03999996
   18.90805435  122.51799774    1.21000004    2.03999996
   18.91138840  116.90399933    1.21000004    2.03999996
   18.91444397  125.33499908    1.21000004    2.03999996
   18.91777802  116.91400146    1.21000004    2.03999996
   18.91833305  115.39600372    1.21000004    2.03999996
   18.92138863  111.20899963    1.21000004    2.03999996
   18.92472076  116.46900177    1.21000004    2.03999996
   18.92777634  113.37200165    1.21000004    2.03999996
   18.93388748  113.37200165    1.21000004    2.03999996
   18.93805504  107.14299774    1.21000004    2.03999996
   18.94111061  109.73300171    1.21000004    2.03999996
   18.94444275  116.22699738    1.21000004    2.03999996
   18.94777679  114.67099762    1.21000004    2.03999996
   18.95111275  115.86799622    1.21000004    2.03999996
   18.95194435  115.86100006    1.21000004    2.03999996
   18.95499992  115.73400116    1.21000004    2.03999996
   18.95833397  112.66100311    1.21000004    2.03999996
   18.96138954  116.20500183    1.21000004    2.03999996
   18.96472359  119.01300049    1.21000004    2.03999996
   18.96805573  115.72799683    1.21000004    2.03999996
   18.97111130  112.97100067    1.21000004    2.03999996
   18.97666740  112.97100067    1.21000004    2.03999996
   18.98083305  117.76200104    1.21000004    2.03999996
   18.98416710  111.20500183    1.21000004    2.03999996
   18.98527718  112.68099976    1.21000004    2.03999996
   18.98777771  117.43800354    1.21000004    2.03999996
   18.99111176  115.14499664    1.21000004    2.03999996
   18.99444389  117.58000183    1.21000004    2.03999996
   18.99749947  110.76999664    1.21000004    2.03999996
   19.00083351  103.45800018    1.21000004    2.03999996
   19.00416756  109.66899872    1.21000004    2.03999996
   19.00722313  111.25800323    1.21000004    2.03999996
   19.01055527  112.97200012    1.21000004    2.03999996
   19.01361084  117.69000244    1.21000004    2.03999996
   19.01944351  117.69000244    1.21000004    2.03999996
   19.02361107  116.27400208    1.21000004    2.03999996
   19.02694511  111.73899841    1.21000004    2.03999996
   19.03000069  114.18699646    1.21000004    2.03999996
   19.03333282  110.72200012    1.21000004    2.03999996
   19.03666687  118.13600159    1.21000004    2.03999996
   19.03972244  124.85900116    1.21000004    2.03999996
   19.04305458  122.65000153    1.21000004    2.03999996
   19.04611015  112.90299988    1.21000004    2.03999996
   19.04944420  121.49400330    1.21000004    2.03999996
   19.05194283  116.50399780    1.21000004    2.03999996
   19.05305481  116.54499817    1.21000004    2.03999996
   19.05638885  112.74900055    1.21000004    2.03999996
   19.06250000  112.74900055    1.21000004    2.03999996
   19.06638718  117.40499878    1.21000004    2.03999996
   19.06972313  118.31099701    1.21000004    2.03999996
   19.07305717  120.13300323    1.21000004    2.03999996
   19.07611275  122.37799835    1.21000004    2.03999996
   19.07944489  118.71900177    1.21000004    2.03999996
   19.08277893  121.74700165    1.21000004    2.03999996
   19.08527756  118.44899750    1.21000004    2.03999996
   19.08611107  111.72200012    1.21000004    2.03999996
   19.08944511  109.83399963    1.21000004    2.03999996
   19.09277916  117.30100250    1.21000004    2.03999996
   19.09583473  114.67299652    1.21000004    2.03999996
   19.09916687  111.32800293    1.21000004    2.03999996
   19.10527802  111.32800293    1.21000004    2.03999996
   19.10944557  120.76799774    1.21000004    2.03999996
   19.11250114  109.24500275    1.21000004    2.03999996
   19.11583328  118.63600159    1.21000004    2.03999996
   19.11861038  112.97399902    1.21000004    2.03999996
   19.11944389  109.09600067    1.21000004    2.03999996
   19.12277794  124.67600250    1.21000004    2.03999996
   19.12611198  112.32099915    1.21000004    2.03999996
   19.12916756  116.08599854    1.21000004    2.03999996
   19.13249969  108.34899902    1.21000004    2.03999996
   19.13583374  116.64800262    1.21000004    2.03999996
   19.13888931  116.50299835    1.21000004    2.03999996
   19.14222145  124.18399811    1.21000004    2.03999996
   19.14805603  124.18399811    1.21000004    2.03999996
   19.15222168  119.48100281    1.21000004    2.03999996
   19.15555573  121.95400238    1.21000004    2.03999996
   19.15861130  129.11000061    1.21000004    2.03999996
   19.16194344  119.40000153    1.21000004    2.03999996
   19.16527748  128.48199463    1.21000004    2.03999996
   19.16833305  123.19100189    1.21000004    2.03999996
   19.17166519  124.10299683    1.21000004    2.03999996
   19.17472076  119.88999939    1.21000004    2.03999996
   19.17805481  120.20600128    1.21000004    2.03999996
   19.18138885  116.50599670    1.21000004    2.03999996
   19.18444443  119.55400085    1.21000004    2.03999996
   19.18527603  122.63700104    1.21000004    2.03999996
   19.19083214  122.63700104    1.21000004    2.03999996
   19.19499969  117.99199677    1.21000004    2.03999996
   19.19833183  116.29399872    1.21000004    2.03999996
   19.20138931  117.76999664    1.21000004    2.03999996
   19.20472336  123.63999939    1.21000004    2.03999996
   19.20805550  120.55799866    1.21000004    2.03999996
   19.21111107  113.33699799    1.21000004    2.03999996
   19.21444511  112.08000183    1.21000004    2.03999996
   19.21750069  114.78700256    1.21000004    2.03999996
   19.21861076  113.07900238    1.21000004    2.03999996
   19.22111130  111.83499908    1.21000004    2.03999996
   19.22444534  121.05000305    1.21000004    2.03999996
   19.22777748  118.03199768    1.21000004    2.03999996
   19.23388863  118.03199768    1.21000004    2.03999996
   19.23805618  123.12400055    1.21000004    2.03999996
   19.24111176  119.70600128    1.21000004    2.03999996
   19.24444389  112.03399658    1.21000004    2.03999996
   19.24749947  117.24800110    1.21000004    2.03999996
   19.25083351  116.68800354    1.21000004    2.03999996
   19.25194359  116.70899963    1.21000004    2.03999996
   19.25444412  108.86000061    1.21000004    2.03999996
   19.25777817  114.40200043    1.21000004    2.03999996
   19.26083374  115.26499939    1.21000004    2.03999996
   19.26416588  118.14099884    1.21000004    2.03999996
   19.26749992  112.69899750    1.21000004    2.03999996
   19.27055550  115.56700134    1.21000004    2.03999996
   19.27666664  115.56700134    1.21000004    2.03999996
   19.28083229  116.07800293    1.21000004    2.03999996
   19.28416634  112.28500366    1.21000004    2.03999996
   19.28527641  115.27200317    1.21000004    2.03999996
   19.28777695  109.93900299    1.21000004    2.03999996
   19.29083252  109.15100098    1.21000004    2.03999996
   19.29416656  116.89600372    1.21000004    2.03999996
   19.29749870  110.91699982    1.21000004    2.03999996
   19.30055428  111.97899628    1.21000004    2.03999996
   19.30388832  106.83899689    1.21000004    2.03999996
   19.30694389  112.55899811    1.21000004    2.03999996
   19.31027794  116.88400269    1.21000004    2.03999996
   19.31361008  113.12300110    1.21000004    2.03999996
   19.31944466  113.12300110    1.21000004    2.03999996
   19.32361221  108.79100037    1.21000004    2.03999996
   19.32694626  116.55100250    1.21000004    2.03999996
   19.33000183  113.66899872    1.21000004    2.03999996
   19.33333397  112.59300232    1.21000004    2.03999996
   19.33666801  116.07099915    1.21000004    2.03999996
   19.33972359  110.99700165    1.21000004    2.03999996
   19.34305573  112.66300201    1.21000004    2.03999996
   19.34638977  116.72200012    1.21000004    2.03999996
   19.34944534  112.27200317    1.21000004    2.03999996
   19.35194397  113.27500153    1.21000004    2.03999996
   19.35333443  113.81199646    1.21000004    2.03999996
   19.35639000  112.37500000    1.21000004    2.03999996
   19.36250114  112.37500000    1.21000004    2.03999996
   19.36638832   -1.00000000    1.21000004    2.03999996
   19.36972237   -1.00000000    1.21000004    2.03999996
   19.37305641  115.35299683    1.21000004    2.03999996
   19.37611198  115.90299988    1.21000004    2.03999996
   19.37944412  112.13700104    1.21000004    2.03999996
   19.38249969  117.93299866    1.21000004    2.03999996
   19.38527679  112.53099823    1.21000004    2.03999996
   19.38611031  111.45999908    1.21000004    2.03999996
   19.38944435  117.43299866    1.21000004    2.03999996
   19.39277840  114.72599792    1.21000004    2.03999996
   19.39583397  112.42400360    1.21000004    2.03999996
   19.39916611  117.90599823    1.21000004    2.03999996
   19.40527725  117.90599823    1.21000004    2.03999996
   19.40944481  114.81700134    1.21000004    2.03999996
   19.41250038  112.70700073    1.21000004    2.03999996
   19.41583252  112.15499878    1.21000004    2.03999996
   19.41860962  114.96499634    1.21000004    2.03999996
   19.41944313  114.88800049    1.21000004    2.03999996
   19.42277718  111.78900146    1.21000004    2.03999996
   19.42611122  110.72299957    1.21000004    2.03999996
   19.42916679  110.22499847    1.21000004    2.03999996
   19.43249893  126.16500092    1.21000004    2.03999996
   19.43583298  127.46499634    1.21000004    2.03999996
   19.43888855  116.50399780    1.21000004    2.03999996
   19.44222069  116.75099945    1.21000004    2.03999996
   19.44805527  116.75099945    1.21000004    2.03999996
   19.45222282  116.92400360    1.21000004    2.03999996
   19.45527840  124.14700317    1.21000004    2.03999996
   19.45861244  123.33799744    1.21000004    2.03999996
   19.46194458  119.13099670    1.21000004    2.03999996
   19.46500015  125.52999878    1.21000004    2.03999996
   19.46833420  117.75199890    1.21000004    2.03999996
   19.47166634  113.59999847    1.21000004    2.03999996
   19.47472191  124.06199646    1.21000004    2.03999996
   19.47805595  119.43499756    1.21000004    2.03999996
   19.48111153  121.99099731    1.21000004    2.03999996
   19.48444557  119.07399750    1.21000004    2.03999996
   19.48527718  118.60500336    1.21000004    2.03999996
   19.49083328  118.60500336    1.21000004    2.03999996
   19.49500084  116.31900024    1.21000004    2.03999996
   19.49833298  118.10199738    1.21000004    2.03999996
   19.50138855  116.52999878    1.21000004    2.03999996
   19.50472260  109.30599976    1.21000004    2.03999996
   19.50805473  112.36199951    1.21000004    2.03999996
   19.51111031  111.26799774    1.21000004    2.03999996
   19.51444435  117.49400330    1.21000004    2.03999996
   19.51749992  121.94499969    1.21000004    2.03999996
   19.51861000  113.06999969    1.21000004    2.03999996
   19.52111053  119.26599884    1.21000004    2.03999996
   19.52444458  118.39900208    1.21000004    2.03999996
   19.52777672  117.27100372    1.21000004    2.03999996
   19.53361130  117.27100372    1.21000004    2.03999996
   19.53777695  113.44400024    1.21000004    2.03999996
   19.54111099  115.98200226    1.21000004    2.03999996
   19.54444313  114.43499756    1.21000004    2.03999996
   19.54749870  118.33200073    1.21000004    2.03999996
   19.55083275  121.69300079    1.21000004    2.03999996
   19.55194283  114.56199646    1.21000004    2.03999996
   19.55416679  112.93299866    1.21000004    2.03999996
   19.55749893  114.95800018    1.21000004    2.03999996
   19.56083298  115.51899719    1.21000004    2.03999996
   19.56388855  120.58100128    1.21000004    2.03999996
   19.56722260  114.94499969    1.21000004    2.03999996
   19.57055664  116.02400208    1.21000004    2.03999996
   19.57666779  116.02400208    1.21000004    2.03999996
   19.58083344  120.08300018    1.21000004    2.03999996
   19.58388901  118.79799652    1.21000004    2.03999996
   19.58527756  121.14600372    1.21000004    2.03999996
   19.58777809  121.44699860    1.21000004    2.03999996
   19.59083366  120.53399658    1.21000004    2.03999996
   19.59416771  117.08899689    1.21000004    2.03999996
   19.59722328  120.07399750    1.21000004    2.03999996
   19.60055542  122.18000031    1.21000004    2.03999996
   19.60388947  127.18499756    1.21000004    2.03999996
   19.60694504  118.83000183    1.21000004    2.03999996
   19.61027908  122.24500275    1.21000004    2.03999996
   19.61361122  120.23600006    1.21000004    2.03999996
   19.61944389  120.23600006    1.21000004    2.03999996
   19.62361145  120.30799866    1.21000004    2.03999996
   19.62666702  115.94799805    1.21000004    2.03999996
   19.63000107  117.08499908    1.21000004    2.03999996
   19.63333321  115.65599823    1.21000004    2.03999996
   19.63638878  121.59899902    1.21000004    2.03999996
   19.63972282  108.04699707    1.21000004    2.03999996
   19.64305496  119.15100098    1.21000004    2.03999996
   19.64611053  115.91899872    1.21000004    2.03999996
   19.64944458  116.52400208    1.21000004    2.03999996
   19.65194321  116.57099915    1.21000004    2.03999996
   19.67249870  116.57099915    1.21000004    2.03999996
   19.67666626  109.91100311    1.21000004    2.03999996
   19.68000031  110.00399780    1.21000004    2.03999996
   19.68305397  111.51300049    1.21000004    2.03999996
   19.68527603  111.14900208    1.21000004    2.03999996
   19.68694305  109.87699890    1.21000004    2.03999996
   19.68999863  108.85600281    1.21000004    2.03999996
   19.69333267  108.45700073    1.21000004    2.03999996
   19.69666672  112.87000275    1.21000004    2.03999996
   19.69972038  115.63500214    1.21000004    2.03999996
   19.70305634  110.69300079    1.21000004    2.03999996
   19.70639038  111.14700317    1.21000004    2.03999996
   19.70972252  116.67600250    1.21000004    2.03999996
   19.71527863  116.67600250    1.21000004    2.03999996
   19.71944427  116.61499786    1.21000004    2.03999996
   19.72277832  114.58300018    1.21000004    2.03999996
   19.72583389  112.93599701    1.21000004    2.03999996
   19.72916794  112.62300110    1.21000004    2.03999996
   19.73250008  117.84999847    1.21000004    2.03999996
   19.73555565  117.08799744    1.21000004    2.03999996
   19.73888969  105.56500244    1.21000004    2.03999996
   19.74194527  110.50599670    1.21000004    2.03999996
   19.74527740  111.33599854    1.21000004    2.03999996
   19.74861145  108.16899872    1.21000004    2.03999996
   19.75166702  107.54199982    1.21000004    2.03999996
   19.75222206  116.60399628    1.21000004    2.03999996
   19.75805473  116.60399628    1.21000004    2.03999996
   19.76222229  109.83899689    1.21000004    2.03999996
   19.76555634  110.39800262    1.21000004    2.03999996
   19.76888847  115.69200134    1.21000004    2.03999996
   19.77194405  107.30400085    1.21000004    2.03999996
   19.77527809  111.87899780    1.21000004    2.03999996
   19.77861023  111.54900360    1.21000004    2.03999996
   19.78166580  104.95600128    1.21000004    2.03999996
   19.78499985  103.77300262    1.21000004    2.03999996
   19.78555489  102.07399750    1.21000004    2.03999996
   19.78861046   92.55989838    1.21000004    2.03999996
   19.79194450   90.56719971    1.21000004    2.03999996
   19.79500008   87.58599854    1.21000004    2.03999996
   19.80111122   87.58599854    1.21000004    2.03999996
   19.80527687  103.55000305    1.21000004    2.03999996
   19.80833244  117.47799683    1.21000004    2.03999996
   19.81166649  140.48199463    1.21000004    2.03999996
   19.81472206   85.34600067    1.21000004    2.03999996
   19.81805611   -1.00000000    1.21000004    2.03999996
   19.82139015   -1.00000000    1.21000004    2.03999996
   19.82472229   -1.00000000    1.21000004    2.03999996
   19.82805634   -1.00000000    1.21000004    2.03999996
   19.83111191   -1.00000000    1.21000004    2.03999996
   19.83444595   -1.00000000    1.21000004    2.03999996
   19.83750153   -1.00000000    1.21000004    2.03999996
   19.84777832   -1.00000000    1.21000004    2.03999996
   19.85111237   -1.00000000    1.21000004    2.03999996
   19.85472298   -1.00000000    1.21000004    2.03999996
   19.85777855   -1.00000000    1.21000004    2.03999996
   19.86111069   -1.00000000    1.21000004    2.03999996
   19.86444473   -1.00000000    1.21000004    2.03999996
   19.86750031   -1.00000000    1.21000004    2.03999996
   19.87083435   -1.00000000    1.21000004    2.03999996
   19.87388992   -1.00000000    1.21000004    2.03999996
   19.87722206   -1.00000000    1.21000004    2.03999996
   19.88027763   -1.00000000    1.21000004    2.03999996
   19.89083290   -1.00000000    1.21000004    2.03999996
   19.89388847   -1.00000000    1.21000004    2.03999996
   19.89722252   -1.00000000    1.21000004    2.03999996
   19.90027809   -1.00000000    1.21000004    2.03999996
   19.90361023   -1.00000000    1.21000004    2.03999996
   19.90694427   -1.00000000    1.21000004    2.03999996
   19.90999985   -1.00000000    1.21000004    2.03999996
   19.91333389   -1.00000000    1.21000004    2.03999996
   19.91666603   -1.00000000    1.21000004    2.03999996
   19.92027664   -1.00000000    1.21000004    2.03999996
   19.92361069   -1.00000000    1.21000004    2.03999996
   19.93361092   -1.00000000    1.21000004    2.03999996
   19.93694305   -1.00000000    1.21000004    2.03999996
   19.94027710   -1.00000000    1.21000004    2.03999996
   19.94333267   -1.00000000    1.21000004    2.03999996
   19.94666672   -1.00000000    1.21000004    2.03999996
   19.94972038   -1.00000000    1.21000004    2.03999996
   19.95333481   -1.00000000    1.21000004    2.03999996
   19.95639038   -1.00000000    1.21000004    2.03999996
   19.95972252   -1.00000000    1.21000004    2.03999996
   19.96305656   -1.00000000    1.21000004    2.03999996
   19.96611214   -1.00000000    1.21000004    2.03999996
   19.97666740   -1.00000000    1.21000004    2.03999996
   19.98000145   -1.00000000    1.21000004    2.03999996
   19.98333359   -1.00000000    1.21000004    2.03999996
   19.98694420   -1.00000000    1.21000004    2.03999996
   19.99027824   -1.00000000    1.21000004    2.03999996
   19.99333382   -1.00000000    1.21000004    2.03999996
   19.99666786   -1.00000000    1.21000004    2.03999996
   19.99972153   -1.00000000    1.21000004    2.03999996
   20.00305557   -1.00000000    1.21000004    2.03999996
   20.00638962   -1.00000000    1.21000004    2.03999996
   20.00972176   -1.00000000    1.21000004    2.03999996
   20.01972198   -1.00000000    1.21000004    2.03999996
   20.02305603   -1.00000000    1.21000004    2.03999996
   20.02611160   -1.00000000    1.21000004    2.03999996
   20.02944374   -1.00000000    1.21000004    2.03999996
   20.03277779   -1.00000000    1.21000004    2.03999996
   20.03610992   -1.00000000    1.21000004    2.03999996
   20.03916550   -1.00000000    1.21000004    2.03999996
   20.04249954   -1.00000000    1.21000004    2.03999996
   20.04555511   -1.00000000    1.21000004    2.03999996
   20.04888916   -1.00000000    1.21000004    2.03999996
   20.05222130   -1.00000000    1.21000004    2.03999996
   20.06222153   -1.00000000    1.21000004    2.03999996
   20.06555557   -1.00000000    1.21000004    2.03999996
   20.06888962   -1.00000000    1.21000004    2.03999996
   20.07194519   -1.00000000    1.21000004    2.03999996
   20.07527924   -1.00000000    1.21000004    2.03999996
   20.07861137   -1.00000000    1.21000004    2.03999996
   20.08194542   -1.00000000    1.21000004    2.03999996
   20.08500099   -1.00000000    1.21000004    2.03999996
   20.08861160   -1.00000000    1.21000004    2.03999996
   20.09166718   -1.00000000    1.21000004    2.03999996
   20.09500122   -1.00000000    1.21000004    2.03999996
   20.10499954   -1.00000000    1.21000004    2.03999996
   20.10833359   -1.00000000    1.21000004    2.03999996
   20.11166763   -1.00000000    1.21000004    2.03999996
   20.11472321   -1.00000000    1.21000004    2.03999996
   20.11805534   -1.00000000    1.21000004    2.03999996
   20.12166595   -1.00000000    1.21000004    2.03999996
   20.12472153   -1.00000000    1.21000004    2.03999996
   20.12805557   -1.00000000    1.21000004    2.03999996
   20.13138962   -1.00000000    1.21000004    2.03999996
   20.13444519   -1.00000000    1.21000004    2.03999996
   20.13777733   -1.00000000    1.21000004    2.03999996
   20.14805603   -1.00000000    1.21000004    2.03999996
   20.15111160   -1.00000000    1.21000004    2.03999996
   20.15472221   -1.00000000    1.21000004    2.03999996
   20.15777779   -1.00000000    1.21000004    2.03999996
   20.16110992   -1.00000000    1.21000004    2.03999996
   20.16444397   -1.00000000    1.21000004    2.03999996
   20.16749954   -1.00000000    1.21000004    2.03999996
   20.17083359   -1.00000000    1.21000004    2.03999996
   20.17416573   -1.00000000    1.21000004    2.03999996
   20.17722130   -1.00000000    1.21000004    2.03999996
   20.18055534   -1.00000000    1.21000004    2.03999996
   20.19083214   -1.00000000    1.21000004    2.03999996
   20.19416618   -1.00000000    1.21000004    2.03999996
   20.19722176   -1.00000000    1.21000004    2.03999996
   20.20055580   -1.00000000    1.21000004    2.03999996
   20.20388985   -1.00000000    1.21000004    2.03999996
