    HOUR (UT)   FLARE FACTOR    SKY TESTER    SUN TESTER
   10.91277695   -1.00000000   -1.00000000   -1.00000000
   10.93305588   55.80189896    0.00000000    0.00000000
   10.93805599   56.21139908    0.00000000    0.00000000
   11.65444374   70.42440033    1.26999998    2.26999998
   11.65749931   70.94190216    1.26999998    2.28999996
   12.16805553  173.23699951    4.90999985    2.34999990
   12.17138958  179.49499512    4.90999985    2.34999990
   12.17444515  220.68499756    4.90999985    2.32999992
   12.17777824  241.28999329    4.90999985    2.26999998
   12.18083382  358.11898804    4.90999985    2.17000008
   12.18305588  291.57901001    4.90999985    2.07999992
   12.18416691  221.42300415    4.90999985    2.03999996
   12.18444443  179.49499512    4.90999985    2.34999990
   12.18444443  220.68499756    4.90999985    2.32999992
   12.18444443  241.28999329    4.90999985    2.26999998
   12.18472195  358.11898804    4.90999985    2.17000008
   12.18888855  358.11898804    4.90999985    2.05999994
   12.19305515  285.77200317    4.90999985    2.03999996
   12.19638920  339.27899170    4.90999985    2.00000000
   12.19833374  376.67999268    4.90999985    1.96000004
   12.19944477  187.64700317    4.90999985    1.96000004
   12.19972229  285.77200317    4.90999985    2.03999996
   12.19972229  339.27899170    4.90999985    2.00000000
   12.20055580  121.61699677    4.90999985    2.00000000
   12.20388889  158.96099854    4.90999985    2.07999992
   12.20694447  188.08799744    4.90999985    2.17000008
   12.21027756  165.33599854    4.90999985    2.17000008
   12.21361065  209.05000305    4.90999985    2.17000008
   12.22027779  209.05000305    4.90999985    2.05999994
   12.22444439  148.78999329    4.90999985    2.03999996
   12.22777748  173.62899780    4.90999985    2.11999989
   12.23111057  140.93800354    4.90999985    2.21000004
   12.23333359  155.70199585    4.90999985    2.26999998
   12.23472214  162.49200439    4.90999985    2.26999998
   12.23805618  173.92100525    4.90999985    2.32999992
   12.24111176  169.23500061    4.90999985    2.30999994
   12.24444485  200.24600220    4.90999985    2.21000004
   12.24777794  155.18400574    4.90999985    2.17000008
   12.25083351  161.33000183    4.90999985    2.23000002
   12.25416660  152.49400330    4.90999985    2.28999996
   12.25722218  144.67999268    4.90999985    2.36999989
   12.26333332  144.67999268    4.90999985    2.42000008
   12.26749992  166.23800659    4.90999985    2.36999989
   12.27055550  162.36199951    4.90999985    2.32999992
   12.27388859  160.56399536    4.90999985    2.32999992
   12.27694416  168.32800293    4.90999985    2.32999992
   12.28027725  197.36900330    4.90999985    2.26999998
   12.28361130  174.13099670    4.90999985    2.21000004
   12.28666687  192.11700439    4.90999985    2.17000008
   12.29000092  227.83999634    4.90999985    2.11999989
   12.29333401  171.46000671    4.90999985    2.07999992
   12.29638958  190.33099365    4.90999985    2.11999989
   12.29972267  194.25000000    4.90999985    2.11999989
   12.30027771  202.48199463    4.90999985    2.09999990
   12.30611134  202.48199463    4.90999985    2.17000008
   12.31027794  182.08799744    4.90999985    2.25000000
   12.31333351  152.15100098    4.90999985    2.26999998
   12.31666660  171.59599304    4.90999985    2.30999994
   12.31999969  164.56900024    4.90999985    2.34999990
   12.32305527  181.26400757    4.90999985    2.36999989
   12.32638836  180.11999512    4.90999985    2.32999992
   12.32972240  153.80999756    4.90999985    2.30999994
   12.33277798  163.01899719    4.90999985    2.32999992
   12.33361053  158.34500122    4.90999985    2.32999992
   12.33666611  167.62300110    4.90999985    2.34999990
   12.33972168  161.38800049    4.90999985    2.34999990
   12.34305477  150.12899780    4.90999985    2.36999989
   12.34888840  150.12899780    4.90999985    2.32999992
   12.35305595  162.43200684    4.90999985    2.32999992
   12.35638905  163.41099548    4.90999985    2.39000010
   12.35944462  190.50700378    4.90999985    2.36999989
   12.36277771  153.99600220    4.90999985    2.32999992
   12.36611176  162.16099548    4.90999985    2.34999990
   12.36694431  177.67999268    4.90999985    2.34999990
   12.36972237  160.96800232    4.90999985    2.36999989
   12.37277794  171.24899292    4.90999985    2.36999989
   12.37611103  183.32099915    4.90999985    2.34999990
   12.37916660  175.77799988    4.90999985    2.32999992
   12.38249969  185.07099915    4.90999985    2.28999996
   12.38583279  182.79400635    4.90999985    2.28999996
   12.39166641  182.79400635    4.90999985    2.25000000
   12.39583302  217.38800049    4.90999985    2.21000004
   12.39916611  188.68699646    4.90999985    2.19000006
   12.40027714  209.29200745    4.90999985    2.17000008
   12.40277767  177.00599670    4.90999985    2.21000004
   12.40583324  194.45700073    4.90999985    2.25000000
   12.40916634  142.94000244    4.90999985    2.26999998
   12.41222191  182.36399841    4.90999985    2.36999989
   12.41555500  174.49400330    4.90999985    2.39000010
   12.41888905  182.97799683    4.90999985    2.40000010
   12.42194462  193.70799255    4.90999985    2.32999992
   12.42527771  200.27400208    4.90999985    2.26999998
   12.42861176  190.21899414    4.90999985    2.26999998
   12.43472195  190.21899414    4.90999985    2.19000006
   12.43888855  204.14300537    4.90999985    2.15000010
   12.44194412  178.78399658    4.90999985    2.13000011
   12.44527817  292.99099731    4.90999985    2.09999990
   12.44833374  224.19900513    4.90999985    2.07999992
   12.45166683  183.12100220    4.90999985    2.13000011
   12.45499992  175.12399292    4.90999985    2.25000000
   12.45833302  184.01699829    4.90999985    2.34999990
   12.46138859  176.03999329    4.90999985    2.26999998
   12.46472168  178.26499939    4.90999985    2.26999998
   12.46694374  168.33399963    4.90999985    2.30999994
   12.46833324  165.48899841    4.90999985    2.32999992
   12.47138882  170.14500427    4.90999985    2.32999992
   12.47749996  170.14500427    4.90999985    2.32999992
   12.48166656  186.70199585    4.90999985    2.32999992
   12.48472214  199.92599487    4.90999985    2.28999996
   12.48805618  227.82000732    4.90999985    2.23000002
   12.49138927  229.95300293    4.90999985    2.21000004
   12.49444485  189.16900635    4.90999985    2.25000000
   12.49777794  242.23300171    4.90999985    2.26999998
   12.50027752  244.44099426    4.90999985    2.23000002
   12.50138855  265.26300049    4.90999985    2.19000006
   12.50444412  291.30801392    4.90999985    2.11999989
   12.50777817  261.25799561    4.90999985    2.05999994
   12.51083374  277.13500977    4.90999985    2.03999996
   12.51416683  203.27999878    4.90999985    2.07999992
   12.52027798  203.27999878    4.90999985    2.32999992
   12.52444458  190.29200745    4.90999985    2.48000002
   12.52777767  171.34199524    4.90999985    2.50000000
   12.53083324  162.21400452    4.90999985    2.51999998
   12.53361130  162.90699768    4.90999985    2.51999998
   12.53472233  170.50300598    4.90999985    2.53999996
   12.53777790  153.47799683    4.90999985    2.51999998
   12.54111195  154.94099426    4.90999985    2.51999998
   12.54416752  167.88200378    4.90999985    2.51999998
   12.54750061  157.60099792    4.23999977    2.53999996
   12.55083370  166.05799866    3.53999996    2.55999994
   12.55388927  177.42599487    3.09999990    2.55999994
   12.55722237  161.39700317    2.86999989    2.53999996
   12.56305599  161.39700317    2.48000002    2.53999996
   12.56722260  162.59599304    2.19000006    2.55999994
   12.57055569  186.17300415    2.05999994    2.55999994
   12.57388878  167.84300232    1.55999994    2.53999996
   12.57694435  193.02699280    1.48000002    2.53999996
   12.58027744  189.35299683    1.46000004    2.53999996
   12.58333302  172.44000244    1.41999996    2.53999996
   12.58666611  174.18899536    1.39999998    2.53999996
   12.59000015  164.56700134    1.30999994    2.51999998
   12.59305477  157.96000671    1.26999998    2.53999996
   12.59638882  174.99299622    1.21000004    2.55999994
   12.59972191  192.49299622    1.16999996    2.55999994
   12.60027790  170.32299805    1.11000001    2.55999994
   12.60611153  170.32299805    1.07000005    2.55999994
   12.61027813  169.64199829    0.98000002    2.55999994
   12.61333370  169.54200745    0.94000000    2.55999994
   12.61666679  160.00700378    0.89999998    2.55999994
   12.61972237  167.34899902    0.88000000    2.55999994
   12.62305546  175.66900635    0.86000001    2.55999994
   12.62638855  156.99099731    0.86000001    2.55999994
   12.62944412  153.73399353    0.86000001    2.55999994
   12.63277817  152.08999634    0.86000001    2.55999994
   12.63361073  160.28799438    0.86000001    2.55999994
   12.63638878  158.41099548    0.86000001    2.55999994
   12.63944435  148.67199707    0.83999997    2.55999994
   12.64277744  171.31599426    0.83999997    2.55999994
   12.64888859  171.31599426    0.83999997    2.55999994
   12.65305519  159.38699341    0.81999999    2.55999994
   12.65611076  149.69700623    0.81999999    2.57999992
   12.65944386  149.77699280    0.83999997    2.55999994
   12.66277695  155.66099548    0.83999997    2.57999992
   12.66583252  158.50000000    0.83999997    2.57999992
   12.66694450  157.50300598    0.83999997    2.55999994
   12.66972256  152.50700378    0.83999997    2.57999992
   12.67277813  166.44200134    0.81999999    2.55999994
   12.67611122  157.68800354    0.86000001    2.57999992
   12.67944431  174.21600342    0.81999999    2.57999992
   12.68249989  151.14399719    0.81999999    2.55999994
   12.68583298  152.83500671    0.81999999    2.55999994
   12.69166660  152.83500671    0.81999999    2.57999992
   12.69583321  159.09800720    0.81999999    2.55999994
   12.69916630  158.81399536    0.88000000    2.55999994
   12.70027733  167.60800171    0.88000000    2.55999994
   12.70277786  159.42100525    0.88000000    2.57999992
   12.70583344  171.91600037    0.88000000    2.57999992
   12.70916653  173.43099976    0.88000000    2.55999994
   12.71249962  164.09599304    0.86000001    2.57999992
   12.71555519  154.01499939    0.86000001    2.57999992
   12.71888828  155.56399536    0.83999997    2.57999992
   12.72194386  157.01499939    0.86000001    2.55999994
   12.72527695  148.35800171    0.83999997    2.57999992
   12.72861099  163.41600037    0.83999997    2.59999990
   12.73444462  163.41600037    0.86000001    2.55999994
   12.73861122  143.46499634    0.86000001    2.57999992
   12.74222279  155.36300659    0.86000001    2.55999994
   12.74555588  166.33299255    0.86000001    2.57999992
   12.74861145  156.49899292    0.88000000    2.57999992
   12.75194454  162.95199585    0.86000001    2.55999994
   12.75527763  154.30200195    0.88000000    2.57999992
   12.75833321  150.58000183    0.86000001    2.57999992
   12.76166630  155.41499329    0.86000001    2.55999994
   12.76472187  151.76699829    0.88000000    2.57999992
   12.76694393  150.64700317    0.88000000    2.57999992
   12.76861095  154.45399475    0.88000000    2.57999992
   12.77166653  147.54400635    0.88000000    2.57999992
   12.77750015  147.54400635    0.88000000    2.57999992
   12.78166676  148.05799866    0.88000000    2.57999992
   12.78472233  161.81799316    0.88000000    2.57999992
   12.78805637  158.00300598    0.88000000    2.57999992
   12.79111195  153.64900208    0.89999998    2.57999992
   12.79444504  156.55900574    0.89999998    2.57999992
   12.79777813  145.94500732    0.89999998    2.57999992
   12.80027771  148.14700317    0.89999998    2.57999992
   12.80138874  154.65800476    0.89999998    2.57999992
   12.80444431  163.70700073    0.88000000    2.59999990
   12.80777836  139.36000061    0.86000001    2.57999992
   12.81111145  148.17300415    0.86000001    2.57999992
   12.81416702  147.22500610    0.83999997    2.57999992
   12.82027817  147.22500610    0.81999999    2.57999992
   12.82444477  146.00500488    0.80000001    2.57999992
   12.82750034  147.39700317    0.80000001    2.57999992
   12.83083344  152.61900330    0.80000001    2.59999990
   12.83361053  159.81300354    0.80000001    2.59999990
   12.83444405  149.66499329    0.80000001    2.57999992
   12.83749962  159.35800171    0.80000001    2.57999992
   12.84083271  159.58700562    0.81999999    2.57999992
   12.84416676  158.53599548    0.81999999    2.57999992
   12.84722233  161.06799316    0.81999999    2.59999990
   12.85055637  161.45399475    0.80000001    2.59999990
   12.85388947  161.45500183    0.81999999    2.57999992
   12.85694504  169.12800598    0.80000001    2.57999992
   12.86305618  169.12800598    0.81999999    2.57999992
   12.86722279  166.89199829    0.81999999    2.59999990
   12.87055588  163.90199280    0.81999999    2.59999990
   12.87361145  153.42599487    0.81999999    2.59999990
   12.87694454  161.94200134    0.81999999    2.59999990
   12.88027763  164.34300232    0.81999999    2.59999990
   12.88333321  163.89999390    0.81999999    2.57999992
   12.88666630  162.20899963    0.81999999    2.59999990
   12.88972187  160.98100281    0.83999997    2.57999992
   12.89305496  154.19599915    0.83999997    2.59999990
   12.89638901  162.85499573    0.83999997    2.59999990
   12.89944458  166.34399414    0.83999997    2.59999990
   12.90027714  156.83500671    0.83999997    2.59999990
   12.90583324  156.83500671    0.89999998    2.59999990
   12.90999985  156.22799683    0.89999998    2.59999990
   12.91333294  152.56300354    0.89999998    2.59999990
   12.91666698  159.11500549    0.89999998    2.59999990
   12.91972256  154.79400635    0.89999998    2.59999990
   12.92305565  166.52000427    0.88000000    2.59999990
   12.92611122  160.55599976    0.86000001    2.59999990
   12.92944431  178.44999695    0.86000001    2.61999989
   12.93277836  162.48699951    0.81999999    2.57999992
   12.93361092  149.47300720    0.83999997    2.59999990
   12.93638897  141.03999329    0.81999999    2.61999989
   12.93944454  142.51699829    0.81999999    2.57999992
   12.94277763  157.23100281    0.81999999    2.61999989
   12.94888878  157.23100281    0.81999999    2.61999989
   12.95305538  156.78399658    0.86000001    2.59999990
   12.95611095  154.39300537    0.86000001    2.59999990
   12.95944405  152.17599487    0.88000000    2.61999989
   12.96249962  148.62500000    0.94000000    2.59999990
   12.96583271  157.90400696    0.89999998    2.59999990
   12.96694374  165.21200562    0.89999998    2.59999990
   12.96944427  138.83500671    0.89999998    2.59999990
   12.97249985  157.79600525    0.89999998    2.61999989
   12.97583294  156.72000122    0.89999998    2.61999989
   12.97916603  163.37899780    0.86000001    2.59999990
   12.98222160  151.70300293    0.86000001    2.61999989
   12.98555565  153.42700195    0.83999997    2.61999989
   12.99166679  153.42700195    0.83999997    2.61999989
   12.99583340  161.63099670    0.86000001    2.61999989
   12.99888897  149.43600464    0.83999997    2.61999989
   13.00027752  155.20799255    0.83999997    2.61999989
   13.00277805  147.06100464    0.83999997    2.61999989
   13.00583363  159.01899719    0.83999997    2.61999989
   13.00916672  154.44400024    0.83999997    2.64000010
   13.01249981  147.65899658    0.81999999    2.61999989
   13.01555538  145.60800171    0.81999999    2.61999989
   13.01888847  145.03500366    0.81999999    2.61999989
   13.02222157  144.44099426    0.81999999    2.64000010
   13.02527714  153.07000732    0.81999999    2.64000010
   13.02861118  148.65499878    0.81999999    2.64000010
   13.03444481  148.65499878    0.81999999    2.61999989
   13.03861141  162.77499390    0.81999999    2.64000010
   13.04194450  149.23699951    0.81999999    2.61999989
   13.04500008  153.62699890    0.80000001    2.61999989
   13.04833412  154.05299377    0.80000001    2.61999989
   13.05166721  144.81100464    0.80000001    2.61999989
   13.05472279  151.57000732    0.80000001    2.61999989
   13.05805588  147.62800598    0.80000001    2.61999989
   13.06111145  153.60800171    0.80000001    2.64000010
   13.06444454  152.33200073    0.80000001    2.59999990
   13.06694412  147.25999451    0.81999999    2.61999989
   13.06805515  145.63200378    0.81999999    2.61999989
   13.07138920  142.71000671    0.80000001    2.64000010
   13.07722187  142.71000671    0.80000001    2.64000010
   13.08138847  149.49600220    0.81999999    2.64000010
   13.08472157  154.23500061    0.80000001    2.64000010
   13.08777714  161.53399658    0.80000001    2.64000010
   13.09111118  135.07800293    0.80000001    2.64000010
   13.09444427  144.43499756    0.80000001    2.61999989
   13.09749985  141.50300598    0.80000001    2.64000010
   13.10027790  153.07099915    0.80000001    2.64000010
   13.10138893  145.91900635    0.80000001    2.64000010
   13.10444450  142.21099854    0.80000001    2.64000010
   13.10777855  154.92999268    0.80000001    2.64000010
   13.11111164  152.04699707    0.80000001    2.64000010
   13.11416721  150.88000488    0.80000001    2.61999989
   13.12027836  150.88000488    0.80000001    2.61999989
   13.12416649  141.76699829    0.79000002    2.64000010
   13.12750053  138.88900757    0.79000002    2.64000010
   13.13083363  147.31100464    0.79000002    2.64000010
   13.13361073  144.89799500    0.79000002    2.64000010
   13.13444424  138.69700623    0.79000002    2.64000010
   13.13749981  149.44000244    0.79000002    2.64000010
   13.14083290  146.19700623    0.76999998    2.64000010
   13.14416695  144.04800415    0.76999998    2.64000010
   13.14722252  143.83500671    0.76999998    2.64000010
   13.15055561  139.83200073    0.76999998    2.64000010
   13.15388870  147.30299377    0.76999998    2.66000009
   13.15694427  145.04100037    0.76999998    2.64000010
   13.16305542  145.04100037    0.76999998    2.64000010
   13.16722298  148.41999817    0.76999998    2.64000010
   13.18666649  155.29299927    0.79000002    2.64000010
   13.19000053  150.03999329    0.79000002    2.64000010
   13.19333363  141.45700073    0.76999998    2.64000010
   13.19638920  147.79699707    0.76999998    2.64000010
   13.19972229  139.51699829    0.76999998    2.66000009
   13.20027733  140.72700500    0.76999998    2.66000009
   13.20611095  140.72700500    0.76999998    2.61999989
   13.21027756  145.00999451    0.76999998    2.64000010
   13.21333313  156.46699524    0.76999998    2.64000010
   13.21666622  154.57200623    0.75000000    2.64000010
   13.21999931  143.86399841    0.75000000    2.66000009
   13.22305489  149.89799500    0.75000000    2.66000009
   13.22638798  146.66999817    0.73000002    2.64000010
   13.22944355  138.58099365    0.73000002    2.66000009
   13.23277760  148.26499939    0.73000002    2.66000009
   13.23361111  153.36199951    0.73000002    2.66000009
   13.23638916  150.93600464    0.73000002    2.66000009
   13.23972225  137.77999878    0.70999998    2.66000009
   13.24277782  153.22500610    0.70999998    2.66000009
   13.24888897  153.22500610    0.70999998    2.67000008
   13.25305557  139.82499695    0.70999998    2.64000010
   13.25638866  153.59199524    0.70999998    2.66000009
   13.25944424  154.61999512    0.70999998    2.66000009
   13.26277733  153.64999390    0.69000000    2.66000009
   13.26611137  155.96699524    0.70999998    2.66000009
   13.26694393  156.38699341    0.69000000    2.66000009
   13.26972198  153.71600342    0.69000000    2.66000009
   13.27305508  142.38000488    0.70999998    2.66000009
   13.27611065  149.39100647    0.69000000    2.66000009
   13.27944374  152.46200562    0.70999998    2.67000008
   13.28277779  139.57200623    0.70999998    2.67000008
   13.28583336  151.44700623    0.70999998    2.66000009
   13.29166698  151.44700623    0.70999998    2.66000009
   13.29583359  154.54699707    0.70999998    2.66000009
   13.29916668  150.42799377    0.70999998    2.66000009
   13.30027771  155.45100403    0.70999998    2.66000009
   13.30277824  151.37600708    0.70999998    2.66000009
   13.30694485  155.44700623    0.73000002    2.66000009
   13.31083393  146.07699585    0.70999998    2.66000009
   13.31416702  155.03100586    0.70999998    2.66000009
   13.31722260  161.55400085    0.70999998    2.66000009
   13.32055569  160.27999878    0.73000002    2.67000008
   13.32388878  160.61099243    0.70999998    2.66000009
   13.32694435  154.25900269    0.70999998    2.66000009
   13.33027744  140.58700562    0.70999998    2.67000008
   13.33472157  140.58700562    0.70999998    2.67000008
   13.33888817  152.40100098    0.70999998    2.66000009
   13.44777775   -1.00000000   -1.00000000   -1.00000000
   13.54444504   -1.00000000   -1.00000000   -1.00000000
   13.64416695   -1.00000000   -1.00000000   -1.00000000
   13.74666691   -1.00000000   -1.00000000   -1.00000000
   13.84861088   -1.00000000   -1.00000000   -1.00000000
   13.94833374   -1.00000000   -1.00000000   -1.00000000
   14.04500008   -1.00000000   -1.00000000   -1.00000000
   14.14194393   -1.00000000   -1.00000000   -1.00000000
   14.24250031   -1.00000000   -1.00000000   -1.00000000
   14.27305508   78.84059906    0.61000001    2.73000002
   14.27638817  125.62999725    0.63000000    2.73000002
   14.27972221  138.58299255    0.61000001    2.75000000
   14.28277779  129.08999634    0.61000001    2.75000000
   14.28611183  121.97399902    0.61000001    2.73000002
   14.28944492  125.16600037    0.61000001    2.73000002
   14.29333401  125.16600037    0.63000000    2.73000002
   14.29750061  120.65499878    0.63000000    2.73000002
   14.30083370  130.84399414    0.63000000    2.75000000
   14.30416679  136.56199646    0.61000001    2.73000002
   14.30638885  135.68800354    0.63000000    2.73000002
   14.30777836  135.55700684    0.63000000    2.73000002
   14.31111145  132.05499268    0.63000000    2.73000002
   14.31416702  134.13600159    0.63000000    2.73000002
   14.31750011  128.53500366    0.63000000    2.75000000
   14.32055569  129.42300415    0.63000000    2.73000002
   14.32388878  121.44400024    0.61000001    2.75000000
   14.32722187  125.27799988    0.61000001    2.73000002
   14.33027744  130.96600342    0.63000000    2.73000002
   14.33638859  130.96600342    0.63000000    2.73000002
   14.34055519  131.50000000    0.61000001    2.73000002
   14.34361076  119.75399780    0.61000001    2.73000002
   14.34694386  128.97700500    0.61000001    2.71000004
   14.35000038  131.48699951    0.63000000    2.75000000
   14.35333347  121.33399963    0.63000000    2.75000000
   14.35666752  123.92199707    0.64999998    2.73000002
   14.36000061  122.28700256    0.64999998    2.75000000
   14.36305618  129.15199280    0.63000000    2.75000000
   14.36638927  130.56900024    0.64999998    2.73000002
   14.36972237  136.96200562    0.61000001    2.73000002
   14.37277794  127.23699951    0.63000000    2.73000002
   14.37333393  223.24800110    0.63000000    2.75000000
   14.37916660  223.24800110    0.64999998    2.73000002
   14.38361073  122.91899872    0.67000002    2.73000002
   14.38666630  129.97999573    0.69000000    2.75000000
   14.39000034  129.59300232    0.70999998    2.73000002
   14.39333344  127.55500031    0.69000000    2.75000000
   14.39638901  128.57000732    0.73000002    2.73000002
   14.39972210  125.98000336    0.73000002    2.73000002
   14.40277767  129.52600098    0.75000000    2.73000002
   14.40611076  129.30700684    0.76999998    2.75000000
   14.40666676  123.88800049    0.75000000    2.75000000
   14.40972137  119.47899628    0.73000002    2.75000000
   14.41277695  125.80200195    0.70999998    2.73000002
   14.41611099  130.49000549    0.70999998    2.73000002
   14.42194462  130.49000549    0.70999998    2.73000002
   14.42611122  121.55599976    0.69000000    2.73000002
   14.42944431  126.80200195    0.69000000    2.73000002
   14.43249989  123.96499634    0.67000002    2.73000002
   14.43583298  127.24600220    0.67000002    2.73000002
   14.43916702  125.77200317    0.67000002    2.73000002
   14.44000053  127.61699677    0.67000002    2.73000002
   14.44277763  132.10800171    0.63000000    2.73000002
   14.44583321  125.61100006    0.63000000    2.73000002
   14.44916630  123.06999969    0.63000000    2.73000002
   14.45249939  128.72599792    0.63000000    2.75000000
   14.45555496  125.96700287    0.63000000    2.75000000
   14.45888901  129.33700562    0.64999998    2.75000000
   14.46472168  129.33700562    0.63000000    2.75000000
   14.46888828  126.48400116    0.63000000    2.73000002
   14.47222137  122.87599945    0.63000000    2.75000000
   14.47333336  124.30899811    0.63000000    2.75000000
   14.47611046  122.09500122    0.63000000    2.75000000
   14.47916603  124.78299713    0.63000000    2.73000002
   14.48249912  132.86599731    0.61000001    2.73000002
   14.48583317  119.41899872    0.61000001    2.73000002
   14.48888874  122.29799652    0.61000001    2.75000000
   14.49222279  135.46299744    0.61000001    2.75000000
   14.49527836  126.82099915    0.61000001    2.75000000
   14.49861145  125.46299744    0.58999997    2.73000002
   14.50194454  125.90699768    0.58999997    2.75000000
   14.50777817  125.90699768    0.56999999    2.75000000
   14.51194477  130.49499512    0.56999999    2.73000002
   14.51500034  125.40599823    0.55000001    2.75000000
   14.51833344  124.82399750    0.55000001    2.73000002
   14.52138901  129.36399841    0.55000001    2.76999998
   14.52472210  130.70199585    0.55000001    2.75000000
   14.52805519  129.05900574    0.55000001    2.75000000
   14.53111076  124.66699982    0.56999999    2.75000000
   14.53444481  124.87500000    0.56999999    2.75000000
   14.53777790  119.90100098    0.56999999    2.75000000
   14.54000092  126.69899750    0.56999999    2.75000000
   14.54138947  130.17999268    0.56999999    2.75000000
   14.54444504  128.27999878    0.58999997    2.75000000
   14.55055618  128.27999878    0.56999999    2.75000000
   14.55472279  124.45800018    0.55000001    2.75000000
   14.55777836  126.27799988    0.55000001    2.75000000
   14.56111145  128.75599670    0.52999997    2.75000000
   14.56444454  127.88200378    0.52999997    2.75000000
   14.56750011  125.99800110    0.52999997    2.75000000
   14.57083321  129.02000427    0.55000001    2.75000000
   14.57333374  128.36900330    0.52999997    2.75000000
   14.57444477  122.53700256    0.55000001    2.75000000
   14.57750034  123.95400238    0.55000001    2.75000000
   14.58083344  131.34399414    0.55000001    2.73000002
   14.58416653  128.09599304    0.55000001    2.75000000
   14.58722210  126.12599945    0.55000001    2.75000000
   14.59333324  126.12599945    0.52999997    2.75000000
   14.59749985  123.90299988    0.52999997    2.75000000
   14.60083389  131.55099487    0.52999997    2.75000000
   14.60388947  124.38899994    0.52999997    2.75000000
   14.60666752  124.61199951    0.52999997    2.75000000
   14.60777855  123.68499756    0.52999997    2.75000000
   14.61083412  128.68299866    0.52999997    2.75000000
   14.61416721  126.16400146    0.52999997    2.75000000
   14.61750031  131.64399719    0.55000001    2.75000000
   14.62055588  127.91200256    0.55000001    2.75000000
   14.62388897  124.74299622    0.52999997    2.75000000
   14.62722206  128.36599731    0.52999997    2.76999998
   14.63027763  130.36799622    0.52999997    2.75000000
   14.63611126  130.36799622    0.51999998    2.75000000
   14.64027786  128.89700317    0.52999997    2.75000000
   14.64361095  143.45300293    0.51999998    2.75000000
   14.64694405  136.52600098    0.51999998    2.75000000
   14.64999962  132.80200195    0.51999998    2.76999998
   14.65333271  128.66099548    0.51999998    2.75000000
   14.65638828  128.97599792    0.51999998    2.75000000
   14.65972137  130.31399536    0.51999998    2.75000000
   14.66305542  126.07900238    0.51999998    2.75000000
   14.66611099  130.57499695    0.51999998    2.73000002
   14.66944504  128.32499695    0.51999998    2.75000000
   14.67277813  127.46800232    0.51999998    2.75000000
   14.67333412  127.99500275    0.51999998    2.75000000
   14.67916679  127.99500275    0.51999998    2.75000000
   14.68305588  123.43000031    0.51999998    2.75000000
   14.68638897  125.66600037    0.51999998    2.76999998
   14.68972206  126.83999634    0.51999998    2.76999998
   14.69277763  127.61199951    0.50000000    2.75000000
   14.69611073  127.05699921    0.50000000    2.75000000
   14.69944477  130.53399658    0.50000000    2.76999998
   14.70249939  120.38999939    0.50000000    2.76999998
   14.70583344  117.94499969    0.50000000    2.76999998
   14.70666695  119.71099854    0.50000000    2.76999998
   14.70944405  123.80799866    0.50000000    2.75000000
   14.71249962  128.15600586    0.47999999    2.75000000
   14.71583271  128.25500488    0.47999999    2.76999998
   14.72194386  128.25500488    0.47999999    2.75000000
   14.72611046  125.13700104    0.47999999    2.76999998
   14.72916603  126.87599945    0.47999999    2.75000000
   14.73249912  127.71600342    0.47999999    2.76999998
   14.73583317  123.75000000    0.47999999    2.75000000
   14.73888874  126.67199707    0.47999999    2.76999998
   14.74000072  131.19599915    0.47999999    2.76999998
   14.74250031  122.37999725    0.47999999    2.75000000
   14.74583340  127.81099701    0.47999999    2.76999998
   14.74888897  130.18800354    0.47999999    2.75000000
   14.75222206  134.11900330    0.47999999    2.75000000
   14.75527763  128.22700500    0.47999999    2.75000000
   14.75861073  127.10099792    0.47999999    2.75000000
   14.76472187  127.10099792    0.47999999    2.75000000
   14.76888847  143.26199341    0.50000000    2.76999998
   14.77222157  130.80299377    0.51999998    2.76999998
   14.77333355  123.12599945    0.51999998    2.76999998
   14.77583313  132.02200317    0.52999997    2.76999998
   14.77916622  138.54299927    0.51999998    2.76999998
   14.78222179  139.13099670    0.52999997    2.75000000
   14.78555584  125.05000305    0.52999997    2.75000000
   14.78861141  122.46099854    0.52999997    2.76999998
   14.79194450  123.39900208    0.52999997    2.75000000
   14.79527855  125.52700043    0.52999997    2.75000000
   14.79833412  122.97899628    0.52999997    2.75000000
   14.80166721  125.57299805    0.55000001    2.75000000
   14.80749989  125.57299805    0.61000001    2.75000000
   14.81166649  124.91600037    0.58999997    2.75000000
   14.81500053  124.54000092    0.61000001    2.75000000
   14.81833363  125.20500183    0.61000001    2.75000000
   14.82138920  125.60900116    0.61000001    2.75000000
   14.82472229  124.83799744    0.58999997    2.76999998
   14.82777786  127.75399780    0.58999997    2.76999998
   14.83111095  126.11299896    0.61000001    2.75000000
   14.83444405  126.81900024    0.58999997    2.75000000
   14.83749962  128.28599548    0.58999997    2.76999998
   14.84027767  131.35299683    0.58999997    2.75000000
   14.84138870  125.20800018    0.56999999    2.76999998
   14.84472179  121.01300049    0.56999999    2.76999998
   14.85055637  121.01300049    0.56999999    2.76999998
   14.85472298  124.28500366    0.56999999    2.75000000
   14.85777855  128.42799377    0.56999999    2.76999998
   14.86111164  134.26300049    0.56999999    2.75000000
   14.86416721  125.72799683    0.58999997    2.75000000
   14.86750031  124.09700012    0.58999997    2.76999998
   14.87083340  125.67199707    0.58999997    2.76999998
   14.87333393  126.28500366    0.58999997    2.76999998
   14.87444496  132.05799866    0.56999999    2.76999998
   14.87750053  127.00499725    0.56999999    2.76999998
   14.88083363  123.85700226    0.56999999    2.76999998
   14.88416672  125.52500153    0.55000001    2.76999998
   14.88722229  123.63800049    0.55000001    2.76999998
   14.89333344  123.63800049    0.55000001    2.75000000
   14.89750004  122.02799988    0.52999997    2.76999998
   14.90055561  121.82399750    0.55000001    2.75000000
   14.90388870  120.25700378    0.55000001    2.76999998
   14.90666676  130.02200317    0.55000001    2.75000000
   14.90749931  125.36199951    0.55000001    2.75000000
   14.91055489  120.23100281    0.55000001    2.76999998
   14.91388893  126.43399811    0.55000001    2.76999998
   14.91722298  126.59799957    0.55000001    2.76999998
   14.92027855  127.19999695    0.56999999    2.75000000
   14.92361164  126.77300262    0.56999999    2.76999998
   14.92694473  128.23399353    0.56999999    2.78999996
   14.93000031  127.55599976    0.56999999    2.76999998
   14.93611145  127.55599976    0.56999999    2.76999998
   14.94027805  130.63200378    0.56999999    2.76999998
   14.94361115  128.12600708    0.55000001    2.76999998
   14.94666672  122.68199921    0.52999997    2.76999998
   14.94999981  124.86599731    0.52999997    2.76999998
   14.95305538  122.79199982    0.52999997    2.75000000
   14.95638847  126.40499878    0.52999997    2.76999998
   14.95972157  124.42600250    0.51999998    2.76999998
   14.96277714  123.19200134    0.51999998    2.76999998
   14.96611118  123.17299652    0.52999997    2.76999998
   14.96944427  129.62899780    0.51999998    2.76999998
   14.97249985  126.61900330    0.52999997    2.78999996
   14.97333336  130.70899963    0.51999998    2.76999998
   14.97888851  130.70899963    0.51999998    2.76999998
   14.98305511  125.40399933    0.52999997    2.76999998
   14.98638916  133.19700623    0.52999997    2.78999996
   14.98944473  125.59700012    0.52999997    2.76999998
   14.99277782  121.52300262    0.51999998    2.76999998
   14.99611092  126.88800049    0.51999998    2.76999998
   14.99916649  125.57900238    0.51999998    2.76999998
   15.00249958  125.92099762    0.52999997    2.75000000
   15.00583363  127.44699860    0.51999998    2.75000000
   15.00666714  129.96099854    0.51999998    2.75000000
   15.00944424  124.39399719    0.52999997    2.76999998
   15.01277733  126.35399628    0.51999998    2.76999998
   15.01583290  121.91899872    0.51999998    2.76999998
   15.02194405  121.91899872    0.51999998    2.76999998
   15.02583313  119.54199982    0.51999998    2.76999998
   15.02916622  120.89900208    0.51999998    2.76999998
   15.03249931  126.61599731    0.51999998    2.76999998
   15.03555584  127.27400208    0.51999998    2.76999998
   15.03888893  125.03600311    0.51999998    2.76999998
   15.04000092  121.37599945    0.52999997    2.76999998
   15.04250050  117.38300323    0.55000001    2.76999998
   15.04583359  119.97499847    0.55000001    2.76999998
   15.04888916  123.17600250    0.55000001    2.76999998
   15.05222225  122.73600006    0.56999999    2.78999996
   15.05527782  123.33799744    0.58999997    2.75000000
   15.05861092  125.62300110    0.61000001    2.76999998
   15.06472206  125.62300110    0.63000000    2.76999998
   15.06888866  122.63600159    0.63000000    2.76999998
   15.07194424  122.84999847    0.63000000    2.76999998
   15.07333374  127.75299835    0.63000000    2.76999998
   15.07555580  124.73999786    0.63000000    2.75000000
   15.07888889  118.06999969    0.64999998    2.76999998
   15.08194447  123.12400055    0.63000000    2.76999998
   15.08527756  120.34200287    0.63000000    2.78999996
   15.08833313  122.77700043    0.61000001    2.76999998
   15.09166622  118.50599670    0.61000001    2.76999998
   15.09499931  116.18399811    0.58999997    2.76999998
   15.09805489  124.62300110    0.61000001    2.76999998
   15.10138893  120.78800201    0.58999997    2.75000000
   15.10750008  120.78800201    0.58999997    2.76999998
   15.11166668  119.09899902    0.58999997    2.76999998
   15.11500072  118.33000183    0.58999997    2.76999998
   15.11805534  126.29399872    0.61000001    2.76999998
   15.12138939  122.69899750    0.64999998    2.78999996
   15.12472248  123.17400360    0.63000000    2.76999998
   15.12777805  124.84200287    0.64999998    2.76999998
   15.13111115  124.58999634    0.63000000    2.76999998
   15.13416672  126.48999786    0.63000000    2.76999998
   15.13749981  121.55799866    0.63000000    2.76999998
   15.14000034  124.40699768    0.63000000    2.75000000
   15.14111137  123.24700165    0.56999999    2.76999998
   15.14444447  124.89900208    0.52999997    2.75000000
   15.15027714  124.89900208    0.52999997    2.76999998
   15.15444374  122.10900116    0.52999997    2.76999998
   15.15777779  121.58399963    0.52999997    2.76999998
   15.16111088  123.09400177    0.52999997    2.75000000
   15.16416645  122.36100006    0.52999997    2.76999998
   15.16750050  117.48500061    0.52999997    2.76999998
   15.17083359  128.53799438    0.55000001    2.76999998
   15.17333412  122.05500031    0.55000001    2.76999998
   15.17444515  123.77799988    0.55000001    2.76999998
   15.17777824  124.73100281    0.55000001    2.75000000
   15.18083382  134.21200562    0.55000001    2.78999996
   15.18416691  129.25900269    0.55000001    2.75000000
   15.18722248  132.53100586    0.55000001    2.76999998
   15.19333363  132.53100586    0.55000001    2.76999998
   15.19722271  123.61599731    0.52999997    2.76999998
   15.20055580  121.34100342    0.52999997    2.76999998
   15.20388889  123.51699829    0.55000001    2.76999998
   15.20666695  128.94599915    0.55000001    2.76999998
   15.20749950  119.99400330    0.55000001    2.76999998
   15.21083355  127.17900085    0.56999999    2.76999998
   15.21388912  125.06700134    0.56999999    2.75000000
   15.21722221  140.03399658    0.56999999    2.75000000
   15.22055531  130.19000244    0.56999999    2.76999998
   15.22361088  121.71499634    0.56999999    2.76999998
   15.22694397  128.70199585    0.56999999    2.76999998
   15.22999954  126.05400085    0.56999999    2.76999998
   15.23611164  126.05400085    0.55000001    2.76999998
   15.24027824  119.12200165    0.55000001    2.75000000
   15.24333382  129.91900635    0.55000001    2.76999998
   15.24666691  122.29799652    0.55000001    2.76999998
   15.25000000  121.47599792    0.55000001    2.76999998
   15.25305557  122.67099762    0.55000001    2.76999998
   15.25638866  120.46199799    0.55000001    2.75000000
   15.25944424  128.29499817    0.55000001    2.78999996
   15.26277733  125.19300079    0.55000001    2.76999998
   15.26611137  116.73300171    0.55000001    2.76999998
   15.26916599  124.26300049    0.52999997    2.76999998
   15.27250004  131.47399902    0.52999997    2.76999998
   15.27333355  125.40399933    0.52999997    2.76999998
   15.29416752  125.40399933    0.52999997    2.78999996
   15.29833412  140.00799561    0.52999997    2.76999998
   15.30138874  129.77499390    0.52999997    2.78999996
   15.30472279  121.26999664    0.52999997    2.76999998
   15.30666733  126.69999695    0.52999997    2.76999998
   15.30833340  127.20200348    0.55000001    2.76999998
   15.31166649  130.55200195    0.55000001    2.78999996
   15.31472206  121.15100098    0.52999997    2.76999998
   15.31805515  129.00599670    0.52999997    2.75000000
   15.32138920  140.05700684    0.52999997    2.76999998
   15.32444477  133.36099243    0.52999997    2.76999998
   15.32777786  130.26499939    0.52999997    2.76999998
   15.33083344  152.96600342    0.55000001    2.78999996
   15.33694458  152.96600342    0.52999997    2.76999998
   15.34111118  142.56900024    0.51999998    2.76999998
   15.34416676  155.20199585    0.51999998    2.78999996
   15.34749985  158.57099915    0.52999997    2.78999996
   15.35083389  145.55000305    0.52999997    2.78999996
   15.35388947  125.93000031    0.51999998    2.78999996
   15.35722256  134.66600037    0.51999998    2.78999996
   15.36027813  133.28999329    0.51999998    2.78999996
   15.36361122  143.70799255    0.51999998    2.78999996
   15.36694431  130.37500000    0.51999998    2.76999998
   15.36999989  140.81799316    0.51999998    2.76999998
   15.37333393  148.74899292    0.51999998    2.78999996
   15.37388897  134.36300659    0.51999998    2.76999998
   15.37972260  134.36300659    0.52999997    2.78999996
   15.38388920  139.88600159    0.55000001    2.76999998
   15.38722229  129.22700500    0.55000001    2.76999998
   15.39027786  133.48899841    0.55000001    2.76999998
   15.39361095  137.19299316    0.55000001    2.76999998
   15.39666653  135.16200256    0.55000001    2.76999998
   15.39999962  136.14599609    0.55000001    2.76999998
   15.40333271  132.94799805    0.55000001    2.78999996
   15.40638828  120.87699890    0.55000001    2.76999998
   15.40722179  123.38800049    0.55000001    2.76999998
   15.41027737  128.50999451    0.55000001    2.76999998
   15.41333294  135.61900330    0.55000001    2.78999996
   15.41666698  132.49800110    0.55000001    2.76999998
   15.42250061  132.49800110    0.55000001    2.78999996
   15.42666721  133.46499634    0.55000001    2.78999996
   15.43000031  139.25500488    0.55000001    2.80999994
   15.43305588  133.07699585    0.55000001    2.76999998
   15.43638897  132.04100037    0.55000001    2.78999996
   15.43972206  121.37699890    0.56999999    2.76999998
   15.44055557  128.88699341    0.56999999    2.76999998
   15.44333363  125.66100311    0.56999999    2.78999996
   15.44638920  132.52600098    0.56999999    2.78999996
   15.44972229  129.80000305    0.56999999    2.76999998
   15.45277786  131.50399780    0.56999999    2.78999996
   15.45611095  122.67700195    0.56999999    2.78999996
   15.45944405  132.08299255    0.56999999    2.76999998
   15.46555519  132.08299255    0.56999999    2.78999996
   15.46944427  125.83200073    0.56999999    2.76999998
   15.47277737  134.03599548    0.56999999    2.78999996
   15.47416592  123.84799957    0.56999999    2.78999996
   15.47694397  130.93099976    0.55000001    2.76999998
   15.47999954  133.09199524    0.55000001    2.78999996
   15.48333359  131.53799438    0.55000001    2.78999996
   15.48666668  134.91299438    0.55000001    2.76999998
   15.48972225  138.53100586    0.55000001    2.78999996
   15.49305534  127.49700165    0.55000001    2.76999998
   15.49611092  138.54299927    0.52999997    2.76999998
   15.49944496  125.80100250    0.52999997    2.76999998
   15.50277805  118.30899811    0.52999997    2.78999996
   15.50833321  118.30899811    0.52999997    2.78999996
   15.51249981  119.42800140    0.51999998    2.78999996
   15.51555538  127.64099884    0.51999998    2.76999998
   15.51888847  127.82599640    0.51999998    2.76999998
   15.52222157  129.65899658    0.51999998    2.78999996
   15.52527714  139.75000000    0.50000000    2.78999996
   15.52861118  129.32600403    0.50000000    2.78999996
   15.53166676  128.58799744    0.50000000    2.78999996
   15.53500080  129.80299377    0.50000000    2.76999998
   15.53833389  116.15899658    0.50000000    2.78999996
   15.54055595  126.50399780    0.51999998    2.78999996
   15.54194450  125.81800079    0.51999998    2.78999996
   15.54500008  123.35900116    0.51999998    2.78999996
   15.55111122  123.35900116    0.50000000    2.76999998
   15.55527782  127.18499756    0.50000000    2.78999996
   15.55833340  130.16299438    0.50000000    2.78999996
   15.56166649  132.27799988    0.50000000    2.78999996
   15.56500053  128.05599976    0.50000000    2.78999996
   15.56805515  130.82800293    0.50000000    2.78999996
   15.57138920  129.89500427    0.47999999    2.78999996
   15.57388878  124.32700348    0.47999999    2.78999996
   15.57499981  130.75000000    0.47999999    2.76999998
   15.57805538  121.26699829    0.47999999    2.78999996
   15.58138847  129.06100464    0.47999999    2.78999996
   15.58444405  125.08399963    0.47999999    2.78999996
   15.58777714  121.33000183    0.50000000    2.76999998
   15.59388828  121.33000183    0.50000000    2.76999998
   15.59805489  119.66000366    0.51999998    2.78999996
   15.60138893  128.15199280    0.52999997    2.78999996
   15.60444450  127.80599976    0.51999998    2.78999996
   15.60722256  135.12100220    0.51999998    2.78999996
   15.60833359  125.40799713    0.52999997    2.78999996
   15.61138916  124.45800018    0.55000001    2.76999998
   15.61472225  133.23699951    0.52999997    2.78999996
   15.61805534  120.03600311    0.52999997    2.78999996
   15.62111092  137.96499634    0.55000001    2.78999996
   15.62444496  124.84600067    0.55000001    2.78999996
   15.62777805  116.48799896    0.55000001    2.78999996
   15.63083363  122.70899963    0.52999997    2.80999994
   15.63694477  122.70899963    0.55000001    2.76999998
   15.64083290  133.01499939    0.55000001    2.78999996
   15.64416695  138.23199463    0.55000001    2.78999996
   15.64750004  126.26000214    0.55000001    2.78999996
   15.65055561  129.57499695    0.55000001    2.78999996
   15.65388870  128.50900269    0.55000001    2.78999996
   15.65722179  128.19900513    0.55000001    2.76999998
   15.66027737  127.12200165    0.56999999    2.78999996
   15.66361046  133.61399841    0.56999999    2.78999996
   15.66666698  138.28700256    0.56999999    2.78999996
   15.67000008  126.94000244    0.56999999    2.78999996
   15.67333412  124.46399689    0.56999999    2.78999996
   15.67388916  134.03599548    0.56999999    2.78999996
   15.67972279  134.03599548    0.55000001    2.78999996
   15.68388939  128.87699890    0.55000001    2.78999996
   15.68694496  131.52099609    0.55000001    2.78999996
   15.69027805  122.45700073    0.55000001    2.76999998
   15.69361115  127.38600159    0.55000001    2.78999996
   15.69666672  120.13899994    0.55000001    2.76999998
   15.69999981  128.99200439    0.52999997    2.76999998
   15.70305538  129.63099670    0.52999997    2.78999996
   15.70638847  132.65100098    0.52999997    2.78999996
   15.70722198  132.11999512    0.55000001    2.78999996
   15.71000004  137.80799866    0.52999997    2.78999996
   15.71305561  127.15100098    0.55000001    2.78999996
   15.71638870  129.12699890    0.55000001    2.78999996
   15.72249985  129.12699890    0.52999997    2.78999996
   15.72666645  128.02699280    0.52999997    2.78999996
   15.72999954  126.23999786    0.52999997    2.78999996
   15.73305511  132.05299377    0.52999997    2.78999996
   15.73638916  133.35099792    0.52999997    2.78999996
   15.73944473  120.69499969    0.52999997    2.78999996
   15.74055576  131.82200623    0.51999998    2.78999996
   15.74333382  130.04699707    0.51999998    2.76999998
   15.74638939  126.30500031    0.52999997    2.78999996
   15.74972248  129.02499390    0.51999998    2.78999996
   15.75305557  124.29699707    0.51999998    2.78999996
   15.75611115  131.14599609    0.51999998    2.78999996
   15.75944424  123.70200348    0.51999998    2.78999996
   15.76527786  123.70200348    0.51999998    2.78999996
   15.76944447  131.47900391    0.50000000    2.78999996
   15.77277756  128.07400513    0.50000000    2.78999996
   15.77388859  123.41999817    0.50000000    2.78999996
   15.77638817  136.09199524    0.50000000    2.78999996
   15.77944374  142.95500183    0.50000000    2.78999996
   15.78277779  127.03700256    0.50000000    2.78999996
   15.78611183  138.57499695    0.50000000    2.78999996
   15.78916740  127.94799805    0.50000000    2.76999998
   15.79250050  128.18200684    0.51999998    2.80999994
   15.79555607  131.67900085    0.55000001    2.78999996
   15.79888916  144.82499695    0.52999997    2.78999996
   15.80222225  133.78199768    0.56999999    2.78999996
   15.80833340  133.78199768    0.56999999    2.78999996
   15.81222248  117.25900269    0.58999997    2.78999996
   15.81555557  132.81199646    0.61000001    2.78999996
   15.81888866  115.01599884    0.63000000    2.78999996
   15.82194424  117.05699921    0.64999998    2.78999996
   15.82527733  126.36199951    0.67000002    2.78999996
   15.82861137  133.24800110    0.67000002    2.78999996
   15.83166695  126.77999878    0.67000002    2.78999996
   15.83500004  120.37100220    0.69000000    2.80999994
   15.83805561  127.14199829    0.69000000    2.78999996
   15.84055519  125.62300110    0.70999998    2.78999996
   15.84194374  120.34100342    0.73000002    2.78999996
   15.84499931  114.81800079    0.75000000    2.80999994
   15.85111141  114.81800079    0.75000000    2.78999996
   15.85527802  122.86799622    0.76999998    2.80999994
   15.85833359  132.76400757    0.75000000    2.78999996
   15.86166668  123.20500183    0.75000000    2.78999996
   15.86500072  133.95199585    0.73000002    2.78999996
   15.86805534  132.97000122    0.75000000    2.78999996
   15.87138939  120.00800323    0.73000002    2.76999998
   15.87388897  121.04199982    0.70999998    2.78999996
   15.87500000  120.65200043    0.70999998    2.78999996
   15.87805557  125.15899658    0.70999998    2.78999996
   15.88138866  126.69799805    0.73000002    2.80999994
   15.88472176  132.83700562    0.73000002    2.78999996
   15.88777733  131.26499939    0.70999998    2.78999996
   15.89388847  131.26499939    0.67000002    2.78999996
   15.89805508  130.00799561    0.67000002    2.80999994
   15.90138817  117.17800140    0.67000002    2.78999996
   15.90444374  125.33499908    0.67000002    2.78999996
   15.90722179  133.66099548    0.69000000    2.78999996
   15.90833282  129.61500549    0.67000002    2.78999996
   15.91138840  117.10500336    0.67000002    2.78999996
   15.91472149  121.24600220    0.64999998    2.78999996
   15.91805553  122.19699860    0.64999998    2.78999996
   15.92111111  124.76100159    0.64999998    2.78999996
   15.92444515  120.25599670    0.63000000    2.78999996
   15.92750072  125.01599884    0.63000000    2.78999996
   15.93083382  132.30999756    0.63000000    2.78999996
   15.93666649  132.30999756    0.61000001    2.80999994
   15.94083309  124.95300293    0.61000001    2.78999996
   15.94416714  128.97000122    0.58999997    2.78999996
   15.94722271  121.69400024    0.58999997    2.78999996
   15.95055580  123.80100250    0.58999997    2.78999996
   15.95388889  123.10199738    0.56999999    2.78999996
   15.95694447  130.32499695    0.55000001    2.78999996
   15.96027756  131.61399841    0.55000001    2.78999996
   15.96361065  122.19200134    0.55000001    2.78999996
   15.96666622  119.68699646    0.55000001    2.78999996
   15.96999931  133.71699524    0.55000001    2.80999994
   15.97305489  123.83399963    0.55000001    2.80999994
   15.97388840  121.65399933    0.55000001    2.80999994
   15.97972202  121.65399933    0.55000001    2.78999996
   15.98361111  133.70899963    0.55000001    2.80999994
   15.98694515  123.89800262    0.55000001    2.78999996
   15.99027824  125.93699646    0.55000001    2.78999996
   15.99333382  119.06800079    0.55000001    2.78999996
   15.99666691  118.61000061    0.55000001    2.78999996
   16.00000000  136.72700500    0.55000001    2.78999996
   16.00305557  127.09600067    0.55000001    2.78999996
   16.00638962  133.38200378    0.52999997    2.78999996
   16.00722313  133.38499451    0.52999997    2.78999996
   16.01000023  132.37500000    0.52999997    2.78999996
   16.01305580  140.83700562    0.52999997    2.78999996
   16.01638794  136.97099304    0.51999998    2.80999994
   16.02249908  136.97099304    0.50000000    2.80999994
   16.02666664  131.64900208    0.50000000    2.80999994
   16.02972221  127.92400360    0.50000000    2.80999994
   16.03305435  131.52499390    0.50000000    2.78999996
   16.03638840  122.98100281    0.50000000    2.80999994
   16.03944397  123.83300018    0.50000000    2.80999994
   16.04055595  122.79299927    0.50000000    2.80999994
   16.04305458  131.62699890    0.50000000    2.78999996
   16.04611015  120.41000366    0.50000000    2.80999994
   16.04944420  123.22599792    0.50000000    2.80999994
   16.05277634  130.61000061    0.50000000    2.78999996
   16.05583191  123.89399719    0.50000000    2.80999994
   16.05916595  126.59899902    0.51999998    2.80999994
   16.06527710  126.59899902    0.51999998    2.78999996
   16.06944466  120.19599915    0.51999998    2.80999994
   16.07277870  125.62599945    0.52999997    2.80999994
   16.07389069  116.35399628    0.52999997    2.80999994
   16.07638931  116.84799957    0.51999998    2.80999994
   16.07944489  124.28299713    0.52999997    2.78999996
   16.08277893  119.42099762    0.52999997    2.78999996
   16.08611107  125.35800171    0.50000000    2.80999994
   16.08916664  120.08499908    0.50000000    2.78999996
   16.09250069  124.80100250    0.47999999    2.80999994
   16.09583473  116.58599854    0.47999999    2.80999994
   16.09889030  123.93299866    0.47999999    2.80999994
   16.10222244  133.00199890    0.47999999    2.78999996
   16.10805511  133.00199890    0.47999999    2.80999994
   16.11222267  126.41799927    0.47999999    2.78999996
   16.11555672  136.31900024    0.47999999    2.80999994
   16.11861038  120.68499756    0.47999999    2.80999994
   16.12194443  120.80400085    0.47999999    2.80999994
   16.12527847  123.21600342    0.47999999    2.80999994
   16.12833405  125.17299652    0.47999999    2.80999994
   16.13166618  127.48200226    0.47999999    2.78999996
   16.13500023  125.24299622    0.47999999    2.80999994
   16.13805580  127.70899963    0.47999999    2.80999994
   16.14055634  125.57599640    0.46000001    2.78999996
   16.14194489  121.70800018    0.46000001    2.80999994
   16.14500046  124.27200317    0.46000001    2.80999994
   16.15111160  124.27200317    0.46000001    2.80999994
   16.15527725  118.46099854    0.46000001    2.78999996
   16.15833282  124.14600372    0.46000001    2.80999994
   16.16166687  128.14399719    0.46000001    2.80999994
   16.16472244  128.53799438    0.46000001    2.80999994
   16.16805458  128.40800476    0.46000001    2.78999996
   16.17138863  126.99900055    0.46000001    2.80999994
   16.17388916  128.00999451    0.46000001    2.78999996
   16.17499924  130.43600464    0.46000001    2.80999994
   16.17805481  130.89900208    0.46000001    2.80999994
   16.18138885  130.81500244    0.46000001    2.78999996
   16.18472099  124.41400146    0.46000001    2.80999994
   16.18777657  126.38099670    0.46000001    2.80999994
   16.19388771  126.38099670    0.46000001    2.80999994
   16.19805527  120.23799896    0.46000001    2.80999994
   16.20111275  126.43399811    0.46000001    2.80999994
   16.20444489  125.49199677    0.44000000    2.80999994
   16.20722389  127.27500153    0.44000000    2.78999996
   16.20805550  125.29199982    0.44000000    2.78999996
   16.21138954  126.72000122    0.44000000    2.80999994
   16.21444511  129.83599854    0.44000000    2.78999996
   16.21777916  121.35199738    0.44000000    2.78999996
   16.22083473  131.53300476    0.44000000    2.80999994
   16.22416687  127.88899994    0.44000000    2.80999994
   16.22750092  132.15899658    0.41999999    2.80999994
   16.23055649  125.44000244    0.41999999    2.78999996
   16.23666763  125.44000244    0.44000000    2.80999994
   16.24083328  127.37200165    0.41999999    2.80999994
   16.24416733  123.84799957    0.41999999    2.80999994
   16.24722290  122.05400085    0.41999999    2.78999996
   16.25055504  120.81600189    0.41999999    2.80999994
   16.25388908  122.96399689    0.44000000    2.80999994
   16.25694466  126.16100311    0.41999999    2.80999994
   16.26027870  124.10399628    0.41999999    2.80999994
   16.26333427  123.47100067    0.41999999    2.78999996
   16.26666641  122.85299683    0.41999999    2.80999994
   16.27000046  126.31099701    0.41999999    2.80999994
   16.27305603  123.66200256    0.41999999    2.80999994
   16.27388954  126.09300232    0.41999999    2.80999994
   16.27944374  126.09300232    0.41999999    2.80999994
   16.28361130  122.50599670    0.41999999    2.80999994
   16.28694344  122.45400238    0.41999999    2.80999994
   16.28999901  121.34799957    0.41999999    2.78999996
   16.30777740  116.88700104    0.41999999    2.80999994
   16.30999947  122.54499817    0.41999999    2.80999994
   16.31305504  129.29100037    0.41999999    2.80999994
   16.31638718  120.14399719    0.41999999    2.80999994
   16.32250023  120.14399719    0.41999999    2.80999994
   16.32666779  116.44400024    0.41999999    2.82999992
   16.33000183  120.65499878    0.41999999    2.78999996
   16.33305550  119.18199921    0.41999999    2.80999994
   16.33638954  115.61599731    0.41999999    2.80999994
   16.33972359  122.56500244    0.41999999    2.80999994
   16.34111214  116.02799988    0.41999999    2.80999994
   16.34333420  115.70099640    0.41999999    2.78999996
   16.34666824  119.34200287    0.41999999    2.80999994
   16.35000038  120.67299652    0.40000001    2.80999994
   16.35305595  120.27700043    0.41999999    2.78999996
   16.35639000  122.28800201    0.41999999    2.80999994
   16.35944557  123.13999939    0.41999999    2.82999992
   16.36555672  123.13999939    0.41999999    2.82999992
   16.36944389  133.28900146    0.41999999    2.78999996
   16.37277794  122.87599945    0.44000000    2.80999994
   16.37444496  127.73899841    0.44000000    2.78999996
   16.37638855  130.28799438    0.41999999    2.80999994
   16.37972260  125.78700256    0.41999999    2.78999996
   16.38305473  127.05500031    0.41999999    2.80999994
   16.38611031  124.14199829    0.41999999    2.78999996
   16.38944435  125.43499756    0.44000000    2.78999996
   16.39277840  129.53100586    0.41999999    2.78999996
   16.39583397  121.75499725    0.41999999    2.78999996
   16.39916611  127.10700226    0.41999999    2.80999994
   16.40250015  129.52600098    0.41999999    2.78999996
   16.40833282  129.52600098    0.41999999    2.78999996
   16.41250038  115.91300201    0.41999999    2.78999996
   16.41555595  127.29000092    0.41999999    2.80999994
   16.41888809  122.23899841    0.41999999    2.80999994
   16.42222214  125.32800293    0.44000000    2.80999994
   16.42527771  128.63699341    0.41999999    2.78999996
   16.42860985  134.48899841    0.44000000    2.80999994
   16.43166542  131.93600464    0.44000000    2.78999996
   16.43499947  130.23500061    0.44000000    2.80999994
   16.43833160  128.86999512    0.44000000    2.78999996
   16.44111061  124.85199738    0.44000000    2.80999994
   16.44166565  122.42900085    0.44000000    2.80999994
   16.44499969  138.00100708    0.44000000    2.80999994
   16.45111275  138.00100708    0.46000001    2.80999994
   16.45527840  125.80200195    0.44000000    2.80999994
   16.45861244  124.72100067    0.44000000    2.80999994
   16.46166801  123.49400330    0.44000000    2.80999994
   16.46500015  128.30400085    0.44000000    2.80999994
   16.46805573  130.02099609    0.44000000    2.78999996
   16.47138977  128.18699646    0.44000000    2.80999994
   16.47444534  128.58399963    0.46000001    2.80999994
   16.47527885  122.54499817    0.46000001    2.80999994
   16.47833443  121.07299805    0.46000001    2.80999994
   16.48166656  129.44299316    0.46000001    2.80999994
   16.48472214  117.73100281    0.46000001    2.80999994
   16.48805618  119.61399841    0.46000001    2.80999994
   16.49388885  119.61399841    0.47999999    2.80999994
   16.49805641  120.21199799    0.46000001    2.82999992
   16.50138855  128.11300659    0.50000000    2.80999994
   16.50444412  133.02200317    0.47999999    2.80999994
   16.50777817  130.89300537    0.50000000    2.78999996
   16.50805473  123.87899780    0.50000000    2.78999996
   16.51138878  128.77400208    0.50000000    2.80999994
   16.51444435  122.85900116    0.50000000    2.78999996
   16.51777840  133.10200500    0.50000000    2.78999996
   16.52111053  132.86300659    0.50000000    2.78999996
   16.52416611  131.69400024    0.50000000    2.78999996
   16.52750015  123.80400085    0.50000000    2.78999996
   16.53083229  125.68900299    0.47999999    2.78999996
   16.53666687  125.68900299    0.50000000    2.78999996
   16.54111099  132.36000061    0.47999999    2.78999996
   16.54138756  127.54900360    0.47999999    2.78999996
   16.54472160  136.62800598    0.47999999    2.78999996
   16.54777718  137.77999878    0.50000000    2.78999996
   16.55111122  129.40600586    0.50000000    2.78999996
   16.55444336  139.76199341    0.50000000    2.78999996
   16.55749893  134.74000549    0.50000000    2.78999996
   16.56083298  124.13800049    0.50000000    2.80999994
   16.56416512  122.02799988    0.50000000    2.78999996
   16.56722260  143.05200195    0.50000000    2.78999996
   16.57055664  129.43800354    0.50000000    2.80999994
   16.57389069  125.99900055    0.50000000    2.78999996
   16.57444572  136.16200256    0.50000000    2.78999996
   16.57972336  136.16200256    0.50000000    2.80999994
   16.58388901  136.52099609    0.47999999    2.80999994
   16.58694458  132.67399597    0.50000000    2.78999996
   16.59027863  129.95100403    0.50000000    2.80999994
   16.59361267  131.19999695    0.50000000    2.80999994
   16.59666824  133.17500305    0.47999999    2.78999996
   16.60000038  125.50900269    0.47999999    2.78999996
   16.60305595  133.77999878    0.47999999    2.78999996
   16.60639000  133.06199646    0.47999999    2.80999994
   16.60777855  128.03100586    0.47999999    2.78999996
   16.61000061  138.59500122    0.47999999    2.78999996
   16.61333466  138.16799927    0.47999999    2.78999996
   16.61666679  129.23199463    0.47999999    2.78999996
   16.62249947  129.23199463    0.47999999    2.78999996
   16.62666702  136.05099487    0.50000000    2.80999994
   16.63000107  125.79599762    0.50000000    2.78999996
   16.63305473  136.33299255    0.50000000    2.78999996
   16.63638878  122.96199799    0.50000000    2.78999996
   16.63972282  132.94400024    0.50000000    2.78999996
   16.64111137  125.18299866    0.50000000    2.78999996
   16.64305496  131.32699585    0.50000000    2.78999996
   16.64638901  131.31799316    0.50000000    2.80999994
   16.64972115  132.58599854    0.51999998    2.80999994
   16.65277672  126.78399658    0.51999998    2.78999996
   16.65611076  122.14299774    0.51999998    2.78999996
   16.65916634  129.72300720    0.51999998    2.80999994
   16.66527748  129.72300720    0.52999997    2.78999996
   16.66944313  123.92099762    0.55000001    2.78999996
   16.67277718  128.86999512    0.55000001    2.78999996
   16.67444420  126.62999725    0.55000001    2.78999996
   16.67611122  127.19400024    0.55000001    2.82999992
   16.67944336  126.44699860    0.55000001    2.78999996
   16.68277740  127.12699890    0.55000001    2.78999996
   16.68583298  127.53700256    0.55000001    2.78999996
   16.68916512  125.38899994    0.55000001    2.76999998
   16.69222069  119.95999908    0.55000001    2.78999996
   16.69555473  126.66100311    0.55000001    2.78999996
   16.69888878  128.03300476    0.55000001    2.80999994
   16.70194435  127.25199890    0.55000001    2.78999996
   16.70833397  127.25199890    0.55000001    2.78999996
   16.71222305  132.79200745    0.55000001    2.78999996
   16.71555710  126.77899933    0.55000001    2.78999996
   16.71888924  134.56199646    0.52999997    2.78999996
   16.72194481  129.27299500    0.52999997    2.78999996
   16.72527885  130.48599243    0.52999997    2.78999996
   16.72861099  132.21499634    0.52999997    2.78999996
   16.73166656  139.84199524    0.51999998    2.78999996
   16.73500061  131.90600586    0.52999997    2.78999996
   16.73805618  130.52499390    0.51999998    2.78999996
   16.74111176  126.91600037    0.52999997    2.80999994
   16.74166679  132.87899780    0.52999997    2.80999994
   16.74527740  125.79399872    0.52999997    2.78999996
   16.75111198  125.79399872    0.52999997    2.78999996
   16.75527763  132.78599548    0.52999997    2.78999996
   16.75833321  129.28700256    0.52999997    2.80999994
   16.76166725  123.09500122    0.52999997    2.78999996
   16.76472282  128.46400452    0.52999997    2.76999998
   16.76805496  128.97000122    0.52999997    2.78999996
   16.77138901  128.32499695    0.52999997    2.78999996
   16.77444458  130.21299744    0.52999997    2.78999996
   16.77472115  136.90800476    0.52999997    2.78999996
   16.77805519  128.66000366    0.55000001    2.78999996
   16.78138924  132.50199890    0.52999997    2.78999996
   16.78444481  129.79699707    0.52999997    2.78999996
   16.78777695  122.66200256    0.52999997    2.78999996
   16.79388809  122.66200256    0.55000001    2.78999996
   16.79805565  124.95200348    0.55000001    2.78999996
   16.80138779  127.04199982    0.55000001    2.80999994
   16.80444336  127.13300323    0.55000001    2.76999998
   16.80777740  126.78900146    0.55000001    2.78999996
   16.80805397  129.19099426    0.55000001    2.78999996
   16.81138802  133.19999695    0.56999999    2.78999996
   16.81472206  123.88700104    0.55000001    2.78999996
   16.81777954  122.31700134    0.55000001    2.78999996
   16.82111168  130.20399475    0.55000001    2.78999996
   16.82416725  125.05799866    0.52999997    2.78999996
   16.82750130  127.91899872    0.52999997    2.78999996
   16.83083344  129.39199829    0.55000001    2.78999996
   16.83666801  129.39199829    0.55000001    2.78999996
   16.84083366  129.98300171    0.55000001    2.78999996
   16.84138870  128.33399963    0.55000001    2.78999996
   16.84472275  122.48000336    0.52999997    2.78999996
   16.84777832  133.18600464    0.52999997    2.78999996
   16.85111237  126.34100342    0.55000001    2.78999996
   16.85444450  128.73800659    0.55000001    2.78999996
   16.85750008  126.02400208    0.52999997    2.78999996
   16.86083412  128.02900696    0.52999997    2.78999996
   16.86416626  130.09300232    0.51999998    2.78999996
   16.86722183  129.71699524    0.52999997    2.78999996
   16.87055588  132.61599731    0.51999998    2.78999996
   16.87361145  136.81300354    0.52999997    2.78999996
   16.87472153  129.57499695    0.52999997    2.78999996
   16.87972260  129.57499695    0.51999998    2.78999996
   16.88361168  121.70899963    0.51999998    2.78999996
   16.88694382  124.38200378    0.47999999    2.78999996
   16.89027786  120.85099792    0.47999999    2.78999996
   16.89333344  118.94799805    0.47999999    2.78999996
   16.89666748  120.98500061    0.47999999    2.78999996
   16.89999962  124.29199982    0.47999999    2.76999998
   16.90305519  124.60800171    0.47999999    2.78999996
   16.90638924  123.61000061    0.47999999    2.78999996
   16.90805435  128.94500732    0.47999999    2.78999996
   16.90999985  131.72999573    0.47999999    2.78999996
   16.91305542  124.53399658    0.47999999    2.78999996
   16.91638756  132.79600525    0.47999999    2.78999996
   16.92249870  132.79600525    0.50000000    2.78999996
   16.92666626  126.44599915    0.50000000    2.80999994
   16.92972183  119.94899750    0.50000000    2.78999996
   16.93305397  124.85199738    0.51999998    2.78999996
   16.93610954  125.08000183    0.50000000    2.78999996
   16.93944359  133.11599731    0.50000000    2.78999996
   16.94138718  129.87100220    0.50000000    2.78999996
   16.94305420  129.27600098    0.50000000    2.78999996
   16.94610977  133.31399536    0.50000000    2.78999996
   16.94944382  136.33999634    0.47999999    2.78999996
   16.95277786  133.83000183    0.47999999    2.78999996
   16.95583344  132.08200073    0.47999999    2.78999996
   16.95916748  121.81999969    0.47999999    2.78999996
   16.96527863  121.81999969    0.44000000    2.78999996
   16.96944427  126.44899750    0.44000000    2.78999996
   16.97249985  123.40399933    0.44000000    2.78999996
   16.97472191  127.71199799    0.44000000    2.78999996
   16.97638893  137.39999390    0.41999999    2.78999996
   16.97944450  128.06700134    0.41999999    2.80999994
   16.98277855  125.51200104    0.40000001    2.78999996
   16.98611069  129.10099792    0.40000001    2.80999994
   16.98916626  123.38400269    0.38000000    2.78999996
   16.99250031  130.81199646    0.38000000    2.80999994
   16.99583435  129.50199890    0.38000000    2.78999996
   16.99888992  147.96800232    0.40000001    2.78999996
   17.00222206  135.69000244    0.40000001    2.78999996
   17.00805473  135.69000244    0.40000001    2.78999996
   17.01222229  131.70199585    0.40000001    2.78999996
   17.01555634  137.36199951    0.41999999    2.78999996
   17.01861000  137.59500122    0.41999999    2.78999996
   17.02194405  138.82299805    0.44000000    2.78999996
   17.02527809  140.78900146    0.41999999    2.78999996
   17.02833366  133.33900452    0.41999999    2.78999996
   17.03166580  145.18899536    0.44000000    2.78999996
   17.03472137  127.96700287    0.44000000    2.78999996
   17.03805542  128.32899475    0.44000000    2.78999996
   17.04138756  130.63200378    0.44000000    2.78999996
   17.04194450  142.72300720    0.44000000    2.78999996
   17.04500008  133.61799622    0.44000000    2.78999996
   17.05083275  133.61799622    0.41999999    2.78999996
   17.05499840  133.94099426    0.41999999    2.78999996
   17.05833244  129.67599487    0.41999999    2.78999996
   17.06166649  131.33999634    0.41999999    2.78999996
   17.06472206  136.63400269    0.41999999    2.78999996
   17.06805611  135.31300354    0.46000001    2.78999996
   17.07111168  127.36199951    0.46000001    2.78999996
   17.07444572  133.79899597    0.46000001    2.78999996
   17.07527924  132.49200439    0.46000001    2.78999996
   17.07805634  133.55900574    0.46000001    2.78999996
   17.08139038  126.52700043    0.47999999    2.78999996
   17.08472252  138.70700073    0.47999999    2.78999996
   17.08777809  127.15399933    0.47999999    2.78999996
   17.09388924  127.15399933    0.47999999    2.78999996
   17.09805679  136.67900085    0.44000000    2.78999996
   17.10111237  132.52299500    0.46000001    2.78999996
   17.10444450  135.24299622    0.44000000    2.78999996
   17.10750008  135.80000305    0.44000000    2.78999996
   17.10861206  134.61500549    0.44000000    2.78999996
   17.11111069  135.01400757    0.46000001    2.78999996
   17.11444473  136.33599854    0.46000001    2.78999996
   17.11777878  128.72200012    0.47999999    2.78999996
   17.12083435  127.48600006    0.46000001    2.78999996
   17.12416649  130.86900330    0.46000001    2.78999996
   17.12722206  134.49899292    0.46000001    2.76999998
   17.13055611  126.84999847    0.44000000    2.78999996
   17.13666725  126.84999847    0.44000000    2.76999998
   17.14083290  129.74000549    0.44000000    2.78999996
   17.14194489  128.85299683    0.44000000    2.78999996
   17.14444351  132.95100403    0.44000000    2.78999996
   17.14777756  132.33900452    0.44000000    2.78999996
   17.15111160  124.40299988    0.44000000    2.78999996
   17.15416718  129.41600037    0.46000001    2.76999998
   17.15749931  119.86299896    0.46000001    2.78999996
   17.16055489  132.64999390    0.44000000    2.78999996
   17.16388893  130.76300049    0.44000000    2.78999996
   17.16722107  127.37699890    0.44000000    2.78999996
   17.17027664  133.68899536    0.44000000    2.78999996
   17.17361069  126.46499634    0.44000000    2.76999998
   17.17527771  128.34100342    0.41999999    2.78999996
   17.17944336  128.34100342    0.40000001    2.78999996
   17.18361092  136.36900330    0.40000001    2.78999996
   17.18694305  133.45399475    0.40000001    2.78999996
   17.18999863  130.25100708    0.40000001    2.78999996
   17.19333267  132.39500427    0.40000001    2.78999996
   17.19666672  133.03599548    0.40000001    2.78999996
   17.19972038  131.60699463    0.40000001    2.78999996
   17.20305634  127.60399628    0.40000001    2.78999996
   17.20611191  131.41299438    0.40000001    2.78999996
   17.20861244  132.35299683    0.40000001    2.78999996
   17.20972252  121.88099670    0.40000001    2.78999996
   17.21305656  128.02900696    0.40000001    2.78999996
   17.21638870  127.34500122    0.41999999    2.80999994
   17.22249985  127.34500122    0.44000000    2.76999998
   17.22638893  126.27500153    0.44000000    2.78999996
   17.22972298  133.59700012    0.46000001    2.78999996
   17.23305511  127.29100037    0.46000001    2.78999996
   17.23611069  131.10800171    0.46000001    2.78999996
   17.23944473  129.92999268    0.46000001    2.78999996
   17.24194527  129.38200378    0.46000001    2.78999996
   17.24305534  128.97799683    0.46000001    2.78999996
   17.24638939  128.94299316    0.44000000    2.78999996
   17.24972153  131.21000671    0.44000000    2.78999996
   17.25277710  131.51199341    0.46000001    2.78999996
   17.25611115  124.40200043    0.46000001    2.78999996
   17.25916672  129.13400269    0.46000001    2.78999996
   17.26527786  129.13400269    0.47999999    2.78999996
   17.26944351  133.79800415    0.47999999    2.78999996
   17.27249908  131.19599915    0.47999999    2.78999996
   17.27527809  128.04600525    0.47999999    2.78999996
   17.27611160  127.01200104    0.47999999    2.78999996
   17.27944374  132.06799316    0.47999999    2.76999998
   17.28277779  128.97099304    0.46000001    2.76999998
   17.28583336  130.08000183    0.46000001    2.76999998
   17.28916550  127.12100220    0.44000000    2.78999996
   17.29222107  129.03799438    0.46000001    2.78999996
   17.29555511  129.23199463    0.46000001    2.78999996
   17.29888916  129.53100586    0.46000001    2.78999996
   17.30194283  140.98199463    0.44000000    2.80999994
   17.30805397  140.98199463    0.46000001    2.76999998
   17.32638931  129.16099548    0.44000000    2.78999996
   17.32972336  127.16300201    0.44000000    2.78999996
   17.33277893  126.91500092    0.44000000    2.78999996
   17.33611107  126.27400208    0.44000000    2.78999996
   17.33944511  129.34899902    0.44000000    2.78999996
   17.34250069  131.53599548    0.44000000    2.78999996
   17.34583473  130.10899353    0.44000000    2.78999996
   17.35111237  130.10899353    0.44000000    2.78999996
   17.35527802  127.15000153    0.41999999    2.78999996
   17.35861206  126.55599976    0.41999999    2.78999996
   17.35944557  133.00700378    0.41999999    2.78999996
   17.36222267  130.33200073    0.41999999    2.78999996
   17.36555672  131.78199768    0.41999999    2.78999996
   17.36861038  131.19099426    0.44000000    2.78999996
   17.37194443  130.48500061    0.44000000    2.78999996
   17.37500000  131.76100159    0.44000000    2.76999998
   17.37833405  129.75700378    0.44000000    2.78999996
   17.38166618  129.28900146    0.46000001    2.78999996
   17.38472176  130.23599243    0.44000000    2.78999996
   17.38805580  135.06900024    0.44000000    2.78999996
   17.39388847  135.06900024    0.47999999    2.78999996
   17.39805603  135.03799438    0.46000001    2.78999996
   17.40138817  130.75999451    0.46000001    2.76999998
   17.40472221  134.11999512    0.46000001    2.78999996
   17.40777779  129.18299866    0.46000001    2.78999996
   17.41110992  132.81300354    0.44000000    2.78999996
   17.41416550  129.49299622    0.44000000    2.76999998
   17.41749954  129.52299500    0.44000000    2.78999996
   17.42083359  123.92700195    0.41999999    2.78999996
   17.42388916  130.21600342    0.44000000    2.78999996
   17.42611122  129.07499695    0.41999999    2.78999996
   17.42777634  130.48899841    0.41999999    2.78999996
   17.43111038  132.28300476    0.41999999    2.78999996
   17.43694305  132.28300476    0.41999999    2.78999996
   17.44111061  123.10099792    0.44000000    2.78999996
   17.44416618  133.07699585    0.41999999    2.78999996
   17.44749832  141.88699341    0.41999999    2.78999996
   17.45055580  130.24099731    0.40000001    2.78999996
   17.45388985  129.89399719    0.40000001    2.78999996
   17.45722389  129.04499817    0.40000001    2.78999996
   17.45944595  130.97000122    0.40000001    2.78999996
   17.46083450  136.83399963    0.40000001    2.76999998
   17.46389008  129.33900452    0.40000001    2.78999996
   17.46722221  131.65299988    0.41999999    2.78999996
   17.47055626  135.19999695    0.41999999    2.78999996
   17.47361183  136.50300598    0.41999999    2.78999996
   17.47972298  136.50300598    0.41999999    2.78999996
   17.48388863  134.18099976    0.41999999    2.78999996
   17.48694420  130.97300720    0.44000000    2.76999998
   17.49027824  131.74800110    0.44000000    2.76999998
   17.49277878  126.48899841    0.46000001    2.76999998
   17.49388885  127.75399780    0.44000000    2.76999998
   17.49694443  132.13099670    0.46000001    2.78999996
   17.50027847  127.20999908    0.44000000    2.78999996
   17.50361061  126.39099884    0.46000001    2.78999996
   17.50666618  136.83399963    0.44000000    2.76999998
   17.51000023  128.98899841    0.44000000    2.78999996
   17.51333427  125.38899994    0.46000001    2.78999996
   17.51638794  131.20300293    0.47999999    2.76999998
   17.52249908  131.20300293    0.47999999    2.76999998
   17.52666664  127.34799957    0.47999999    2.76999998
   17.52972221  125.91799927    0.47999999    2.76999998
   17.53305435  130.64900208    0.47999999    2.78999996
   17.53638840  127.22499847    0.47999999    2.78999996
   17.53944397  133.66799927    0.46000001    2.78999996
   17.54277802  128.68299866    0.46000001    2.78999996
   17.54611015  122.93499756    0.46000001    2.76999998
   17.54916573  129.69700623    0.46000001    2.76999998
   17.55249977  126.27100372    0.46000001    2.76999998
   17.55555534  128.52799988    0.46000001    2.78999996
   17.55888748  133.63600159    0.44000000    2.78999996
   17.55944443  133.42599487    0.46000001    2.76999998
   17.56527710  133.42599487    0.44000000    2.76999998
   17.56944466  132.51800537    0.44000000    2.78999996
   17.57277870  131.84500122    0.44000000    2.76999998
   17.57583427  130.76600647    0.44000000    2.76999998
   17.57916832  127.55200195    0.46000001    2.78999996
   17.58250046  129.19799805    0.46000001    2.76999998
   17.58555603  133.50199890    0.47999999    2.76999998
   17.58889008  132.59300232    0.47999999    2.76999998
   17.59222221  133.46400452    0.46000001    2.76999998
   17.59277916  133.30099487    0.46000001    2.76999998
   17.59583473  130.00199890    0.50000000    2.76999998
   17.59889030  134.04100037    0.51999998    2.76999998
   17.60222244  136.81500244    0.52999997    2.76999998
   17.60833359  136.81500244    0.51999998    2.76999998
   17.61222267  130.64500427    0.52999997    2.76999998
   17.61555672  129.18200684    0.52999997    2.76999998
   17.61888885  127.49400330    0.55000001    2.76999998
   17.62194443  130.17599487    0.52999997    2.76999998
   17.62527847  141.04200745    0.52999997    2.76999998
   17.62611198  131.70500183    0.51999998    2.76999998
   17.62888908  128.57400513    0.51999998    2.76999998
   17.63194466  126.36900330    0.52999997    2.76999998
   17.63527679  133.65699768    0.51999998    2.76999998
   17.63861084  137.52999878    0.51999998    2.76999998
   17.64166641  126.40100098    0.50000000    2.76999998
   17.64500046  132.80499268    0.47999999    2.76999998
   17.65111160  132.80499268    0.47999999    2.78999996
   17.65527725  126.00499725    0.50000000    2.76999998
   17.65833282  125.27799988    0.50000000    2.76999998
   17.65944481  127.03299713    0.47999999    2.76999998
   17.66194344  127.63400269    0.47999999    2.76999998
   17.66527748  139.38699341    0.50000000    2.76999998
   17.66833305  128.86399841    0.47999999    2.78999996
   17.67166519  121.75000000    0.47999999    2.76999998
   17.67472076  130.98199463    0.47999999    2.76999998
   17.67805481  131.12899780    0.46000001    2.78999996
   17.68138885  125.77300262    0.46000001    2.76999998
   17.68444443  128.10600281    0.46000001    2.76999998
   17.68777657  130.57899475    0.46000001    2.76999998
   17.69388771  130.57899475    0.47999999    2.76999998
   17.69805527  131.13999939    0.46000001    2.78999996
   17.70111275  127.92700195    0.44000000    2.76999998
   17.70444489  131.54699707    0.44000000    2.76999998
   17.70777893  127.54699707    0.44000000    2.78999996
   17.71083450  130.04499817    0.46000001    2.78999996
   17.71416664  134.23899841    0.46000001    2.78999996
   17.71750069  129.48100281    0.46000001    2.76999998
   17.72055626  133.32000732    0.46000001    2.76999998
   17.72389030  128.03700256    0.46000001    2.78999996
   17.72611237  130.39799500    0.46000001    2.76999998
   17.72750092  134.40400696    0.46000001    2.76999998
   17.73083305  129.58399963    0.47999999    2.76999998
   17.73666763  129.58399963    0.46000001    2.78999996
   17.74083328  131.33299255    0.44000000    2.76999998
   17.74416733  128.64100647    0.46000001    2.76999998
   17.74722290  136.23800659    0.44000000    2.76999998
   17.75055504  136.22900391    0.44000000    2.76999998
   17.75388908  134.85800171    0.44000000    2.76999998
   17.75694466  131.67199707    0.44000000    2.76999998
   17.75944519  130.42599487    0.44000000    2.76999998
   17.76055527  134.09399414    0.44000000    2.76999998
   17.76388931  135.15600586    0.44000000    2.76999998
   17.76694489  128.76199341    0.41999999    2.78999996
   17.77027702  133.76499939    0.41999999    2.76999998
   17.77333260  135.22799683    0.41999999    2.78999996
   17.77972221  135.22799683    0.44000000    2.76999998
   17.78361130  129.05700684    0.44000000    2.78999996
   17.78694344  127.46099854    0.44000000    2.76999998
   17.79027748  123.54599762    0.44000000    2.76999998
   17.79277802  125.47200012    0.46000001    2.76999998
   17.79388809  129.44099426    0.44000000    2.76999998
   17.79722214  132.27900696    0.44000000    2.76999998
   17.80027771  122.04399872    0.44000000    2.76999998
   17.80360985  131.61700439    0.46000001    2.78999996
   17.80666542  114.16400146    0.44000000    2.76999998
   17.80999947  128.21000671    0.44000000    2.76999998
   17.81333351  128.21299744    0.47999999    2.76999998
   17.81638718  128.56799316    0.50000000    2.78999996
   17.82250023  128.56799316    0.50000000    2.76999998
   17.82666779  127.40899658    0.51999998    2.76999998
   17.82972336  133.76400757    0.51999998    2.76999998
   17.83305550  129.71299744    0.51999998    2.76999998
   17.83638954  130.89500427    0.50000000    2.76999998
   17.83944511  130.16099548    0.50000000    2.76999998
   17.84277916  131.53300476    0.47999999    2.78999996
   17.84583473  125.23400116    0.46000001    2.78999996
   17.84916687  125.05999756    0.46000001    2.78999996
   17.85250092  127.89199829    0.44000000    2.76999998
   17.85555649  128.17300415    0.44000000    2.78999996
   17.85888863  126.03600311    0.44000000    2.76999998
   17.85944557  127.15299988    0.44000000    2.76999998
   17.86527824  127.15299988    0.44000000    2.76999998
   17.86944389  122.47599792    0.46000001    2.76999998
   17.87249947  128.64500427    0.46000001    2.76999998
   17.87583351  128.65899658    0.46000001    2.76999998
   17.87916756  130.96600342    0.44000000    2.76999998
   17.88222313  126.92299652    0.46000001    2.78999996
   17.88555527  131.99499512    0.46000001    2.78999996
   17.88888931  126.56999969    0.47999999    2.78999996
   17.89194489  129.51600647    0.47999999    2.76999998
   17.89277840  133.34199524    0.47999999    2.76999998
   17.89555550  134.76100159    0.47999999    2.76999998
   17.89888954  128.69700623    0.47999999    2.76999998
   17.90194321  136.35200500    0.46000001    2.76999998
   17.90805435  136.35200500    0.47999999    2.76999998
   17.91222191  135.64399719    0.50000000    2.76999998
   17.91555595  133.77200317    0.47999999    2.76999998
   17.91860962  134.70500183    0.47999999    2.76999998
   17.92194366  125.91500092    0.47999999    2.78999996
   17.92527771  127.95600128    0.47999999    2.76999998
   17.92611122  123.63800049    0.47999999    2.76999998
   17.92888832  127.82099915    0.47999999    2.76999998
   17.93222237  130.66299438    0.47999999    2.76999998
   17.93527603  123.56099701    0.47999999    2.76999998
   17.93861008  125.55999756    0.47999999    2.76999998
   17.94166565  126.76399994    0.47999999    2.75000000
   17.94499969  134.72999573    0.47999999    2.75000000
   17.95083427  134.72999573    0.46000001    2.76999998
   17.95499992  134.46600342    0.46000001    2.76999998
   17.95833397  130.39100647    0.46000001    2.78999996
   17.95944595  132.59700012    0.46000001    2.76999998
   17.96194458  126.64499664    0.46000001    2.75000000
   17.96527863  133.15699768    0.44000000    2.75000000
   17.96833420  131.22099304    0.44000000    2.76999998
   17.97166634  124.72200012    0.46000001    2.76999998
   17.97500038  123.40299988    0.47999999    2.76999998
   17.97805595  128.97599792    0.47999999    2.76999998
   17.98139000  135.75199890    0.46000001    2.75000000
   17.98444557  128.15199280    0.47999999    2.76999998
   17.98777771  132.10000610    0.47999999    2.75000000
   17.99388885  132.10000610    0.47999999    2.76999998
   17.99805641  125.93299866    0.47999999    2.76999998
   18.00111198  131.45700073    0.47999999    2.76999998
   18.00444412  128.39900208    0.47999999    2.78999996
   18.00749969  126.08200073    0.47999999    2.76999998
   18.01083374  135.81900024    0.47999999    2.76999998
   18.01416588  133.88999939    0.47999999    2.76999998
   18.01722145  132.81300354    0.46000001    2.75000000
   18.02055550  132.00599670    0.46000001    2.76999998
   18.02388954  132.07400513    0.46000001    2.76999998
   18.02611160  130.92599487    0.46000001    2.76999998
   18.02750015  131.29499817    0.46000001    2.76999998
   18.03083229  132.47500610    0.46000001    2.78999996
   18.03666687  132.47500610    0.46000001    2.75000000
   18.04083252  131.61199951    0.46000001    2.76999998
   18.04388809  128.75399780    0.46000001    2.76999998
   18.04722214  132.07600403    0.46000001    2.76999998
   18.05055428  131.13099670    0.46000001    2.76999998
   18.05360985  128.70700073    0.47999999    2.76999998
   18.05694389  126.51699829    0.47999999    2.75000000
   18.05944443  133.01699829    0.47999999    2.76999998
   18.06055450  127.50299835    0.47999999    2.76999998
   18.06388855  137.68099976    0.47999999    2.76999998
   18.06694603  126.18199921    0.47999999    2.76999998
   18.07027817   -1.00000000    0.47999999    2.76999998
   18.07361221   -1.00000000    0.50000000    2.75000000
   18.07944489   -1.00000000    0.47999999    2.76999998
   18.08361244  129.95100403    0.46000001    2.75000000
   18.08694458  139.47000122    0.46000001    2.75000000
   18.09000015  136.72300720    0.47999999    2.75000000
   18.09277916  144.76300049    0.47999999    2.75000000
   18.09361267  137.28300476    0.47999999    2.75000000
   18.09694481  138.15400696    0.50000000    2.76999998
   18.10000038  135.32699585    0.50000000    2.75000000
   18.10333443  138.61099243    0.51999998    2.75000000
   18.10666656  130.69700623    0.52999997    2.75000000
   18.10972214  131.86199951    0.51999998    2.76999998
   18.11305618  133.53500366    0.52999997    2.75000000
   18.11611176  139.17199707    0.52999997    2.75000000
   18.12222290  139.17199707    0.55000001    2.75000000
   18.12638855  140.92799377    0.58999997    2.75000000
   18.12972260  133.56199646    0.63000000    2.75000000
   18.13305473  139.40400696    0.67000002    2.75000000
   18.13611031  134.70399475    0.55000001    2.75000000
   18.13944435  128.44999695    0.56999999    2.75000000
   18.14249992  129.99299622    0.51999998    2.75000000
   18.14583397  132.94400024    0.51999998    2.75000000
   18.14916611  130.50199890    0.51999998    2.75000000
   18.15222168  135.31799316    0.51999998    2.75000000
   18.15555573  131.15699768    0.51999998    2.75000000
   18.15888786  132.61700439    0.52999997    2.75000000
   18.15944481  130.58799744    0.52999997    2.75000000
   18.16527748  130.58799744    0.46000001    2.75000000
   18.16944313  139.42999268    0.44000000    2.75000000
   18.17249870  129.79100037    0.44000000    2.76999998
   18.17583275  135.44999695    0.44000000    2.75000000
   18.17888832  130.86599731    0.41999999    2.75000000
   18.18222237  133.20500183    0.44000000    2.76999998
   18.18555450   -1.00000000    0.44000000    2.75000000
   18.18888855   -1.00000000    0.44000000    2.76999998
   18.19194412   -1.00000000    0.41999999    2.76999998
   18.19555473   -1.00000000    0.41999999    2.75000000
   18.19861031  146.21000671    0.44000000    2.75000000
   18.20194435  136.75700378    0.44000000    2.76999998
   18.20805550  136.75700378    0.46000001    2.75000000
   18.21222305  131.31700134    0.46000001    2.75000000
   18.21527863  131.78999329    0.46000001    2.75000000
   18.21861076  133.71899414    0.46000001    2.75000000
   18.22222328  129.17700195    0.46000001    2.75000000
   18.22527885  135.10800171    0.46000001    2.75000000
   18.22611237  133.80799866    0.47999999    2.75000000
   18.22888947  136.85000610    0.47999999    2.75000000
   18.23222351  136.41799927    0.47999999    2.75000000
   18.23527718  131.59100342    0.47999999    2.75000000
   18.23861122  128.41999817    0.47999999    2.76999998
   18.24194527  133.34100342    0.47999999    2.75000000
   18.24500084  132.22099304    0.47999999    2.75000000
   18.25083351  132.22099304    0.46000001    2.75000000
   18.25499916  129.94700623    0.46000001    2.75000000
   18.25833321  123.55799866    0.46000001    2.75000000
   18.25972176  131.54600525    0.46000001    2.75000000
   18.26166725  135.19400024    0.44000000    2.75000000
   18.26499939  132.66999817    0.46000001    2.75000000
   18.26805496  127.36299896    0.46000001    2.75000000
   18.27138901  133.55400085    0.47999999    2.75000000
   18.27472115  130.93200684    0.47999999    2.75000000
   18.27777672  128.22099304    0.46000001    2.73000002
   18.28111076  129.21800232    0.46000001    2.75000000
   18.28444481  129.12800598    0.46000001    2.75000000
   18.28750038  135.36700439    0.46000001    2.75000000
   18.29361153  135.36700439    0.46000001    2.75000000
   18.29777718  133.37199402    0.47999999    2.75000000
   18.30111122  136.54400635    0.47999999    2.75000000
   18.30416679  127.56500244    0.47999999    2.75000000
   18.30749893  139.94700623    0.47999999    2.76999998
   18.31083298  130.76199341    0.47999999    2.75000000
   18.31388855  130.94700623    0.47999999    2.75000000
   18.31722260  136.23899841    0.46000001    2.75000000
   18.32055664  137.02999878    0.47999999    2.75000000
   18.32361221  134.67599487    0.44000000    2.73000002
   18.32638931  134.20599365    0.44000000    2.73000002
   18.34694481  134.20599365    0.50000000    2.75000000
   18.35111237  136.52900696    0.50000000    2.75000000
   18.35416794  139.50999451    0.52999997    2.75000000
   18.35750008  140.67900085    0.52999997    2.75000000
   18.35972214  134.55999756    0.52999997    2.75000000
   18.36111069  127.02400208    0.52999997    2.75000000
   18.36444473  133.54299927    0.51999998    2.73000002
   18.36750031  144.17300415    0.50000000    2.76999998
   18.37083435  140.50500488    0.51999998    2.75000000
   18.37416649  136.69900513    0.50000000    2.75000000
   18.37722206  132.23199463    0.51999998    2.75000000
   18.38055611  133.81799316    0.51999998    2.75000000
   18.38388824  133.07600403    0.50000000    2.75000000
   18.38972282  133.07600403    0.50000000    2.75000000
   18.39388847  130.56700134    0.51999998    2.75000000
   18.39694405  147.05000305    0.51999998    2.75000000
   18.40027809  138.47300720    0.52999997    2.75000000
   18.40333366  131.26300049    0.55000001    2.75000000
   18.40666580  138.11399841    0.52999997    2.75000000
   18.40999985  136.49400330    0.51999998    2.75000000
   18.41305542  134.61000061    0.51999998    2.75000000
   18.41638756  137.60699463    0.50000000    2.75000000
   18.41972160  136.27099609    0.51999998    2.75000000
   18.42277718  134.03500366    0.50000000    2.75000000
   18.42611122  130.82800293    0.50000000    2.75000000
   18.42666626  133.17300415    0.50000000    2.75000000
   18.43249893  133.17300415    0.47999999    2.75000000
   18.43666649  131.62399292    0.47999999    2.76999998
   18.43972206  136.09500122    0.46000001    2.75000000
   18.44305420  138.03799438    0.46000001    2.75000000
   18.44638824  134.37100220    0.46000001    2.75000000
   18.44944382  135.72700500    0.46000001    2.73000002
   18.45277786  132.75100708    0.47999999    2.75000000
   18.45611191  135.86700439    0.46000001    2.75000000
   18.45916748  140.10499573    0.47999999    2.75000000
   18.46000099  137.52099609    0.47999999    2.75000000
   18.46305656  137.81900024    0.47999999    2.73000002
   18.46611214  140.86199951    0.47999999    2.75000000
   18.46944427  137.96099854    0.50000000    2.75000000
   18.47527885  137.96099854    0.50000000    2.75000000
   18.47944450  135.16900635    0.50000000    2.75000000
   18.48277855  135.94200134    0.50000000    2.73000002
   18.48583412  134.29699707    0.50000000    2.75000000
   18.48916626  130.81599426    0.50000000    2.75000000
   18.49250031  135.99400330    0.50000000    2.73000002
   18.49333382  131.97900391    0.50000000    2.75000000
   18.49583435  136.03999329    0.50000000    2.75000000
   18.49916649  137.91499329    0.50000000    2.75000000
   18.50250053  126.13700104    0.51999998    2.75000000
   18.50555611  130.92999268    0.51999998    2.75000000
   18.50888824  132.23100281    0.51999998    2.73000002
   18.51222229  134.63400269    0.51999998    2.75000000
   18.51805496  134.63400269    0.51999998    2.73000002
   18.52222252  137.01300049    0.51999998    2.73000002
   18.52555466  135.17199707    0.50000000    2.75000000
   18.52666664  136.46499634    0.50000000    2.73000002
   18.52916718  133.89500427    0.51999998    2.73000002
   18.53249931  132.82099915    0.50000000    2.73000002
   18.53583336  127.60900116    0.51999998    2.73000002
   18.53888893  136.67900085    0.51999998    2.75000000
   18.54222107  126.69999695    0.52999997    2.75000000
   18.54555511  133.37600708    0.52999997    2.75000000
   18.54861069  134.17300415    0.51999998    2.75000000
   18.55194283  130.36599731    0.51999998    2.75000000
   18.55499840  134.09700012    0.51999998    2.73000002
   18.56110954  134.09700012    0.51999998    2.75000000
   18.56527710  133.98399353    0.51999998    2.73000002
   18.56833458  131.21600342    0.51999998    2.73000002
   18.57166672  135.97999573    0.52999997    2.73000002
   18.57472229  133.29800415    0.51999998    2.73000002
   18.57805634  141.16200256    0.51999998    2.73000002
   18.58139038  135.67300415    0.51999998    2.75000000
   18.58444595  141.74400330    0.51999998    2.75000000
   18.58777809  136.33299255    0.52999997    2.73000002
   18.59111214  140.80400085    0.52999997    2.73000002
   18.59333420  134.03799438    0.51999998    2.73000002
   18.59444427  139.70799255    0.51999998    2.73000002
   18.59777832  135.60499573    0.51999998    2.73000002
   18.60388947  135.60499573    0.51999998    2.73000002
   18.60805511  132.23300171    0.51999998    2.75000000
   18.61111069  132.13099670    0.51999998    2.73000002
   18.61444473  135.07400513    0.51999998    2.75000000
   18.61777878  138.73100281    0.52999997    2.75000000
   18.62083435  136.26899719    0.51999998    2.73000002
   18.62416649  135.41900635    0.51999998    2.73000002
   18.62666702  140.28999329    0.51999998    2.73000002
   18.62777710  136.26499939    0.51999998    2.73000002
   18.63111115  134.57699585    0.52999997    2.73000002
   18.63444519  124.27799988    0.51999998    2.75000000
   18.63750076  128.67399597    0.51999998    2.73000002
   18.64083290  130.73800659    0.51999998    2.73000002
   18.64666748  130.73800659    0.52999997    2.75000000
   18.65083313  133.30799866    0.52999997    2.73000002
   18.65416718  137.20100403    0.52999997    2.73000002
   18.65722275  138.50000000    0.55000001    2.73000002
   18.65999985  137.66600037    0.52999997    2.73000002
   18.66083336  145.02200317    0.52999997    2.73000002
   18.66416550  132.80900574    0.55000001    2.73000002
   18.66749954  133.65499878    0.55000001    2.73000002
   18.67055511  138.60699463    0.55000001    2.73000002
   18.67388916  134.90400696    0.55000001    2.73000002
   18.67722130  133.03300476    0.55000001    2.73000002
   18.68027687  136.44099426    0.55000001    2.73000002
   18.68361092  132.67399597    0.56999999    2.75000000
   18.68944359  132.67399597    0.56999999    2.71000004
   18.69361115  141.12300110    0.55000001    2.71000004
   18.69694328  135.50999451    0.55000001    2.73000002
   18.70000076  128.56399536    0.55000001    2.71000004
   18.70333481  133.66999817    0.55000001    2.71000004
   18.70666695  137.11900330    0.55000001    2.71000004
   18.70972252  141.16900635    0.55000001    2.71000004
   18.71305656  138.59300232    0.55000001    2.73000002
   18.71638870  138.38699341    0.55000001    2.71000004
   18.71944427  144.11799622    0.56999999    2.73000002
   18.72277832  128.55900574    0.55000001    2.71000004
   18.72583389  131.96800232    0.55000001    2.71000004
   18.72666740  142.04200745    0.55000001    2.71000004
   18.73250008  142.04200745    0.56999999    2.71000004
   18.73666763  136.13800049    0.55000001    2.71000004
   18.73972321  142.70899963    0.56999999    2.71000004
   18.74305534  138.86599731    0.56999999    2.73000002
   18.74611092  138.35099792    0.58999997    2.71000004
   18.74944496  141.39399719    0.58999997    2.71000004
   18.75277710  130.69000244    0.58999997    2.71000004
   18.75583267  126.51300049    0.61000001    2.73000002
   18.75916672  134.34599304    0.63000000    2.71000004
   18.76000023  131.89799500    0.63000000    2.71000004
   18.76277733  130.94099426    0.63000000    2.71000004
   18.76583290  134.78199768    0.63000000    2.73000002
   18.76916695  127.11100006    0.61000001    2.73000002
   18.77527809  127.11100006    0.58999997    2.73000002
   18.77944374  134.16600037    0.58999997    2.71000004
   18.78277779  135.37300110    0.64999998    2.71000004
   18.78583336  135.40199280    0.70999998    2.71000004
   18.78916550  125.26200104    0.73000002    2.71000004
   18.79222107  129.60600281    0.70999998    2.73000002
   18.79333305  131.58399963    0.70999998    2.71000004
   18.79611015  125.85600281    0.73000002    2.71000004
   18.79916573  130.56199646    0.73000002    2.71000004
   18.80249977  127.49199677    0.76999998    2.71000004
   18.80583191  130.68499756    0.80000001    2.73000002
   18.80888748  131.13499451    0.80000001    2.71000004
   18.81222153  129.16099548    0.73000002    2.71000004
   18.81805611  129.16099548    0.75000000    2.71000004
   18.82222366  131.03300476    0.58999997    2.73000002
   18.82555580  130.88600159    0.58999997    2.71000004
   18.82666779  128.74099731    0.58999997    2.71000004
   18.82888985  134.07200623    0.58999997    2.73000002
   18.83222389  126.13700104    0.58999997    2.73000002
   18.83555603  130.55999756    0.56999999    2.73000002
   18.83861160  133.76199341    0.58999997    2.71000004
   18.84194565  131.36900330    0.58999997    2.73000002
   18.84527779  132.87699890    0.56999999    2.73000002
   18.84833336  132.44999695    0.58999997    2.73000002
   18.85166740  132.58000183    0.58999997    2.73000002
   18.85499954  128.48300171    0.56999999    2.73000002
   18.86083412  128.48300171    0.58999997    2.71000004
   18.86499977  132.23800659    0.58999997    2.71000004
   18.86833382  130.20100403    0.58999997    2.71000004
   18.87166595  137.76899719    0.58999997    2.71000004
   18.87472153  130.69900513    0.56999999    2.71000004
   18.87805557  137.59599304    0.55000001    2.71000004
   18.88138962  130.82200623    0.55000001    2.71000004
   18.88444519  132.54299927    0.52999997    2.73000002
   18.88777733  135.69799805    0.52999997    2.71000004
   18.89111137  141.37899780    0.52999997    2.71000004
   18.89333344  146.82600403    0.52999997    2.71000004
   18.89472198  132.86700439    0.51999998    2.73000002
   18.89777756  145.16400146    0.51999998    2.71000004
   18.90388870  145.16400146    0.51999998    2.73000002
   18.90805435  149.93099976    0.51999998    2.73000002
   18.91110992  139.95500183    0.51999998    2.71000004
   18.91444397  143.39500427    0.51999998    2.71000004
   18.91777802  134.55400085    0.51999998    2.71000004
   18.92083359  148.03599548    0.51999998    2.71000004
   18.92416573  149.26300049    0.52999997    2.71000004
   18.92666626  157.58799744    0.52999997    2.73000002
   18.92777634  152.72000122    0.52999997    2.73000002
   18.93083191  141.78500366    0.52999997    2.73000002
   18.93416595  146.94200134    0.51999998    2.71000004
   18.93722153  145.07400513    0.52999997    2.73000002
   18.94055557  143.46699524    0.52999997    2.71000004
   18.94666672  143.46699524    0.52999997    2.71000004
   18.95083427  154.64900208    0.51999998    2.71000004
   18.95388985  145.30499268    0.51999998    2.71000004
   18.95722389  134.47399902    0.51999998    2.71000004
   18.96000099  139.41900635    0.52999997    2.71000004
   18.96111107  141.66099548    0.52999997    2.71000004
   18.96416664  149.62899780    0.52999997    2.71000004
   18.96750069  154.22300720    0.52999997    2.71000004
   18.97055626  134.31199646    0.52999997    2.71000004
   18.97389030  166.46200562    0.52999997    2.69000006
   18.97722244  152.84199524    0.52999997    2.71000004
   18.98027802  141.19599915    0.52999997    2.71000004
   18.98361206  142.74600220    0.52999997    2.69000006
   18.98944473  142.74600220    0.52999997    2.71000004
   18.99361229  133.16600037    0.52999997    2.69000006
   18.99694443  140.90499878    0.52999997    2.71000004
   19.00000000  141.94900513    0.52999997    2.71000004
   19.00333405  138.90199280    0.52999997    2.71000004
   19.00666618  135.81900024    0.55000001    2.71000004
   19.00972176  129.72500610    0.55000001    2.71000004
   19.01305580  136.83599854    0.51999998    2.71000004
   19.01638794  129.49000549    0.51999998    2.71000004
   19.01944351  133.99400330    0.52999997    2.71000004
   19.02277756  143.61399841    0.51999998    2.71000004
   19.02583313  139.86199951    0.55000001    2.71000004
   19.02666664  135.42799377    0.55000001    2.71000004
   19.03222275  135.42799377    0.55000001    2.71000004
   19.03638840  132.87800598    0.55000001    2.71000004
   19.03972244  135.92199707    0.56999999    2.71000004
   19.04305458  132.86300659    0.56999999    2.71000004
   19.04611015  138.13499451    0.52999997    2.71000004
   19.04944420  142.88699341    0.52999997    2.71000004
   19.05277634  140.03500366    0.51999998    2.71000004
   19.05583191  139.52400208    0.51999998    2.71000004
   19.05916595  129.00199890    0.51999998    2.71000004
   19.05999947  135.99400330    0.51999998    2.71000004
   19.06277657  143.53199768    0.51999998    2.71000004
   19.06583214  139.42900085    0.52999997    2.71000004
   19.06916809  127.93499756    0.52999997    2.71000004
   19.07527924  127.93499756    0.67000002    2.71000004
   19.07944489  119.45800018    0.63000000    2.71000004
   19.08250046  139.24499512    0.64999998    2.71000004
   19.08583450  149.95899963    0.55000001    2.69000006
   19.08916664  130.25399780    0.55000001    2.71000004
   19.09222221  134.75599670    0.55000001    2.71000004
   19.09333420  133.44700623    0.55000001    2.71000004
   19.09611130  142.78900146    0.55000001    2.71000004
   19.09916687  147.31399536    0.61000001    2.71000004
   19.10250092  141.34700012    0.56999999    2.71000004
   19.10583305  129.83700562    0.56999999    2.71000004
