    HOUR (UT)   FLARE FACTOR    SKY TESTER    SUN TESTER
   10.39138889   -1.00000000   -1.00000000   -1.00000000
   10.41166592  304.38299561    1.33000004    1.69000006
   10.41666698  232.49099731    1.34000003    1.71000004
   10.42083359   -1.00000000    1.34000003    1.71000004
   10.42388916   -1.00000000    1.34000003    1.73000002
   10.42722225  281.90899658    1.34000003    1.73000002
   10.43055630  319.19900513    1.36000001    1.73000002
   10.43249989  324.09100342    1.36000001    1.73000002
   10.43361092  388.20199585    1.36000001    1.73000002
   10.43500042  313.78900146    1.36000001    1.73000002
   10.43638897  282.03601074    1.36000001    1.73000002
   10.43777752  280.93798828    1.36000001    1.73000002
   10.43916702  294.35998535    1.36000001    1.75000000
   10.44055557  277.65600586    1.36000001    1.75000000
   10.44194412  232.71299744    1.36000001    1.75000000
   10.44222260  232.49099731    1.34000003    1.71000004
   10.44222260   -1.00000000    1.34000003    1.71000004
   10.44250011   -1.00000000    1.34000003    1.73000002
   10.44250011  281.90899658    1.34000003    1.73000002
   10.44250011  319.19900513    1.36000001    1.73000002
   10.44305515  263.14001465    1.36000001    1.75000000
   10.44638920  248.36900330    1.36000001    1.75000000
   10.44972229  223.99699402    1.36000001    1.75000000
   10.45277786  269.67599487    1.38000000    1.76999998
   10.45611095  241.90899658    1.38000000    1.76999998
   10.46277714  241.90899658    1.36000001    1.76999998
   10.46694374  180.12199402    1.36000001    1.78999996
   10.47027779  235.84199524    1.38000000    1.78999996
   10.47361088  198.23800659    1.38000000    1.78999996
   10.47611046  232.37500000    1.36000001    1.80999994
   10.47722149  186.34399414    1.36000001    1.80999994
   10.48055553  195.94900513    1.36000001    1.80999994
   10.48361111  172.60299683    1.36000001    1.80999994
   10.48694515  162.61399841    1.36000001    1.80999994
   10.49027824  161.12899780    1.36000001    1.80999994
   10.49333382  166.55200195    1.36000001    1.83000004
   10.49666691  185.87300110    1.36000001    1.83000004
   10.50000000  168.02299500    1.36000001    1.83000004
   10.50583363  168.02299500    1.36000001    1.85000002
   10.51000023  178.76800537    1.36000001    1.85000002
   10.51305580  150.19099426    1.36000001    1.85000002
   10.51638889  183.10600281    1.36000001    1.85000002
   10.51944447  172.06900024    1.36000001    1.85000002
   10.52305508  204.20100403    1.36000001    1.86000001
   10.52611065  166.99299622    1.36000001    1.86000001
   10.52944374  176.24800110    1.36000001    1.86000001
   10.53277779  183.75799561    1.34000003    1.86000001
   10.53583336  172.84399414    1.34000003    1.86000001
   10.53916740  170.26499939    1.34000003    1.88000000
   10.54222298  161.37699890    1.34000003    1.88000000
   10.54277802  140.94999695    1.36000001    1.88000000
   10.54861164  140.94999695    1.34000003    1.88000000
   10.55277824  165.45799255    1.34000003    1.89999998
   10.55611134  157.14300537    1.34000003    1.89999998
   10.55944443  119.51899719    1.34000003    1.88000000
   10.56250000  137.63499451    1.34000003    1.89999998
   10.56583309  159.33700562    1.34000003    1.91999996
   10.56916618  122.09700012    1.34000003    1.91999996
   10.57222176  155.25000000    1.33000004    1.91999996
   10.57555580  147.02699280    1.33000004    1.91999996
   10.57611084  159.39700317    1.34000003    1.91999996
   10.57916641  150.58299255    1.34000003    1.91999996
   10.58249950  141.42900085    1.33000004    1.91999996
   10.58555508  148.23500061    1.33000004    1.91999996
   10.59138870  148.23500061    1.33000004    1.91999996
   10.59555531  143.71000671    1.33000004    1.91999996
   10.59888840  173.44599915    1.33000004    1.94000006
   10.60194492  144.74000549    1.30999994    1.94000006
   10.60527802  158.48100281    1.30999994    1.94000006
   10.60833359  144.61799622    1.30999994    1.94000006
   10.60944462  148.15499878    1.30999994    1.94000006
   10.61194515  148.21099854    1.30999994    1.94000006
   10.61527824  142.22000122    1.30999994    1.96000004
   10.61861134  156.42399597    1.30999994    1.96000004
   10.62166691  132.21499634    1.30999994    1.96000004
   10.62500000  147.69299316    1.30999994    1.96000004
   10.62833309  140.61900330    1.30999994    1.96000004
   10.63444424  140.61900330    1.28999996    1.98000002
   10.63833332  133.13600159    1.28999996    1.98000002
   10.64166641  133.11300659    1.30999994    1.98000002
   10.64277744  142.90499878    1.30999994    1.98000002
   10.64527798  134.72700500    1.28999996    2.00000000
   10.64861107  149.68499756    1.28999996    1.98000002
   10.65166664  136.73100281    1.28999996    1.98000002
   10.65499973  162.62100220    1.28999996    2.00000000
   10.65833282  169.96400452    1.28999996    2.00000000
   10.66138840  151.08799744    1.26999998    2.00000000
   10.66472149  143.88699341    1.26999998    2.01999998
   10.66777802  169.41000366    1.26999998    2.01999998
   10.67111111  140.29899597    1.26999998    2.01999998
   10.67722225  140.29899597    1.26999998    2.01999998
   10.68138885  158.11199951    1.26999998    2.01999998
   10.68444443  135.63699341    1.26999998    2.01999998
   10.68777752  132.91200256    1.26999998    2.01999998
   10.69111156  114.58699799    1.26999998    2.03999996
   10.69444466  116.86900330    1.25000000    2.03999996
   10.69750023  120.62899780    1.26999998    2.03999996
   10.70083332  135.61099243    1.25000000    2.03999996
   10.70388889  138.64399719    1.25000000    2.03999996
   10.70722198  128.61199951    1.25000000    2.03999996
   10.70944405  148.94500732    1.25000000    2.05999994
   10.71083355  138.05200195    1.25000000    2.05999994
   10.71416664  127.62100220    1.23000002    2.05999994
   10.71999931  127.62100220    1.23000002    2.05999994
   10.72416592  128.95300293    1.23000002    2.05999994
   10.72749996  117.82099915    1.23000002    2.05999994
   10.73055553  129.81300354    1.23000002    2.07999992
   10.73388958  122.97299957    1.21000004    2.07999992
   10.73722267  122.01999664    1.21000004    2.07999992
   10.74027824  130.83700562    1.21000004    2.07999992
   10.74277782  123.65000153    1.21000004    2.07999992
   10.74388885  133.94400024    1.19000006    2.09999990
   10.74722290  126.69200134    1.21000004    2.07999992
   10.75027752  112.91000366    1.21000004    2.07999992
   10.75361156  124.26599884    1.19000006    2.09999990
   10.75694466  137.01100159    1.19000006    2.09999990
   10.76277733  137.01100159    1.19000006    2.09999990
   10.76694393  128.03599548    1.16999996    2.09999990
   10.77027798  121.84500122    1.16999996    2.09999990
   10.77333355  114.53700256    1.16999996    2.11999989
   10.77611065  122.53600311    1.16999996    2.11999989
   10.77694416  124.43900299    1.16999996    2.11999989
   10.78027725  122.79699707    1.16999996    2.11999989
   10.78361130  126.58399963    1.16999996    2.11999989
   10.78666687  112.93900299    1.16999996    2.13000011
   10.79000092  134.19099426    1.16999996    2.11999989
   10.79305553  130.09599304    1.16999996    2.11999989
   10.79638958  128.88499451    1.14999998    2.13000011
   10.79972267  123.87599945    1.14999998    2.13000011
   10.80583382  123.87599945    1.14999998    2.13000011
   10.80972195  116.47599792    1.14999998    2.13000011
   10.81305599  130.18099976    1.13000000    2.13000011
   10.81638908  118.30699921    1.14999998    2.13000011
   10.81944466  112.90899658    1.14999998    2.15000010
   10.82277775  113.79000092    1.14999998    2.13000011
   10.82611084  114.93199921    1.13000000    2.15000010
   10.82916641  127.07199860    1.13000000    2.15000010
   10.83249950  126.42500305    1.13000000    2.15000010
   10.83555508  114.48799896    1.13000000    2.15000010
   10.83888817  124.94200134    1.13000000    2.15000010
   10.84222221  120.41200256    1.11000001    2.15000010
   10.84277725  111.63300323    1.11000001    2.15000010
   10.84861088  111.63300323    1.11000001    2.17000008
   10.85277843  111.35099792    1.11000001    2.17000008
   10.85583401  119.74199677    1.11000001    2.17000008
   10.85916710  121.63700104    1.11000001    2.17000008
   10.86250019  123.21099854    1.11000001    2.17000008
   10.86555576  119.91799927    1.11000001    2.17000008
   10.86888885  117.10199738    1.11000001    2.17000008
   10.87194443  116.40599823    1.11000001    2.19000006
   10.87527752  115.28399658    1.11000001    2.19000006
   10.87611103  119.53900146    1.09000003    2.19000006
   10.87888908  127.95300293    1.09000003    2.19000006
   10.88222218  107.48000336    1.09000003    2.19000006
   10.88527775  113.75599670    1.09000003    2.19000006
   10.89138889  113.75599670    1.09000003    2.21000004
   10.89555550  113.26499939    1.07000005    2.21000004
   10.89888859  102.52500153    1.09000003    2.21000004
   10.90194416  113.09400177    1.07000005    2.21000004
   10.90527725  110.58999634    1.07000005    2.21000004
   10.90833282  113.79199982    1.07000005    2.21000004
   10.90972137  117.28700256    1.07000005    2.21000004
   10.91194439  106.85600281    1.05999994    2.21000004
   10.91527748  117.24900055    1.05999994    2.21000004
   10.91861153  111.61900330    1.05999994    2.23000002
   10.92166710  111.53800201    1.05999994    2.23000002
   10.92500019  110.97299957    1.05999994    2.23000002
   10.92805576  107.29799652    1.05999994    2.23000002
   10.93416691  107.29799652    1.03999996    2.23000002
   10.93833351  105.22499847    1.03999996    2.23000002
   10.94166660  111.85900116    1.03999996    2.23000002
   10.94305515  117.48100281    1.03999996    2.23000002
   10.94527817  105.26499939    1.01999998    2.23000002
   10.94861126  109.62999725    1.01999998    2.23000002
   10.95194435   95.04340363    1.01999998    2.25000000
   10.95499992  108.19699860    1.01999998    2.25000000
   10.95833302   99.82959747    1.01999998    2.25000000
   10.96166611   98.39820099    1.01999998    2.25000000
   10.96472168  110.82399750    1.01999998    2.25000000
   10.96805477  114.62799835    1.01999998    2.25000000
   10.97111034  106.45700073    1.01999998    2.25000000
   10.97722149  106.45700073    1.00000000    2.25000000
   10.98111057  102.91300201    1.00000000    2.25000000
   10.98444462  100.23899841    1.00000000    2.25000000
   10.98777771  102.93900299    1.00000000    2.26999998
   10.99111176  111.91300201    1.00000000    2.26999998
   10.99416733  104.32700348    1.00000000    2.26999998
   10.99750042  104.72599792    1.00000000    2.26999998
   11.00083351   93.93599701    1.00000000    2.26999998
   11.00388908   99.00039673    1.00000000    2.26999998
   11.00722218  104.82900238    1.00000000    2.26999998
   11.00972176   95.10289764    0.98000002    2.26999998
   11.01083374  104.10500336    0.98000002    2.26999998
   11.01416683  100.94799805    0.98000002    2.26999998
   11.01999950  100.94799805    0.98000002    2.28999996
   11.02416611   96.41410065    0.98000002    2.28999996
   11.02750015   90.23699951    1.00000000    2.28999996
   11.03055573   95.28420258    0.98000002    2.30999994
   11.03388977   92.55429840    0.98000002    2.28999996
   11.03722286  102.30300140    0.98000002    2.28999996
   11.04027843  105.50700378    0.98000002    2.28999996
   11.04305553  102.59899902    0.98000002    2.30999994
   11.04388905   94.03659821    0.98000002    2.30999994
   11.04722309  100.60800171    0.98000002    2.30999994
   11.05027771   99.36540222    0.98000002    2.30999994
   11.05361176   89.48059845    0.98000002    2.30999994
   11.05694485  100.25299835    0.98000002    2.30999994
   11.06277752  100.25299835    0.98000002    2.30999994
   11.06694412   92.31109619    0.95999998    2.30999994
   11.07027817   89.50009918    0.95999998    2.30999994
   11.07333374  101.75199890    0.95999998    2.30999994
   11.07638836   92.08380127    0.95999998    2.30999994
   11.07694435   93.58339691    0.98000002    2.30999994
   11.08027744   99.71549988    0.95999998    2.30999994
   11.08333302   93.16549683    0.95999998    2.30999994
   11.08666611   91.11080170    0.95999998    2.30999994
   11.09000015   90.04360199    0.95999998    2.30999994
   11.09305477   91.41639709    0.95999998    2.30999994
   11.09638882   93.02259827    0.94000000    2.32999992
   11.09972191   93.11430359    0.94000000    2.32999992
   11.10555553   93.11430359    0.94000000    2.32999992
   11.10972214   94.94689941    0.94000000    2.32999992
   11.11305618   95.38289642    0.94000000    2.32999992
   11.11638927   96.41159821    0.92000002    2.32999992
   11.11944485   94.25559998    0.94000000    2.32999992
   11.12277794   95.13269806    0.92000002    2.34999990
   11.12583351   96.21540070    0.92000002    2.32999992
   11.12916660  100.24299622    0.92000002    2.34999990
   11.13249969   94.84339905    0.92000002    2.34999990
   11.13555527   91.16130066    0.92000002    2.32999992
   11.13888836   90.58730316    0.92000002    2.34999990
   11.14222240   91.12640381    0.89999998    2.34999990
   11.14305496   92.74980164    0.89999998    2.34999990
   11.14861107   92.74980164    0.89999998    2.34999990
   11.15249920  103.43099976    0.89999998    2.34999990
   11.15583324   93.56220245    0.89999998    2.34999990
   11.15916634   93.18389893    0.89999998    2.34999990
   11.16222191  102.62000275    0.89999998    2.36999989
   11.16555500   99.32980347    0.89999998    2.36999989
   11.16888905   98.46880341    0.89999998    2.36999989
   11.17194462   99.28610229    0.89999998    2.36999989
   11.17527771   98.32869720    0.89999998    2.36999989
   11.17638874   94.93869781    0.89999998    2.36999989
   11.17888927   90.89029694    0.89999998    2.36999989
   11.18222237   98.22339630    0.88000000    2.36999989
   11.18555546   97.31300354    0.88000000    2.36999989
   11.19138908   97.31300354    0.88000000    2.36999989
   11.19555569  100.97000122    0.88000000    2.39000010
   11.19861126  101.44400024    0.88000000    2.39000010
   11.20194435   98.58350372    0.88000000    2.39000010
   11.20527744  100.97000122    0.88000000    2.39000010
   11.20833302  107.83300018    0.88000000    2.39000010
   11.20972157  111.88099670    0.88000000    2.39000010
   11.21194458  106.46700287    0.88000000    2.39000010
   11.21527767  112.32099915    0.88000000    2.39000010
   11.21861076  108.34300232    0.88000000    2.39000010
   11.22166634   99.99230194    0.86000001    2.39000010
   11.22499943  102.22499847    0.86000001    2.40000010
   11.22833252   95.00509644    0.86000001    2.39000010
   11.23416710   95.00509644    0.86000001    2.40000010
   11.23833370  102.33899689    0.86000001    2.40000010
   11.24166679  100.40399933    0.86000001    2.40000010
   11.24305534   98.79940033    0.86000001    2.40000010
   11.24499989  101.66200256    0.83999997    2.40000010
   11.24833393  103.97100067    0.83999997    2.40000010
   11.25166702   95.60209656    0.83999997    2.40000010
   11.25472260  101.04599762    0.83999997    2.40000010
   11.25805569   96.56980133    0.83999997    2.40000010
   11.26138878   95.45349884    0.83999997    2.40000010
   11.26444435  101.11599731    0.83999997    2.40000010
   11.26777744  113.53299713    0.83999997    2.40000010
   11.27083302  100.08399963    0.81999999    2.40000010
   11.27694416  100.08399963    0.81999999    2.42000008
   11.28111076  108.75000000    0.81999999    2.40000010
   11.28444481  102.72499847    0.80000001    2.40000010
   11.28750038  105.43399811    0.80000001    2.42000008
   11.29083347  105.16600037    0.81999999    2.42000008
   11.29416752  118.01799774    0.80000001    2.42000008
   11.29722309  107.20600128    0.80000001    2.42000008
   11.30055618  101.37999725    0.80000001    2.44000006
   11.30388927   99.14540100    0.80000001    2.42000008
   11.30694485  108.47200012    0.80000001    2.42000008
   11.30972195  104.59600067    0.79000002    2.44000006
   11.31055546  102.62699890    0.80000001    2.42000008
   11.31388950  101.65499878    0.79000002    2.42000008
   11.31972218  101.65499878    0.79000002    2.42000008
   11.32388878   93.01470184    0.79000002    2.44000006
   11.32722187  104.54100037    0.79000002    2.44000006
   11.33055592  101.79100037    0.79000002    2.42000008
   11.33361053   94.05470276    0.79000002    2.44000006
   11.33694458  108.67800140    0.79000002    2.44000006
   11.34027767  105.17099762    0.79000002    2.44000006
   11.34305477  106.46299744    0.79000002    2.46000004
   11.34361076  101.59400177    0.79000002    2.44000006
   11.34694386  100.04499817    0.79000002    2.44000006
   11.35027790  105.79599762    0.79000002    2.46000004
   11.35333347  108.80400085    0.79000002    2.44000006
   11.35666752  104.18699646    0.79000002    2.46000004
   11.36277771  104.18699646    0.79000002    2.46000004
   11.36694431  109.49199677    0.79000002    2.46000004
   11.36999989  101.49700165    0.79000002    2.46000004
   11.37333393  109.33499908    0.79000002    2.44000006
   11.37638855  107.01499939    0.79000002    2.46000004
   11.37694454  108.85900116    0.79000002    2.46000004
   11.38027763  112.74600220    0.79000002    2.46000004
   11.38361073  115.48200226    0.79000002    2.46000004
   11.38666630  102.21800232    0.79000002    2.46000004
   11.39000034  106.61299896    0.79000002    2.46000004
   11.39305496  102.19599915    0.76999998    2.46000004
   11.39638901  101.62699890    0.79000002    2.48000002
   11.39972210  114.10399628    0.76999998    2.46000004
   11.40555477  114.10399628    0.79000002    2.48000002
   11.40972137  107.23500061    0.76999998    2.46000004
   11.42916679  106.63600159    0.75000000    2.46000004
   11.43249989  116.93900299    0.75000000    2.46000004
   11.43583298  115.18699646    0.75000000    2.48000002
   11.43888855  100.12300110    0.75000000    2.48000002
   11.44222260  105.61499786    0.75000000    2.48000002
   11.44305515  100.65399933    0.76999998    2.48000002
   11.44833374  100.65399933    0.75000000    2.48000002
   11.45249939  105.43299866    0.75000000    2.48000002
   11.45583344   97.60240173    0.73000002    2.48000002
   11.45888901  108.65599823    0.73000002    2.48000002
   11.46222210  104.03900146    0.75000000    2.48000002
   11.46555519  117.07099915    0.75000000    2.48000002
   11.46861076  104.10500336    0.73000002    2.48000002
   11.47194386  105.87100220    0.75000000    2.48000002
   11.47527695  108.30400085    0.73000002    2.48000002
   11.47638798  114.33699799    0.73000002    2.48000002
   11.47888851  103.18199921    0.73000002    2.48000002
   11.48194408  108.92099762    0.73000002    2.48000002
   11.48527813  121.56400299    0.73000002    2.50000000
   11.49138927  121.56400299    0.70999998    2.50000000
   11.49527836  119.70200348    0.70999998    2.50000000
   11.49861145  113.31500244    0.70999998    2.50000000
   11.50194454  114.43199921    0.70999998    2.50000000
   11.50500011  105.31400299    0.70999998    2.50000000
   11.50833321  116.21600342    0.70999998    2.50000000
   11.50972176  117.41200256    0.70999998    2.50000000
   11.51194477  116.53399658    0.70999998    2.50000000
   11.51527786  112.43099976    0.70999998    2.51999998
   11.51861095  122.32399750    0.70999998    2.50000000
   11.52166653  111.18000031    0.70999998    2.50000000
   11.52499962  106.80999756    0.69000000    2.50000000
   11.52833271  112.70899963    0.69000000    2.51999998
   11.53416729  112.70899963    0.69000000    2.50000000
   11.53833389  111.91699982    0.70999998    2.51999998
   11.54138947  107.68499756    0.69000000    2.51999998
   11.54305553  116.03500366    0.69000000    2.51999998
   11.54500008  107.17099762    0.69000000    2.51999998
   11.54833412  112.02100372    0.69000000    2.51999998
   11.55166721  112.91600037    0.67000002    2.51999998
   11.55472279  114.12599945    0.67000002    2.51999998
   11.55805588  120.11900330    0.67000002    2.51999998
   11.56138897  118.51200104    0.67000002    2.51999998
   11.56444454  107.48000336    0.69000000    2.51999998
   11.56777763  113.37599945    0.67000002    2.51999998
   11.57083321  103.67099762    0.67000002    2.51999998
   11.57694435  103.67099762    0.67000002    2.51999998
   11.58111095  108.17199707    0.67000002    2.51999998
   11.58416653  121.45099640    0.69000000    2.51999998
   11.58749962  106.58599854    0.67000002    2.51999998
   11.59083271   99.07150269    0.69000000    2.51999998
   11.59388828   98.82469940    0.67000002    2.53999996
   11.59722233   94.17259979    0.67000002    2.53999996
   11.60055637  100.34300232    0.69000000    2.53999996
   11.60361195  103.32800293    0.69000000    2.53999996
   11.60694504  112.43299866    0.69000000    2.53999996
   11.60972214  105.84999847    0.69000000    2.55999994
   11.61027813   99.60700226    0.67000002    2.53999996
   11.61361122  100.83399963    0.69000000    2.53999996
   11.61972237  100.83399963    0.67000002    2.53999996
   11.62388897   92.23459625    0.67000002    2.53999996
   11.62722206   94.55809784    0.64999998    2.53999996
   11.63027763  106.86299896    0.64999998    2.53999996
   11.63361073  102.53099823    0.64999998    2.53999996
   11.63694477  105.06199646    0.64999998    2.55999994
   11.64000034   98.29160309    0.63000000    2.53999996
   11.64305496  105.72200012    0.63000000    2.55999994
   11.64361095   99.35569763    0.63000000    2.53999996
   11.64694405  103.01799774    0.63000000    2.53999996
   11.65027714   97.20140076    0.64999998    2.55999994
   11.65333271  100.02799988    0.63000000    2.53999996
   11.65666676   95.45709991    0.63000000    2.53999996
   11.66277695   95.45709991    0.63000000    2.53999996
   11.66666698   94.73770142    0.63000000    2.53999996
   11.67000008   95.27130127    0.63000000    2.55999994
   11.67333412  104.79499817    0.63000000    2.55999994
   11.67638874   92.47029877    0.63000000    2.55999994
   11.67666721   99.82489777    0.63000000    2.55999994
   11.68000031   97.58309937    0.63000000    2.55999994
   11.68333340   93.97029877    0.63000000    2.55999994
   11.68638897   87.76740265    0.63000000    2.55999994
   11.68972206   96.23500061    0.63000000    2.55999994
   11.69305515  101.80500031    0.63000000    2.55999994
   11.69611073   99.17710114    0.63000000    2.55999994
   11.69944477   98.33000183    0.63000000    2.55999994
   11.70555496   98.33000183    0.63000000    2.55999994
   11.70972157  102.14499664    0.63000000    2.55999994
   11.71027756   90.76119995    0.63000000    2.55999994
   11.71333313   97.98970032    0.63000000    2.55999994
   11.71666622  103.33300018    0.63000000    2.57999992
   11.71972179   93.94789886    0.63000000    2.55999994
   11.72305489   92.91690063    0.63000000    2.55999994
   11.72638798   95.00900269    0.63000000    2.57999992
   11.72944355   92.18199921    0.63000000    2.57999992
   11.73277760   99.07360077    0.63000000    2.57999992
   11.73583317  100.33999634    0.63000000    2.55999994
   11.73916721   97.21440125    0.63000000    2.57999992
   11.74250031  101.93599701    0.63000000    2.57999992
   11.74305534   97.04119873    0.63000000    2.57999992
   11.74833393   97.04119873    0.63000000    2.57999992
   11.75249958  102.26200104    0.61000001    2.57999992
   11.75555515   93.83799744    0.61000001    2.57999992
   11.75888920   89.97190094    0.61000001    2.57999992
   11.76222229   96.68129730    0.61000001    2.57999992
   11.76527786   97.70469666    0.61000001    2.57999992
   11.76861095   89.78559875    0.61000001    2.59999990
   11.77194405  102.49199677    0.61000001    2.57999992
   11.77499962   96.78939819    0.61000001    2.57999992
   11.77638817   94.24330139    0.58999997    2.59999990
   11.77888870   95.56099701    0.58999997    2.59999990
   11.78194427   95.01940155    0.58999997    2.57999992
   11.78527832   93.34739685    0.58999997    2.59999990
   11.79111195   93.34739685    0.58999997    2.57999992
   11.79527855   96.33630371    0.58999997    2.57999992
   11.79861164   97.81739807    0.61000001    2.57999992
   11.80166721   89.68099976    0.61000001    2.57999992
   11.80500031   95.46340179    0.58999997    2.59999990
   11.80833340   89.02790070    0.61000001    2.59999990
   11.80972195   87.30079651    0.58999997    2.59999990
   11.81194496   86.37969971    0.58999997    2.59999990
   11.81500053   91.85910034    0.56999999    2.59999990
   11.81833363   84.20770264    0.56999999    2.59999990
   11.82138920   87.80829620    0.58999997    2.59999990
   11.82472229   89.14299774    0.56999999    2.59999990
   11.82805538   82.65519714    0.56999999    2.59999990
   11.83416653   82.65519714    0.56999999    2.59999990
   11.83805561   90.75530243    0.56999999    2.59999990
   11.84138870   85.62550354    0.55000001    2.59999990
   11.84305477   85.04840088    0.56999999    2.59999990
   11.84499931   86.13520050    0.56999999    2.59999990
   11.84805489   88.89309692    0.56999999    2.61999989
   11.85138893   86.49620056    0.56999999    2.61999989
   11.85444450   88.72740173    0.56999999    2.61999989
   11.85777855   89.24250031    0.56999999    2.59999990
   11.86111164   86.18910217    0.56999999    2.61999989
   11.86416721   94.94349670    0.56999999    2.59999990
   11.86750031   91.92259979    0.56999999    2.61999989
   11.87083340   89.29100037    0.56999999    2.59999990
   11.87694454   89.29100037    0.56999999    2.61999989
   11.88111115   94.60179901    0.56999999    2.61999989
   11.88416672   91.74810028    0.56999999    2.64000010
   11.88749981   87.21029663    0.56999999    2.61999989
   11.89083290   91.12960052    0.56999999    2.61999989
   11.89388847   92.70719910    0.56999999    2.61999989
   11.89722252   93.01280212    0.56999999    2.61999989
   11.90027714   87.32109833    0.55000001    2.61999989
   11.90361118   89.89389801    0.55000001    2.61999989
   11.90694427   90.94809723    0.55000001    2.61999989
   11.90972137   92.83010101    0.55000001    2.61999989
   11.91055489   93.71939850    0.55000001    2.61999989
   11.91361046   92.31340027    0.55000001    2.61999989
   11.91972256   92.31340027    0.55000001    2.64000010
   11.92388916   90.14459991    0.52999997    2.61999989
   11.92722225   88.09970093    0.52999997    2.61999989
   11.93027782  104.48100281    0.55000001    2.61999989
   11.93361092   93.54380035    0.52999997    2.61999989
   11.93666649   93.04270172    0.52999997    2.61999989
   11.94000053   89.83350372    0.52999997    2.61999989
   11.94305515   93.37550354    0.52999997    2.64000010
   11.94388866   90.36309814    0.52999997    2.61999989
   11.94694424   91.58100128    0.52999997    2.61999989
   11.95027733   88.79419708    0.52999997    2.61999989
   11.95333290   83.15730286    0.55000001    2.64000010
   11.95666695   88.53009796    0.55000001    2.64000010
   11.96249962   88.53009796    0.55000001    2.64000010
   11.96666622   81.70590210    0.55000001    2.64000010
   11.96999931   84.47889709    0.55000001    2.64000010
   11.97305489   81.65019989    0.55000001    2.64000010
   11.97638798   81.83640289    0.52999997    2.64000010
   11.97694397   82.84279633    0.55000001    2.64000010
   11.97999954   82.54689789    0.52999997    2.64000010
   11.98333359   85.44259644    0.52999997    2.64000010
   11.98638916   87.17610168    0.55000001    2.64000010
   11.98972225   79.32990265    0.55000001    2.64000010
   11.99305534   85.88150024    0.55000001    2.61999989
   11.99611092   87.95159912    0.55000001    2.64000010
   11.99944496   87.33580017    0.55000001    2.64000010
   12.00555515   87.33580017    0.52999997    2.64000010
   12.00944424   89.69190216    0.55000001    2.64000010
   12.01000023   92.63030243    0.52999997    2.64000010
   12.01333332   87.29340363    0.52999997    2.66000009
   12.01666641   84.75499725    0.55000001    2.64000010
   12.01972198   83.22299957    0.52999997    2.64000010
   12.02305508   88.97689819    0.52999997    2.64000010
   12.02611065   86.68830109    0.52999997    2.64000010
   12.02944374   82.85089874    0.52999997    2.64000010
   12.03277779   84.12999725    0.55000001    2.64000010
   12.03583336   88.38390350    0.55000001    2.66000009
   12.03916740   83.53389740    0.55000001    2.64000010
   12.04250050   82.27909851    0.52999997    2.66000009
   12.04333401   82.40619659    0.52999997    2.66000009
   12.04833412   82.40619659    0.52999997    2.66000009
   12.05249977   84.11769867    0.52999997    2.64000010
   12.05555534   91.39179993    0.52999997    2.66000009
   12.05888939   94.20220184    0.55000001    2.66000009
   12.06222248   92.49559784    0.52999997    2.64000010
   12.06527805   87.50520325    0.55000001    2.66000009
   12.06861115   97.51080322    0.55000001    2.66000009
   12.07166672   90.82849884    0.52999997    2.64000010
   12.07499981   85.46019745    0.55000001    2.66000009
   12.07666683   85.38939667    0.55000001    2.66000009
   12.07861137   85.17179871    0.55000001    2.66000009
   12.08194447   87.86609650    0.55000001    2.66000009
   12.08500004   88.21410370    0.55000001    2.66000009
   12.09111118   88.21410370    0.55000001    2.66000009
   12.09527779   87.43849945    0.55000001    2.66000009
   12.09833336   95.17939758    0.55000001    2.66000009
   12.10166740   85.85140228    0.55000001    2.66000009
   12.10500050   87.03019714    0.55000001    2.66000009
   12.10805607   89.23989868    0.56999999    2.66000009
   12.11000061   84.98719788    0.56999999    2.66000009
   12.11166668   88.12570190    0.56999999    2.66000009
   12.11500072   83.69360352    0.56999999    2.66000009
   12.11805534   88.61399841    0.56999999    2.66000009
   12.12138939   88.57260132    0.56999999    2.66000009
   12.12444496   84.61440277    0.56999999    2.66000009
   12.12777805   84.79470062    0.56999999    2.66000009
   12.13388920   84.79470062    0.55000001    2.67000008
   12.13805580   81.72550201    0.55000001    2.67000008
   12.14138889   84.07689667    0.56999999    2.67000008
   12.14333344   86.32929993    0.55000001    2.66000009
   12.14499950   85.62960052    0.55000001    2.66000009
   12.14833355   83.64769745    0.56999999    2.66000009
   12.15138817   81.13220215    0.55000001    2.67000008
   12.15472221   88.01740265    0.55000001    2.67000008
   12.15805531   94.55130005    0.55000001    2.66000009
   12.16111088   90.83589935    0.55000001    2.67000008
   12.16444397   92.77279663    0.55000001    2.67000008
   12.16750050   90.74340057    0.55000001    2.69000006
   12.17083359   84.26429749    0.55000001    2.67000008
   12.17694473   84.26429749    0.55000001    2.67000008
   12.18083382   94.41059875    0.55000001    2.67000008
   12.18416691   83.26940155    0.55000001    2.67000008
   12.18750000   84.06469727    0.56999999    2.67000008
   12.19055557   85.08439636    0.55000001    2.67000008
   12.19388866   88.33619690    0.55000001    2.67000008
   12.19722271   88.84760284    0.55000001    2.67000008
   12.20027733   85.33059692    0.55000001    2.69000006
   12.20361137   84.03050232    0.55000001    2.67000008
   12.20666695   88.57129669    0.56999999    2.67000008
   12.21000004   86.36799622    0.56999999    2.67000008
   12.21055508   90.51989746    0.56999999    2.67000008
   12.21388912   83.90070343    0.56999999    2.67000008
   12.21972179   83.90070343    0.55000001    2.67000008
   12.22388840   91.14929962    0.55000001    2.67000008
   12.22694397   84.57089996    0.56999999    2.67000008
   12.23027706   87.13510132    0.55000001    2.69000006
   12.23333359   86.02279663    0.55000001    2.67000008
   12.23666668   92.96890259    0.55000001    2.69000006
   12.24000072   88.12930298    0.55000001    2.69000006
   12.24333382   87.99579620    0.55000001    2.67000008
   12.24388885   83.30130005    0.55000001    2.67000008
   12.24694443   88.17990112    0.55000001    2.67000008
   12.25000000   96.45520020    0.55000001    2.67000008
   12.25333309   80.45120239    0.55000001    2.69000006
   12.25666714   83.48490143    0.52999997    2.67000008
   12.26249981   83.48490143    0.55000001    2.67000008
   12.26666641   79.55860138    0.52999997    2.69000006
   12.26972198   85.43419647    0.52999997    2.69000006
   12.27305508   83.59639740    0.51999998    2.69000006
   12.27638817   82.54010010    0.51999998    2.69000006
   12.27722168   80.79419708    0.51999998    2.71000004
   12.27999973   85.89279938    0.51999998    2.69000006
   12.28305531   81.43879700    0.51999998    2.67000008
   12.28638935   83.34259796    0.51999998    2.69000006
   12.28972244   82.64129639    0.51999998    2.69000006
   12.29277802   86.17980194    0.51999998    2.69000006
   12.29611111   86.11920166    0.51999998    2.69000006
   12.29944515   87.66439819    0.51999998    2.69000006
   12.30527782   87.66439819    0.52999997    2.69000006
   12.30944443   82.27780151    0.52999997    2.69000006
   12.31055546   82.07510376    0.52999997    2.71000004
   12.31305599   88.79219818    0.52999997    2.71000004
   12.31611156   83.78900146    0.52999997    2.71000004
   12.31944466   89.43360138    0.52999997    2.71000004
   12.32277775   86.47209930    0.52999997    2.69000006
   12.32583332   88.72229767    0.52999997    2.69000006
   12.32916641   86.91239929    0.52999997    2.69000006
   12.33249950   83.94580078    0.51999998    2.69000006
   12.33555508   83.79239655    0.51999998    2.69000006
   12.33888817   82.64949799    0.51999998    2.69000006
   12.34194374   86.53559875    0.51999998    2.71000004
   12.34388828   83.49330139    0.51999998    2.71000004
   12.34833336   83.49330139    0.51999998    2.71000004
   12.35222244   83.60009766    0.51999998    2.69000006
   12.35555553   84.90519714    0.50000000    2.69000006
   12.35888958   84.88659668    0.50000000    2.71000004
   12.36194515   83.36180115    0.51999998    2.71000004
   12.36527824   82.12270355    0.50000000    2.69000006
   12.36861134   84.21299744    0.50000000    2.69000006
   12.37166691   85.69950104    0.50000000    2.71000004
   12.37500000   84.38629913    0.50000000    2.71000004
   12.37750053   85.51239777    0.50000000    2.71000004
   12.37861156   81.92030334    0.50000000    2.71000004
   12.38194466   84.95410156    0.51999998    2.71000004
   12.38527775   84.19170380    0.51999998    2.71000004
   12.39111137   84.19170380    0.52999997    2.71000004
   12.39527798   90.38700104    0.51999998    2.71000004
   12.39833355   86.01550293    0.52999997    2.71000004
   12.40166664   86.21630096    0.51999998    2.71000004
   12.40499973   88.19589996    0.51999998    2.73000002
   12.40805531   81.28690338    0.51999998    2.71000004
   12.41055489   86.05030060    0.51999998    2.71000004
   12.41194439   89.30539703    0.51999998    2.71000004
   12.41499996   89.54620361    0.51999998    2.69000006
   12.41833401   91.30989838    0.51999998    2.71000004
   12.42166710   84.80359650    0.50000000    2.73000002
   12.42472267   90.24089813    0.50000000    2.71000004
   12.42805576   86.63249969    0.51999998    2.71000004
   12.44916630   86.63249969    0.47999999    2.71000004
   12.45333290   82.73390198    0.50000000    2.73000002
   12.45666695   89.40950012    0.50000000    2.71000004
   12.46000004   83.94059753    0.50000000    2.71000004
   12.46305561   86.32330322    0.50000000    2.71000004
   12.46638870   82.96379852    0.50000000    2.71000004
   12.46944427   80.10630035    0.50000000    2.71000004
   12.47277737   85.55809784    0.50000000    2.73000002
   12.47611046   83.66329956    0.50000000    2.73000002
   12.47916603   90.67929840    0.50000000    2.71000004
   12.47999954   81.20030212    0.50000000    2.73000002
   12.48305511   83.47160339    0.50000000    2.73000002
   12.48611164   83.16999817    0.51999998    2.73000002
   12.49194431   83.16999817    0.51999998    2.71000004
   12.49611092   86.21140289    0.50000000    2.71000004
   12.49944496   89.37120056    0.51999998    2.73000002
   12.50249958   85.76750183    0.51999998    2.73000002
   12.50583363   82.48880005    0.51999998    2.73000002
   12.50916672   88.40589905    0.50000000    2.73000002
   12.51222229   85.98169708    0.50000000    2.73000002
   12.51333332   82.20390320    0.50000000    2.73000002
   12.51611137   78.65129852    0.50000000    2.73000002
   12.51916599   81.97740173    0.50000000    2.73000002
   12.52250004   87.92060089    0.50000000    2.73000002
   12.52583313   81.51760101    0.50000000    2.71000004
   12.52888870   88.51490021    0.47999999    2.73000002
   12.53472233   88.51490021    0.47999999    2.75000000
   12.53888893   87.50489807    0.47999999    2.73000002
   12.54222298   89.74269867    0.50000000    2.73000002
   12.54555607   82.14990234    0.47999999    2.73000002
   12.54694462   88.84510040    0.47999999    2.73000002
   12.54916668   90.04270172    0.47999999    2.73000002
   12.55222225   86.29209900    0.47999999    2.73000002
   12.55555534   82.80370331    0.47999999    2.73000002
   12.55861092   84.04989624    0.47999999    2.73000002
   12.56194496   91.53620148    0.50000000    2.73000002
   12.56527805   89.39980316    0.47999999    2.73000002
   12.56833363   86.56089783    0.47999999    2.73000002
   12.57166672   88.57140350    0.47999999    2.73000002
   12.57777786   88.57140350    0.47999999    2.73000002
   12.58194447   88.30410004    0.47999999    2.73000002
   12.58500004   86.32170105    0.47999999    2.73000002
   12.58833313   85.14689636    0.47999999    2.73000002
   12.59138870   87.01460266    0.47999999    2.75000000
   12.59472179   82.24420166    0.47999999    2.73000002
   12.59805489   89.83460236    0.47999999    2.75000000
   12.60111141   88.47689819    0.47999999    2.73000002
   12.60444450   91.03690338    0.47999999    2.73000002
   12.60777855   84.54930115    0.47999999    2.75000000
   12.61083412   89.34030151    0.47999999    2.75000000
   12.61361122   83.30339813    0.47999999    2.75000000
   12.61472225   88.04000092    0.47999999    2.73000002
   12.62055588   88.04000092    0.47999999    2.75000000
   12.62472248   97.68250275    0.47999999    2.75000000
   12.62777805   89.76399994    0.47999999    2.75000000
   12.63111115   92.12580109    0.47999999    2.75000000
   12.63444424   91.21920013    0.47999999    2.75000000
   12.63749981   92.19589996    0.47999999    2.75000000
   12.64083290   89.44660187    0.47999999    2.75000000
   12.64416695   94.29620361    0.47999999    2.75000000
   12.64694405   92.82060242    0.47999999    2.73000002
   12.64777756   87.70359802    0.47999999    2.73000002
   12.65083313   88.31279755    0.47999999    2.75000000
   12.65416622   87.86530304    0.47999999    2.75000000
   12.65749931   87.77269745    0.46000001    2.75000000
   12.66333294   87.77269745    0.47999999    2.75000000
   12.66750050   90.97979736    0.47999999    2.75000000
   12.67083359   90.87059784    0.47999999    2.75000000
   12.67388916   93.43309784    0.47999999    2.75000000
   12.67722225   96.11730194    0.47999999    2.75000000
   12.68027782   87.50959778    0.47999999    2.75000000
   12.68111134   88.35630035    0.47999999    2.75000000
   12.68416691   84.61470032    0.47999999    2.75000000
   12.68750000   94.01529694    0.46000001    2.75000000
   12.69083309   87.70279694    0.47999999    2.75000000
   12.69388866   91.04340363    0.46000001    2.75000000
   12.69722271   90.54229736    0.47999999    2.75000000
   12.70027733   91.95490265    0.46000001    2.75000000
   12.70611095   91.95490265    0.47999999    2.75000000
   12.71027756   92.50710297    0.46000001    2.75000000
   12.71361065   99.93659973    0.46000001    2.75000000
   12.71416664  100.61799622    0.47999999    2.75000000
   12.71722221  102.09700012    0.46000001    2.75000000
   12.72055531  100.32700348    0.46000001    2.75000000
   12.72388840   93.54570007    0.47999999    2.75000000
   12.72694397   81.26770020    0.47999999    2.75000000
   12.73027706   98.49030304    0.47999999    2.75000000
   12.73333359   90.91190338    0.47999999    2.75000000
   12.73666668   92.60389709    0.47999999    2.76999998
   12.74000072  101.13700104    0.47999999    2.76999998
   12.74305534   89.54579926    0.47999999    2.76999998
   12.74916649   89.54579926    0.47999999    2.75000000
   12.75333309   92.58080292    0.47999999    2.75000000
   12.75638866   85.14330292    0.47999999    2.76999998
   12.75972176   92.09510040    0.47999999    2.75000000
   12.76277733   86.51709747    0.47999999    2.75000000
   12.76611137   96.51619720    0.47999999    2.75000000
   12.76944447   88.74379730    0.47999999    2.75000000
   12.77277756   98.03749847    0.47999999    2.75000000
   12.77583313   91.54609680    0.47999999    2.75000000
   12.77916622   96.21869659    0.47999999    2.76999998
   12.78027725   92.18319702    0.47999999    2.76999998
   12.78277779   93.94349670    0.47999999    2.75000000
   12.78583336   89.26349640    0.47999999    2.75000000
   12.79194450   89.26349640    0.47999999    2.75000000
   12.79611111   95.20269775    0.46000001    2.76999998
   12.79916668   85.91449738    0.46000001    2.75000000
   12.80249977   98.71620178    0.47999999    2.75000000
   12.80583382   97.39649963    0.47999999    2.76999998
   12.80888939   88.91979980    0.47999999    2.75000000
   12.81222248   93.49479675    0.47999999    2.75000000
   12.81361103   91.75420380    0.47999999    2.76999998
   12.81583309   90.13980103    0.47999999    2.75000000
   12.81888866   94.83280182    0.47999999    2.76999998
   12.82222176   89.54429626    0.47999999    2.76999998
   12.82555580   87.85919952    0.47999999    2.76999998
   12.82861137   90.61139679    0.47999999    2.75000000
   12.83472157   90.61139679    0.46000001    2.75000000
   12.83888817   96.68910217    0.46000001    2.76999998
   12.84222221   97.00270081    0.47999999    2.75000000
   12.84527779   94.43340302    0.46000001    2.76999998
   12.84722233   95.24019623    0.47999999    2.76999998
   12.84888840   94.00759888    0.46000001    2.76999998
   12.85222244   95.18150330    0.46000001    2.76999998
   12.85555553  101.24700165    0.44000000    2.76999998
   12.85861111   98.28220367    0.44000000    2.76999998
   12.86194515   94.52100372    0.44000000    2.76999998
   12.86527824   93.15299988    0.46000001    2.76999998
   12.86833382   94.55650330    0.44000000    2.76999998
   12.87166691   93.02110291    0.44000000    2.76999998
   12.87750053   93.02110291    0.46000001    2.76999998
   12.88166714   93.47679901    0.44000000    2.76999998
   12.88500023   92.36910248    0.46000001    2.76999998
   12.88805580   88.86260223    0.44000000    2.76999998
   12.89138889   89.54060364    0.46000001    2.76999998
   12.89472198   98.85829926    0.46000001    2.76999998
   12.89777756   95.59390259    0.47999999    2.76999998
   12.90111065   92.60970306    0.46000001    2.76999998
   12.90444374   88.66889954    0.46000001    2.76999998
   12.90749931   95.10410309    0.46000001    2.76999998
   12.91083336   94.72769928    0.46000001    2.76999998
   12.91388893   97.69339752    0.46000001    2.76999998
   12.91416645   93.68550110    0.46000001    2.76999998
   12.92055607   93.68550110    0.47999999    2.76999998
   12.92444515   95.04409790    0.46000001    2.78999996
   12.92777824   84.17500305    0.46000001    2.76999998
   12.93111134   92.73480225    0.46000001    2.76999998
   12.93416691   92.98799896    0.46000001    2.76999998
   12.93750000   90.12039948    0.46000001    2.78999996
   12.94083309   92.41880035    0.47999999    2.76999998
   12.94388866   87.21119690    0.46000001    2.76999998
   12.94722271   83.44110107    0.47999999    2.76999998
   12.94750023   98.00319672    0.47999999    2.76999998
   12.95083332   92.62969971    0.46000001    2.78999996
   12.95416641   84.24150085    0.46000001    2.76999998
   12.95722198   90.16819763    0.47999999    2.76999998
   12.96333313   90.16819763    0.47999999    2.78999996
   12.96749973   89.42559814    0.47999999    2.76999998
   12.97055531   88.30740356    0.47999999    2.76999998
   12.97388840   90.94409943    0.46000001    2.76999998
   12.97722149   88.13700104    0.46000001    2.76999998
   12.98027706   85.41280365    0.46000001    2.78999996
   12.98083305   88.04850006    0.46000001    2.78999996
   12.98416710   85.98870087    0.46000001    2.76999998
   12.98722267   88.20649719    0.46000001    2.76999998
   12.99055576   89.40609741    0.46000001    2.78999996
   12.99388885   84.42849731    0.47999999    2.78999996
   12.99694443   88.96219635    0.47999999    2.76999998
   13.00027752   94.36710358    0.47999999    2.76999998
   13.00611115   94.36710358    0.47999999    2.76999998
   13.01027775   93.35590363    0.47999999    2.78999996
   13.01361084   88.52179718    0.47999999    2.78999996
   13.01416683   88.46209717    0.47999999    2.78999996
   13.01722240   89.30660248    0.46000001    2.78999996
   13.02055550   88.44940186    0.46000001    2.78999996
   13.02361107   93.38980103    0.46000001    2.76999998
   13.12916660   -1.00000000   -1.00000000   -1.00000000
   13.22388840   -1.00000000   -1.00000000   -1.00000000
   13.32166672   -1.00000000   -1.00000000   -1.00000000
   13.41527748   -1.00000000   -1.00000000   -1.00000000
   13.50916672   -1.00000000   -1.00000000   -1.00000000
   13.60750008   -1.00000000   -1.00000000   -1.00000000
   13.70138836   -1.00000000   -1.00000000   -1.00000000
   13.79638958   -1.00000000   -1.00000000   -1.00000000
   13.89527798   -1.00000000   -1.00000000   -1.00000000
   13.92250061   74.25240326    0.47999999    2.84999990
   13.92583370  105.35600281    0.47999999    2.84999990
   13.92916679   96.48049927    0.47999999    2.86999989
   13.93222237   93.71250153    0.47999999    2.84999990
   13.93555546   93.20089722    0.47999999    2.84999990
   13.93888855   96.30889893    0.47999999    2.84999990
   13.94277763   96.30889893    0.47999999    2.86999989
   13.94694424   88.21179962    0.50000000    2.89000010
   13.95027733   95.78189850    0.51999998    2.84999990
   13.95361137   83.70220184    0.50000000    2.86999989
   13.95583344   92.80549622    0.51999998    2.84999990
   13.95722198   84.50859833    0.51999998    2.84999990
   13.96027756   88.24040222    0.51999998    2.84999990
   13.96361065   93.24649811    0.51999998    2.84999990
   13.96694374   85.90519714    0.51999998    2.84999990
   13.96999931   90.27030182    0.51999998    2.86999989
   13.97333336   95.50229645    0.51999998    2.86999989
   13.97638798   80.46939850    0.51999998    2.86999989
   13.97972202   88.02390289    0.51999998    2.84999990
   13.98583317   88.02390289    0.55000001    2.84999990
   13.99000072   87.12020111    0.55000001    2.86999989
   13.99305534   85.42819977    0.56999999    2.84999990
   13.99638939   93.60379791    0.56999999    2.84999990
   13.99944496   92.12129974    0.58999997    2.84999990
   14.00277805   90.65019989    0.58999997    2.86999989
   14.00611115   90.15290070    0.58999997    2.84999990
   14.00916672   93.00779724    0.58999997    2.84999990
   14.01249981   99.74590302    0.58999997    2.84999990
   14.01583290   87.16639709    0.58999997    2.84999990
   14.01888847   83.77680206    0.56999999    2.86999989
   14.02222157  101.04499817    0.56999999    2.86999989
   14.02277756   91.42549896    0.56999999    2.86999989
   14.02861118   91.42549896    0.55000001    2.86999989
   14.03277779   89.23680115    0.55000001    2.84999990
   14.03583336   86.77739716    0.52999997    2.84999990
   14.03916740   96.70420074    0.52999997    2.84999990
   14.04250050   87.28430176    0.52999997    2.84999990
   14.04555607   89.43070221    0.51999998    2.84999990
   14.04888916   89.14869690    0.51999998    2.84999990
   14.05222225   86.83039856    0.51999998    2.84999990
   14.05555534   89.58309937    0.51999998    2.86999989
   14.05611134   95.67819977    0.51999998    2.86999989
   14.05916691   93.67549896    0.51999998    2.86999989
   14.06250000   92.68139648    0.51999998    2.86999989
   14.06555557   87.31880188    0.50000000    2.84999990
   14.07138920   87.31880188    0.47999999    2.84999990
   14.07555580   92.40660095    0.50000000    2.84999990
   14.07888889   94.04530334    0.46000001    2.86999989
   14.08194447   98.48850250    0.47999999    2.84999990
   14.08527756   91.96430206    0.46000001    2.84999990
   14.08861065   96.50090027    0.46000001    2.86999989
   14.08944416   94.67449951    0.46000001    2.84999990
   14.09222221   96.69570160    0.46000001    2.86999989
   14.09555531  104.48100281    0.44000000    2.84999990
   14.09861088   95.15180206    0.46000001    2.86999989
   14.10194492   94.14600372    0.44000000    2.86999989
   14.10500050  104.95600128    0.46000001    2.86999989
   14.10833359   91.59950256    0.46000001    2.86999989
   14.11416721   91.59950256    0.47999999    2.86999989
   14.11833382   88.84010315    0.46000001    2.84999990
   14.12166691   98.33869934    0.47999999    2.84999990
   14.12277794   92.16120148    0.47999999    2.84999990
   14.12527752   95.57309723    0.47999999    2.86999989
   14.12861156   89.23210144    0.50000000    2.86999989
   14.13166714   89.74880219    0.51999998    2.86999989
   14.13500023   87.64929962    0.52999997    2.86999989
   14.13805580   83.71710205    0.52999997    2.84999990
   14.14138889   84.79010010    0.52999997    2.86999989
   14.14472198   91.21779633    0.51999998    2.86999989
   14.14777756   83.40219879    0.50000000    2.86999989
   14.15111065   90.34290314    0.50000000    2.86999989
   14.15722179   90.34290314    0.52999997    2.86999989
   14.16138840   88.34380341    0.51999998    2.86999989
   14.16444397   86.53060150    0.51999998    2.86999989
   14.16777802   96.37129974    0.52999997    2.86999989
   14.17083359   94.04199982    0.51999998    2.86999989
   14.17416668   98.15409851    0.52999997    2.84999990
   14.17750072   93.53060150    0.55000001    2.84999990
   14.18055630   91.17160034    0.55000001    2.86999989
   14.18388939   86.98190308    0.55000001    2.86999989
   14.18722248  104.10600281    0.55000001    2.86999989
   14.18944454   94.98519897    0.55000001    2.84999990
   14.19083309   93.09020233    0.55000001    2.84999990
   14.19416714   97.50879669    0.56999999    2.84999990
   14.19999981   97.50879669    0.55000001    2.84999990
   14.20416641   96.15579987    0.55000001    2.86999989
   14.20722198   79.57679749    0.55000001    2.86999989
   14.21055508   78.10330200    0.52999997    2.86999989
   14.21388912   85.88050079    0.52999997    2.86999989
   14.21694374   95.34220123    0.51999998    2.86999989
   14.22027779   88.84380341    0.51999998    2.84999990
   14.22277737   91.26860046    0.51999998    2.86999989
   14.22388840   83.20369720    0.50000000    2.86999989
   14.22722149   88.79959869    0.50000000    2.84999990
   14.23027706   98.08959961    0.50000000    2.86999989
   14.23361111   95.89260101    0.50000000    2.86999989
   14.23666668   93.41609955    0.50000000    2.84999990
   14.24277782   93.41609955    0.50000000    2.86999989
   14.24694443   90.99919891    0.50000000    2.86999989
   14.25027752   82.93009949    0.50000000    2.86999989
   14.25333309   82.27249908    0.47999999    2.84999990
   14.25611115   84.88960266    0.47999999    2.86999989
   14.25694466   82.33170319    0.47999999    2.86999989
   14.26027775   91.35169983    0.47999999    2.86999989
   14.26333332   94.62169647    0.47999999    2.86999989
   14.26666641   82.95259857    0.46000001    2.86999989
   14.26999950   89.35330200    0.46000001    2.86999989
   14.27305508   90.82720184    0.46000001    2.86999989
   14.27638817   79.20110321    0.46000001    2.86999989
   14.27944374   83.91200256    0.46000001    2.86999989
   14.28555584   83.91200256    0.47999999    2.86999989
   14.28972244   90.88130188    0.47999999    2.86999989
   14.29305553   82.28079987    0.47999999    2.86999989
   14.29638958   79.92009735    0.47999999    2.86999989
   14.29944515   82.50620270    0.47999999    2.86999989
   14.30277824   87.55439758    0.50000000    2.86999989
   14.30583382   89.15260315    0.47999999    2.86999989
   14.30916691   81.48380280    0.50000000    2.86999989
   14.31250000   84.52549744    0.50000000    2.86999989
   14.31555557   90.42600250    0.50000000    2.84999990
   14.31888866   91.52780151    0.50000000    2.84999990
   14.32222176   82.92440033    0.50000000    2.86999989
   14.32277775   82.25199890    0.50000000    2.86999989
   14.32861137   82.25199890    0.50000000    2.84999990
   14.33277798   92.33209991    0.50000000    2.86999989
   14.33583260   92.34279633    0.50000000    2.86999989
   14.33916664   85.56529999    0.50000000    2.86999989
   14.34222221   90.86009979    0.50000000    2.84999990
   14.34555531   86.71099854    0.50000000    2.86999989
   14.34888840   95.92960358    0.50000000    2.86999989
   14.35194492   91.30570221    0.47999999    2.86999989
   14.35527802   95.32389832    0.47999999    2.86999989
   14.35611153   89.37139893    0.47999999    2.86999989
   14.35888958   93.13200378    0.47999999    2.86999989
   14.36222267   83.51679993    0.47999999    2.86999989
   14.36527824   88.52490234    0.47999999    2.86999989
   14.37138939   88.52490234    0.47999999    2.86999989
   14.37555599   83.49639893    0.47999999    2.86999989
   14.37861156   87.86170197    0.46000001    2.86999989
   14.38194466   85.41690063    0.46000001    2.89000010
   14.38527775   79.08969879    0.46000001    2.86999989
   14.38833332   92.54740143    0.46000001    2.86999989
   14.38944435   87.75959778    0.46000001    2.86999989
   14.39194393   87.83270264    0.46000001    2.86999989
   14.39527798   87.37680054    0.46000001    2.89000010
   14.39833355   87.97570038    0.46000001    2.86999989
   14.40166664   83.64630127    0.46000001    2.86999989
   14.40499973   84.37580109    0.46000001    2.86999989
   14.40805531   90.48380280    0.46000001    2.89000010
   14.41416645   90.48380280    0.46000001    2.86999989
   14.41833401   77.23739624    0.47999999    2.86999989
   14.42166710   87.27619934    0.47999999    2.86999989
   14.42277813   81.35849762    0.47999999    2.86999989
   14.42527771   81.74980164    0.46000001    2.89000010
   14.42861176   90.53769684    0.46000001    2.86999989
   14.43166733   82.08750153    0.44000000    2.86999989
   14.43500042   79.45739746    0.44000000    2.86999989
   14.43833351   91.15209961    0.44000000    2.86999989
   14.44138908   95.01439667    0.41999999    2.89000010
   14.44472218   84.57910156    0.47999999    2.86999989
   14.44777775   93.00370026    0.46000001    2.86999989
   14.45111084   90.29389954    0.47999999    2.89000010
   14.45694447   90.29389954    0.46000001    2.89000010
   14.46111107   94.24279785    0.46000001    2.86999989
   14.46444416   86.24449921    0.46000001    2.89000010
   14.46749973   86.77680206    0.46000001    2.86999989
   14.47083282   91.68090057    0.46000001    2.86999989
   14.47416592   88.41880035    0.46000001    2.86999989
   14.47722149   82.99490356    0.47999999    2.89000010
   14.48055553   88.43229675    0.47999999    2.89000010
   14.48388958  100.84500122    0.47999999    2.89000010
   14.48694515   97.72319794    0.47999999    2.89000010
   14.48944473   98.39260101    0.47999999    2.89000010
   14.49055576   91.69210052    0.47999999    2.89000010
   14.49388885   90.25759888    0.47999999    2.86999989
   14.50000000   90.25759888    0.47999999    2.89000010
   14.50416660   84.72969818    0.46000001    2.86999989
   14.50749969   94.67539978    0.46000001    2.89000010
   14.51055527   88.92569733    0.46000001    2.89000010
   14.51388931   89.74320221    0.46000001    2.86999989
   14.51722240   93.30100250    0.46000001    2.89000010
   14.52027798   84.96430206    0.46000001    2.89000010
   14.52277756   86.57869720    0.46000001    2.86999989
   14.52388859   91.97129822    0.46000001    2.86999989
   14.52722168  100.85199738    0.47999999    2.89000010
   14.53027725   84.69950104    0.46000001    2.86999989
   14.53361130   91.12509918    0.46000001    2.89000010
   14.53694534   87.08429718    0.46000001    2.89000010
   14.54277802   87.08429718    0.46000001    2.86999989
   14.54694462   94.49859619    0.46000001    2.86999989
   14.55000019   89.79750061    0.47999999    2.86999989
   14.55333328   95.15589905    0.47999999    2.86999989
   14.55611134   97.42620087    0.47999999    2.86999989
   14.55694485   97.98590088    0.47999999    2.86999989
   14.56027794   99.07109833    0.47999999    2.86999989
   14.56333351   88.44190216    0.46000001    2.89000010
   14.56666660   79.13249969    0.46000001    2.89000010
   14.56999969   81.03430176    0.46000001    2.86999989
   14.57305527   81.92549896    0.46000001    2.86999989
   14.57638836   91.88970184    0.46000001    2.89000010
   14.57944393   92.65979767    0.46000001    2.86999989
   14.58555508   92.65979767    0.44000000    2.86999989
   14.58972168   85.74120331    0.44000000    2.86999989
   14.59305477   86.51809692    0.44000000    2.91000009
   14.59611034   87.76879883    0.44000000    2.86999989
   14.59944439   89.51840210    0.44000000    2.89000010
   14.60249996   89.87709808    0.44000000    2.89000010
   14.60583401   89.70020294    0.44000000    2.89000010
   14.60916710   90.64129639    0.44000000    2.89000010
   14.61222267   84.08619690    0.44000000    2.86999989
   14.61555576   87.44809723    0.44000000    2.86999989
   14.61888885   87.26959991    0.44000000    2.86999989
   14.62194443   84.38320160    0.44000000    2.86999989
   14.62277794   84.48210144    0.46000001    2.86999989
   14.62833309   84.48210144    0.46000001    2.91000009
   14.63249969   82.50759888    0.44000000    2.91000009
   14.63583279   99.68000031    0.44000000    2.89000010
   14.63888836   86.07589722    0.41999999    2.89000010
   14.64222240   87.59149933    0.41999999    2.89000010
   14.64555550   92.66780090    0.41999999    2.86999989
   14.64861107   93.27760315    0.44000000    2.91000009
   14.65194416   80.04290009    0.41999999    2.89000010
   14.65527725   90.17669678    0.41999999    2.89000010
   14.65611076  101.08699799    0.44000000    2.89000010
   14.65888882   90.44149780    0.44000000    2.86999989
   14.66222191   93.74659729    0.41999999    2.89000010
   14.66527748   81.74669647    0.41999999    2.89000010
   14.67138958   81.74669647    0.41999999    2.86999989
   14.67527771   76.51190186    0.44000000    2.86999989
   14.67861176   79.84680176    0.41999999    2.89000010
   14.68194485   80.67710114    0.44000000    2.89000010
   14.68500042   85.45290375    0.41999999    2.89000010
   14.68833351   94.08489990    0.41999999    2.89000010
   14.68944454   81.85620117    0.41999999    2.86999989
   14.69194412   76.50540161    0.41999999    2.89000010
   14.69527817   94.45490265    0.41999999    2.89000010
   14.69833374   77.56320190    0.41999999    2.89000010
   14.70166683   86.72709656    0.41999999    2.91000009
   14.70499992   83.08470154    0.41999999    2.89000010
   14.70805550   88.97750092    0.41999999    2.89000010
   14.71416664   88.97750092    0.41999999    2.89000010
   14.71833324   86.18689728    0.41999999    2.89000010
   14.72138882   82.85820007    0.41999999    2.89000010
   14.72277737   79.97489929    0.44000000    2.89000010
   14.72499943   81.04560089    0.44000000    2.89000010
   14.72833252   77.47119904    0.44000000    2.89000010
   14.73138809   79.35320282    0.44000000    2.89000010
   14.73472214   82.63449860    0.44000000    2.89000010
   14.73805618   86.31639862    0.41999999    2.89000010
   14.74111176   94.94080353    0.44000000    2.89000010
   14.74444485   86.91130066    0.44000000    2.89000010
   14.74777794   90.20950317    0.44000000    2.89000010
   14.75083351   85.04329681    0.41999999    2.86999989
   14.75694466   85.04329681    0.41999999    2.89000010
   14.76111126   80.55650330    0.44000000    2.89000010
   14.76444435   88.28079987    0.41999999    2.89000010
   14.76749992   89.10340118    0.41999999    2.89000010
   14.77083302   89.01000214    0.44000000    2.89000010
   14.77416611   89.83850098    0.44000000    2.89000010
   14.77722168   81.56690216    0.44000000    2.89000010
   14.78055573   81.68540192    0.44000000    2.89000010
   14.78388977   89.09790039    0.44000000    2.89000010
   14.78694534   89.43640137    0.41999999    2.89000010
   14.78972244   83.06559753    0.44000000    2.89000010
   14.79055595   91.96759796    0.44000000    2.89000010
   14.79388905   83.76409912    0.44000000    2.89000010
   14.79972267   83.76409912    0.41999999    2.86999989
   14.80388927   85.75440216    0.41999999    2.89000010
   14.80722237   79.64929962    0.44000000    2.89000010
   14.81027794   86.35160065    0.46000001    2.89000010
   14.81361103   86.35070038    0.44000000    2.86999989
   14.81694412   86.13269806    0.44000000    2.89000010
   14.81999969   84.20249939    0.44000000    2.86999989
   14.82305527   81.05740356    0.41999999    2.89000010
   14.82361126   84.02130127    0.41999999    2.89000010
   14.82694435   85.49189758    0.41999999    2.86999989
   14.83027744   85.74859619    0.41999999    2.89000010
   14.83333302   77.06009674    0.41999999    2.89000010
   14.83666611   77.22740173    0.41999999    2.89000010
   14.84277725   77.22740173    0.41999999    2.89000010
   14.84666634   85.15940094    0.44000000    2.91000009
   14.85000038   90.04640198    0.41999999    2.89000010
   14.85333347   87.84609985    0.41999999    2.91000009
   14.85638905   89.03450012    0.41999999    2.89000010
   14.85694504   92.22190094    0.41999999    2.89000010
   14.86027813   87.88359833    0.44000000    2.86999989
   14.86333370   92.96779633    0.44000000    2.86999989
   14.86666679   80.17199707    0.41999999    2.89000010
   14.86999989   82.08360291    0.40000001    2.89000010
   14.87305546   92.72329712    0.41999999    2.89000010
   14.87638855   93.67620087    0.40000001    2.89000010
   14.87944412   93.31729889    0.41999999    2.89000010
   14.88555527   93.31729889    0.41999999    2.89000010
   14.88972187   94.91010284    0.41999999    2.89000010
   14.89277744   91.18939972    0.41999999    2.89000010
   14.89611053   85.30549622    0.41999999    2.86999989
   14.89944458   94.40419769    0.41999999    2.89000010
   14.90249920   90.54380035    0.41999999    2.89000010
   14.90583324   87.15599823    0.41999999    2.89000010
   14.90888882   78.94339752    0.41999999    2.89000010
   14.91222191   85.37860107    0.41999999    2.89000010
   14.91555500   86.56549835    0.44000000    2.89000010
   14.91861153   80.50399780    0.41999999    2.86999989
   14.92194462   87.77670288    0.41999999    2.89000010
   14.92305565   84.95420074    0.41999999    2.89000010
   14.94361115   84.95420074    3.14000010    2.71000004
   14.94777775   81.64920044    2.78999996    2.86999989
   14.95111084   89.74089813    1.34000003    2.89000010
   14.95416641   83.68849945    1.26999998    2.86999989
   14.95638847   84.42649841    1.66999996    2.80999994
   14.95777798   89.30030060    2.40000010    2.80999994
   14.96111107   81.73269653    2.61999989    2.80999994
   14.96444416   86.15529633    2.71000004    2.82999992
   14.96749973   80.72979736    1.58000004    2.86999989
   14.97083282   89.11519623    1.33000004    2.86999989
   14.97388840   82.77330017    0.64999998    2.84999990
   14.97722149   84.49530029    0.41999999    2.89000010
   14.98055553   81.81459808    0.41999999    2.89000010
   14.98638916   81.81459808    0.41999999    2.89000010
   14.99055576   81.29769897    0.40000001    2.89000010
   14.99388885   78.44599915    0.40000001    2.89000010
   14.99694443   85.84780121    0.40000001    2.89000010
   15.00027752   89.20300293    0.40000001    2.89000010
   15.00361156   81.80899811    0.40000001    2.89000010
   15.00666714   79.07640076    0.40000001    2.89000010
   15.01000023   80.75710297    0.40000001    2.89000010
   15.01305580   89.68309784    0.40000001    2.91000009
   15.01638889   91.70639801    0.40000001    2.89000010
   15.01972198   85.19539642    0.40000001    2.89000010
   15.02277756   84.61560059    0.40000001    2.86999989
   15.02333355   85.68440247    0.40000001    2.89000010
   15.02916622   85.68440247    0.40000001    2.89000010
   15.03333378   87.47859955    0.40000001    2.89000010
   15.03666687   87.41179657    0.40000001    2.89000010
   15.03972244   86.64320374    0.40000001    2.86999989
   15.04305553   91.72160339    0.40000001    2.89000010
   15.04638958   87.25129700    0.40000001    2.89000010
   15.04944515   87.23490143    0.40000001    2.89000010
   15.05277824   81.51390076    0.40000001    2.89000010
   15.05611134   84.22899628    0.40000001    2.89000010
   15.05666733   88.95490265    0.40000001    2.89000010
   15.05972195   90.41780090    0.40000001    2.89000010
   15.06305599   88.01480103    0.38000000    2.89000010
   15.06611156   83.87400055    0.41999999    2.91000009
   15.07222176   83.87400055    0.40000001    2.91000009
   15.07611084   81.98970032    0.40000001    2.91000009
   15.07944393   76.14700317    0.40000001    2.89000010
   15.08277798   83.79190063    0.40000001    2.91000009
   15.08583260   80.44360352    0.41999999    2.89000010
   15.08916664   80.36830139    0.40000001    2.91000009
   15.09000015   81.91590118    0.40000001    2.89000010
   15.09277725   81.02539825    0.41999999    2.91000009
   15.09611034   83.13569641    0.41999999    2.89000010
   15.09916592   92.87819672    0.44000000    2.89000010
   15.10249996   78.99829865    0.44000000    2.91000009
   15.10555553   81.73069763    0.41999999    2.89000010
   15.10888958   86.72630310    0.41999999    2.89000010
   15.11500072   86.72630310    0.40000001    2.89000010
   15.11916637   85.34290314    0.40000001    2.89000010
   15.12222195   86.55639648    0.38000000    2.89000010
   15.12333393   83.52960205    0.38000000    2.89000010
   15.12583351   84.62409973    0.41999999    2.89000010
   15.12916660   79.23899841    0.41999999    2.89000010
   15.13222218   91.36830139    0.38000000    2.89000010
   15.13555527   86.85130310    0.38000000    2.89000010
   15.13861084   92.01650238    0.40000001    2.89000010
   15.14194393   79.77339935    0.40000001    2.89000010
   15.14527798   83.26200104    0.40000001    2.89000010
   15.14833355   87.67469788    0.38000000    2.89000010
   15.15166664   80.10759735    0.38000000    2.91000009
   15.15777779   80.10759735    0.38000000    2.91000009
   15.16194439   81.88700104    0.36000001    2.91000009
   15.16527748   79.99749756    0.36000001    2.91000009
   15.16833401   85.15090179    0.36000001    2.91000009
   15.17166710   79.93299866    0.36000001    2.89000010
   15.17500019   81.06410217    0.36000001    2.86999989
   15.17805576   82.13320160    0.38000000    2.89000010
   15.18138885   86.61100006    0.36000001    2.91000009
   15.18444443   85.43530273    0.41999999    2.89000010
   15.18777752   88.46070099    0.36000001    2.89000010
   15.19000053   83.01979828    0.36000001    2.89000010
   15.19138908   86.59239960    0.34000000    2.89000010
   15.19472218   86.72049713    0.38000000    2.89000010
   15.20055580   86.72049713    0.36000001    2.91000009
   15.20472240   83.12750244    0.36000001    2.89000010
   15.20805550   82.43450165    0.34000000    2.89000010
   15.21111107   76.66169739    0.31999999    2.89000010
   15.21444416   82.48870087    0.38000000    2.89000010
   15.21777725   84.40709686    0.34000000    2.89000010
   15.22083282   88.61160278    0.34000000    2.89000010
   15.22333336   88.38140106    0.34000000    2.89000010
   15.22444439   93.74400330    0.34000000    2.89000010
   15.22777748   86.33540344    0.36000001    2.89000010
   15.23083305   88.76699829    0.34000000    2.89000010
   15.23416710   84.90730286    0.34000000    2.89000010
   15.23722267   87.81849670    0.36000001    2.91000009
   15.24361134   87.81849670    0.34000000    2.91000009
   15.24777794   78.41000366    0.34000000    2.91000009
   15.25083351   85.40370178    0.34000000    2.89000010
   15.25416660   79.24230194    0.34000000    2.89000010
   15.25666714   84.72760010    0.34000000    2.91000009
   15.25777817   88.79589844    0.34000000    2.91000009
   15.26111126   88.72409821    0.34000000    2.91000009
   15.26416683   87.55879974    0.34000000    2.89000010
   15.26749992   83.85019684    0.34000000    2.89000010
   15.27083302   92.47000122    0.34000000    2.89000010
   15.27388859   90.56559753    0.34000000    2.91000009
   15.27722168   88.72350311    0.36000001    2.91000009
   15.28055573   87.90660095    0.34000000    2.89000010
   15.28638935   87.90660095    0.36000001    2.89000010
   15.29055595   85.67700195    0.34000000    2.91000009
   15.29361153   84.53869629    0.36000001    2.89000010
   15.29694462   81.63970184    0.34000000    2.89000010
   15.30027771   82.62740326    0.34000000    2.89000010
   15.30333328   85.96269989    0.34000000    2.91000009
   15.30666733   81.71640015    0.36000001    2.89000010
   15.31000042   86.56340027    0.36000001    2.89000010
   15.31305599   82.33460236    0.34000000    2.89000010
   15.31638908   84.08409882    0.34000000    2.91000009
   15.31944466   97.63349915    0.34000000    2.89000010
   15.32277775   85.18869781    0.38000000    2.91000009
   15.32333374   87.74400330    0.34000000    2.89000010
   15.32916641   87.74400330    0.34000000    2.91000009
   15.33333302   89.40899658    0.34000000    2.89000010
   15.33666611   92.36329651    0.36000001    2.91000009
   15.33972168   86.57009888    0.34000000    2.91000009
   15.34305477   88.74770355    0.36000001    2.91000009
   15.34611034   96.37969971    0.34000000    2.91000009
   15.34944439   77.15799713    0.36000001    2.89000010
   15.35277843   85.17769623    0.36000001    2.89000010
   15.35583401   87.31099701    0.36000001    2.89000010
   15.35666752   86.93550110    0.36000001    2.89000010
   15.35944462   82.67949677    0.36000001    2.89000010
   15.36277771   78.15309906    0.36000001    2.91000009
   15.36611176   78.86560059    0.36000001    2.91000009
   15.37194443   78.86560059    0.34000000    2.89000010
   15.37611103   86.42700195    0.34000000    2.91000009
   15.37944412   87.63240051    0.34000000    2.91000009
   15.38277817   90.92530060    0.36000001    2.89000010
   15.38583279   82.30390167    0.34000000    2.91000009
   15.38916683   89.36039734    0.34000000    2.91000009
   15.39000034   85.66680145    0.34000000    2.91000009
   15.39277744   90.83950043    0.34000000    2.91000009
   15.39611053   86.32089996    0.36000001    2.89000010
   15.39916611   87.59539795    0.36000001    2.91000009
   15.40249920   94.02200317    0.34000000    2.91000009
   15.40583324   80.08049774    0.36000001    2.91000009
   15.40888882   85.25140381    0.36000001    2.91000009
   15.41499996   85.25140381    0.36000001    2.91000009
   15.41888905   87.48539734    0.36000001    2.91000009
   15.42222214   81.28019714    0.36000001    2.91000009
   15.42333412   75.46869659    0.38000000    2.91000009
   15.42583370   81.33049774    0.36000001    2.89000010
   15.42916679   87.08239746    0.40000001    2.91000009
   15.43222237   86.37699890    0.38000000    2.91000009
   15.43555546   87.30079651    0.36000001    2.91000009
   15.43888855   84.10639954    0.38000000    2.91000009
   15.44194412   85.04429626    0.36000001    2.89000010
   15.44527817   87.45539856    0.38000000    2.91000009
   15.44833374   79.12280273    0.38000000    2.89000010
   15.45166683   79.18520355    0.38000000    2.89000010
   15.45777798   79.18520355    0.38000000    2.89000010
   15.46194458   83.00050354    0.38000000    2.89000010
   15.46500015   80.61679840    0.36000001    2.89000010
   15.46833324   80.91269684    0.38000000    2.89000010
   15.47166634   79.09169769    0.38000000    2.89000010
   15.47472191   94.54029846    0.38000000    2.91000009
   15.47805500   80.90750122    0.38000000    2.91000009
   15.48138809   78.26519775    0.38000000    2.91000009
   15.48444462   80.86650085    0.38000000    2.89000010
   15.48777771   79.78369904    0.40000001    2.91000009
   15.49000072   75.07460022    0.38000000    2.89000010
   15.49138927   78.13880157    0.40000001    2.89000010
   15.49472237   83.16619873    0.41999999    2.93000007
   15.50055599   83.16619873    0.40000001    2.89000010
   15.50472260   83.10489655    0.38000000    2.89000010
   15.50805569   78.24160004    0.40000001    2.89000010
   15.51111126   76.38619995    0.40000001    2.89000010
   15.51444435   76.85880280    0.40000001    2.89000010
   15.51749992   81.49829865    0.41999999    2.91000009
   15.52083302   83.64459991    0.47999999    2.91000009
   15.52333355   74.45369720    0.44000000    2.91000009
   15.52444458   77.98950195    0.44000000    2.89000010
   15.52777767   80.69699860    0.41999999    2.89000010
   15.53111076   83.07510376    0.40000001    2.89000010
   15.53416729   76.97740173    0.40000001    2.91000009
   15.53750038   80.04329681    0.38000000    2.91000009
   15.54333401   80.04329681    0.40000001    2.91000009
   15.54750061   86.49389648    0.41999999    2.89000010
   15.55083370   79.28839874    0.40000001    2.91000009
   15.55388927   80.09279633    0.40000001    2.91000009
   15.55666733   80.04740143    0.38000000    2.91000009
   15.55749989   79.59359741    0.38000000    2.91000009
   15.56083393   91.83779907    0.38000000    2.89000010
   15.56388950   85.84649658    0.38000000    2.91000009
   15.56722260   82.60780334    0.40000001    2.91000009
   15.57055569   86.61289978    0.38000000    2.91000009
   15.57361126   83.91609955    0.38000000    2.91000009
   15.57694435   87.43350220    0.36000001    2.89000010
   15.57999992   77.08229828    0.36000001    2.91000009
   15.58638859   77.08229828    0.38000000    2.91000009
   15.59055519   87.63120270    0.38000000    2.91000009
   15.59361076   91.24169922    0.38000000    2.91000009
   15.59694386   83.61319733    0.38000000    2.91000009
   15.60000038   82.83869934    0.38000000    2.91000009
   15.60333347   74.21730042    0.40000001    2.89000010
   15.60666752   89.50779724    0.40000001    2.89000010
   15.60972214   85.16310120    0.40000001    2.91000009
   15.61305618   89.48770142    0.40000001    2.91000009
   15.61611176   84.86849976    0.38000000    2.89000010
   15.61944485   87.73419952    0.38000000    2.91000009
   15.62277794   86.48590088    0.38000000    2.91000009
   15.62361145   89.57530212    0.38000000    2.91000009
   15.62916660   89.57530212    0.38000000    2.91000009
   15.63333321   85.67079926    0.38000000    2.89000010
   15.63638878   83.05380249    0.38000000    2.91000009
   15.63972187   87.68280029    0.38000000    2.91000009
   15.64277744   94.27719879    0.38000000    2.89000010
   15.64611053   84.30699921    0.38000000    2.89000010
   15.64944458   90.32160187    0.36000001    2.89000010
   15.65249920   83.33280182    0.36000001    2.91000009
   15.65583324   93.53900146    0.38000000    2.89000010
   15.65666676   81.25740051    0.38000000    2.91000009
   15.65944386   78.50150299    0.36000001    2.91000009
   15.66277695   79.79940033    0.36000001    2.91000009
   15.66583252   83.04129791    0.36000001    2.91000009
   15.67194462   83.04129791    0.36000001    2.91000009
   15.67611122   85.59030151    0.36000001    2.91000009
   15.67916679   85.31099701    0.38000000    2.91000009
   15.68249989   82.89640045    0.36000001    2.91000009
   15.68583298   83.20790100    0.38000000    2.91000009
   15.68888855   93.16639709    0.36000001    2.91000009
   15.69000053   83.29180145    0.36000001    2.91000009
   15.69250011   84.48860168    0.38000000    2.89000010
   15.69583321   82.39689636    0.36000001    2.91000009
   15.69888878   86.11450195    0.36000001    2.91000009
   15.70222187   80.73010254    0.36000001    2.91000009
   15.70555496   92.51670074    0.38000000    2.91000009
   15.70861053   93.39630127    0.36000001    2.91000009
   15.71472168   93.39630127    0.38000000    2.91000009
   15.71888828  120.32599640    0.36000001    2.91000009
   15.72222137   91.16449738    0.36000001    2.91000009
   15.72333336   97.11009979    0.36000001    2.91000009
   15.72583294   98.76390076    0.38000000    2.91000009
   15.72916603   97.10679626    0.36000001    2.91000009
   15.73222160  105.87000275    0.36000001    2.91000009
   15.73555565   95.80500031    0.38000000    2.91000009
   15.73888874   94.16510010    0.36000001    2.91000009
   15.74194431   98.57099915    0.36000001    2.91000009
   15.74527836   99.38050079    0.38000000    2.89000010
   15.74833393   89.56980133    0.38000000    2.89000010
   15.75166702   91.84780121    0.38000000    2.91000009
   15.75777817   91.84780121    0.36000001    2.89000010
   15.76166630   87.55629730    0.36000001    2.91000009
   15.76500034   84.56359863    0.38000000    2.91000009
   15.76833344   89.98660278    0.36000001    2.91000009
   15.77138901   84.26909637    0.36000001    2.91000009
   15.77472210   89.09770203    0.36000001    2.91000009
   15.77805519   92.13069916    0.40000001    2.89000010
   15.78111076   88.91580200    0.38000000    2.91000009
   15.78444481   90.98590088    0.38000000    2.89000010
   15.78750038   86.82890320    0.38000000    2.89000010
   15.79027843   86.15889740    0.38000000    2.91000009
   15.79111195   85.94930267    0.38000000    2.91000009
   15.79444504   98.84059906    0.38000000    2.89000010
   15.80055618   98.84059906    0.38000000    2.91000009
   15.80472279   82.52439880    0.36000001    2.91000009
   15.80777836   90.25370026    0.38000000    2.91000009
   15.81111145   86.56770325    0.36000001    2.91000009
   15.81416702   86.79699707    0.38000000    2.89000010
   15.81750011   88.62349701    0.36000001    2.91000009
   15.82083321   86.24430084    0.38000000    2.89000010
   15.82361126   82.66089630    0.38000000    2.91000009
   15.82444477   87.86380005    0.36000001    2.91000009
   15.82777786   83.03140259    0.36000001    2.91000009
   15.83083344   80.12609863    0.36000001    2.91000009
   15.83416653   85.84980011    0.36000001    2.91000009
   15.83749962   79.52380371    0.36000001    2.91000009
   15.84333324   79.52380371    0.36000001    2.91000009
   15.84749985   81.24520111    0.38000000    2.91000009
   15.85055637   96.35959625    0.38000000    2.91000009
   15.85388947   83.78880310    0.38000000    2.93000007
   15.85694504   86.55860138    0.38000000    2.91000009
   15.85750008   80.58280182    0.38000000    2.91000009
   15.86083412   83.42140198    0.38000000    2.91000009
   15.86388969   83.88310242    0.38000000    2.91000009
   15.86722279   78.99060059    0.38000000    2.91000009
   15.87055588   80.12229919    0.38000000    2.91000009
   15.87361145   79.75160217    0.38000000    2.91000009
   15.87694454   87.29920197    0.36000001    2.89000010
   15.88027763   79.52159882    0.36000001    2.91000009
   15.88611126   79.52159882    0.38000000    2.91000009
   15.89027786   82.39140320    0.38000000    2.91000009
   15.89361095   84.18199921    0.38000000    2.91000009
   15.89666653   89.82050323    0.36000001    2.91000009
   15.89999962   82.96589661    0.38000000    2.91000009
   15.90333271   85.86289978    0.38000000    2.91000009
   15.90638828   90.45629883    0.36000001    2.91000009
   15.90972137   91.59349823    0.38000000    2.91000009
   15.91277695   92.69499969    0.38000000    2.89000010
   15.91611099   86.19219971    0.40000001    2.91000009
   15.91944504   91.38349915    0.38000000    2.91000009
   15.92250061   89.32180023    0.38000000    2.91000009
   15.92361164   79.03350067    0.38000000    2.91000009
   15.92916679   79.03350067    0.38000000    2.91000009
   15.93305588   88.23300171    0.36000001    2.91000009
   15.93638897   88.21320343    0.38000000    2.91000009
   15.93972206   83.13500214    0.36000001    2.91000009
   15.95722198   90.32640076    0.36000001    2.91000009
   15.95972157   85.65570068    0.40000001    2.91000009
   15.96277714   90.92369843    0.38000000    2.91000009
   15.96611118   90.34889984    0.38000000    2.91000009
   15.97222137   90.34889984    0.38000000    2.91000009
   15.97611046   87.31430054    0.38000000    2.91000009
   15.97944355   84.78260040    0.38000000    2.91000009
   15.98277760   84.96250153    0.38000000    2.91000009
   15.98583317   86.77269745    0.38000000    2.91000009
   15.98916721   86.02899933    0.38000000    2.91000009
   15.99055576   94.77760315    0.38000000    2.91000009
   15.99277782   86.19049835    0.38000000    2.91000009
   15.99611092   88.01969910    0.38000000    2.91000009
   15.99944496   86.15200043    0.38000000    2.91000009
   16.00250053   83.48560333    0.38000000    2.91000009
   16.00583267   86.67310333    0.38000000    2.91000009
   16.00888824   86.16110229    0.38000000    2.91000009
   16.01499939   86.16110229    0.38000000    2.91000009
   16.01888847   85.92340088    0.38000000    2.91000009
   16.02222252   87.63349915    0.38000000    2.89000010
   16.02388954   84.41809845    0.38000000    2.89000010
   16.02583313   86.33509827    0.38000000    2.91000009
   16.02916718   92.13310242    0.40000001    2.91000009
   16.03249931   90.08209991    0.38000000    2.91000009
   16.03555489   85.49829865    0.38000000    2.91000009
   16.03888893   79.84390259    0.40000001    2.89000010
   16.04222107   87.82209778    0.38000000    2.89000010
   16.04527664   86.14980316    0.36000001    2.89000010
   16.04861069   82.69650269    0.38000000    2.91000009
   16.05166626   86.22499847    0.38000000    2.91000009
   16.05777740   86.22499847    0.36000001    2.91000009
   16.06194305   81.07669830    0.38000000    2.91000009
   16.06499863   78.39890289    0.38000000    2.91000009
   16.06833458   79.33540344    0.40000001    2.89000010
   16.07166672   87.75910187    0.40000001    2.91000009
   16.07472229   85.14669800    0.40000001    2.91000009
   16.07805634   82.24050140    0.40000001    2.91000009
   16.08139038   83.18520355    0.38000000    2.91000009
   16.08444595   80.31659698    0.38000000    2.91000009
   16.08777809   80.60099792    0.38000000    2.91000009
   16.09055710   80.69470215    0.40000001    2.91000009
   16.09111214   90.60849762    0.40000001    2.91000009
   16.09444427   82.18260193    0.38000000    2.91000009
   16.10055542   82.18260193    0.40000001    2.91000009
   16.10472298   90.39119720    0.38000000    2.91000009
   16.10805511   90.14299774    0.38000000    2.91000009
   16.11111069   81.31340027    0.40000001    2.91000009
   16.11444473   85.03379822    0.40000001    2.89000010
   16.11750031   84.38960266    0.40000001    2.91000009
   16.12083435   81.84320068    0.40000001    2.91000009
   16.12388992   80.71479797    0.40000001    2.89000010
   16.12444496   80.34909821    0.40000001    2.91000009
   16.12805557   87.78900146    0.40000001    2.89000010
   16.13111115   83.03150177    0.40000001    2.91000009
   16.13444519   86.57700348    0.40000001    2.93000007
   16.13750076   86.11920166    0.40000001    2.91000009
   16.14333344   86.11920166    0.40000001    2.91000009
   16.14749908   82.32029724    0.40000001    2.91000009
   16.15083313   86.16410065    0.41999999    2.91000009
   16.15388870   93.34929657    0.40000001    2.93000007
   16.15722275   83.18090057    0.40000001    2.93000007
   16.15749931   83.55349731    0.40000001    2.93000007
   16.16083336   85.28980255    0.40000001    2.91000009
   16.16416550   82.51689911    0.40000001    2.91000009
   16.16722107   83.66960144    0.40000001    2.91000009
   16.17055511   78.96620178    0.40000001    2.89000010
   16.17361069   85.79730225    0.41999999    2.91000009
   16.17694473   86.72299957    0.40000001    2.91000009
   16.18027687   88.20040131    0.40000001    2.91000009
   16.18638802   88.20040131    0.40000001    2.91000009
   16.19055557   82.77619934    0.40000001    2.91000009
   16.19083214   85.98040009    0.40000001    2.89000010
   16.19416618   84.66449738    0.40000001    2.91000009
   16.19749832   84.11750031    0.40000001    2.91000009
   16.20055580   82.26679993    0.40000001    2.91000009
   16.20388985   91.26650238    0.40000001    2.91000009
   16.20722389   81.42900085    0.41999999    2.91000009
   16.21027946   84.89849854    0.40000001    2.91000009
   16.21361160   86.23940277    0.40000001    2.91000009
   16.21666718   85.35420227    0.41999999    2.91000009
   16.22000122   93.17030334    0.41999999    2.89000010
   16.22333336   79.07740021    0.41999999    2.91000009
   16.22389030   89.37539673    0.41999999    2.91000009
   16.22916794   89.37539673    0.40000001    2.91000009
   16.23333359   90.90059662    0.41999999    2.91000009
   16.23638916   89.37120056    0.41999999    2.91000009
   16.23972321   86.79010010    0.40000001    2.91000009
   16.24305534   86.36599731    0.40000001    2.91000009
   16.24611092   83.29109955    0.40000001    2.91000009
   16.24944496   85.16089630    0.40000001    2.91000009
   16.25277710   88.26490021    0.41999999    2.91000009
   16.25583267   83.71980286    0.41999999    2.91000009
   16.25722313   83.31379700    0.40000001    2.91000009
   16.25944519   86.01270294    0.40000001    2.91000009
   16.26277733   84.51869965    0.40000001    2.91000009
   16.26611137   91.47239685    0.41999999    2.91000009
   16.27194405   91.47239685    0.41999999    2.91000009
   16.27611160   80.90560150    0.41999999    2.91000009
   16.27944374   82.23419952    0.41999999    2.91000009
   16.28249931   88.27860260    0.41999999    2.91000009
   16.28583336   86.92579651    0.41999999    2.89000010
   16.28888893   83.52999878    0.41999999    2.91000009
   16.29055595   85.58789825    0.41999999    2.91000009
   16.29249954   83.56819916    0.41999999    2.91000009
   16.29583359   82.04940033    0.41999999    2.91000009
   16.29916573   78.67109680    0.41999999    2.89000010
   16.30222130   82.83679962    0.41999999    2.91000009
   16.30555534   81.82039642    0.41999999    2.91000009
   16.30888748   93.43869781    0.41999999    2.91000009
   16.31472206   93.43869781    0.41999999    2.91000009
   16.31888962   87.97019958    0.41999999    2.91000009
   16.32222366   87.29399872    0.41999999    2.91000009
   16.32389069   85.11679840    0.44000000    2.91000009
   16.32555580   88.24839783    0.41999999    2.91000009
   16.32888985   81.98079681    0.41999999    2.91000009
   16.33222389   87.82029724    0.41999999    2.91000009
   16.33527756   84.85489655    0.44000000    2.91000009
   16.33861160   83.01170349    0.41999999    2.91000009
   16.34194565   88.22619629    0.41999999    2.91000009
   16.34500122   90.55300140    0.41999999    2.91000009
   16.34833336   87.30429840    0.41999999    2.91000009
   16.35138893   85.12290192    0.41999999    2.91000009
   16.35777855   85.12290192    0.41999999    2.91000009
   16.36166763   84.94760132    0.41999999    2.91000009
   16.36499977   83.00689697    0.41999999    2.91000009
   16.36833382   84.94650269    0.41999999    2.91000009
   16.37138939   85.57350159    0.41999999    2.91000009
   16.37472153   86.44329834    0.41999999    2.91000009
   16.37805557   87.05139923    0.41999999    2.93000007
   16.38111115   82.74150085    0.41999999    2.91000009
   16.38444519   87.40779877    0.41999999    2.93000007
   16.38777733   85.35800171    0.41999999    2.91000009
   16.39055634   80.60189819    0.41999999    2.91000009
   16.39138794   83.99440002    0.41999999    2.93000007
   16.39444351   85.59269714    0.41999999    2.91000009
   16.40055466   85.59269714    0.44000000    2.91000009
   16.40472221   84.94660187    0.44000000    2.91000009
   16.40777779   86.91870117    0.44000000    2.91000009
   16.41110992   91.01999664    0.44000000    2.91000009
   16.41444397   92.16919708    0.44000000    2.91000009
   16.41749954   85.91880035    0.44000000    2.91000009
   16.42083359   89.33509827    0.44000000    2.91000009
   16.42388916   84.75150299    0.44000000    2.91000009
   16.42472076   81.94770050    0.44000000    2.91000009
   16.42777634   82.90319824    0.44000000    2.91000009
   16.43111038   84.92040253    0.44000000    2.91000009
   16.43416595   93.44689941    0.44000000    2.91000009
   16.43750000   89.28240204    0.44000000    2.91000009
   16.44333267   89.28240204    0.44000000    2.91000009
   16.44749832   88.76540375    0.46000001    2.91000009
   16.45083427   83.58959961    0.44000000    2.91000009
   16.45388985   84.74069977    0.46000001    2.91000009
   16.45722389   88.33679962    0.44000000    2.91000009
   16.45777893   86.63500214    0.44000000    2.91000009
   16.46083450   79.69010162    0.44000000    2.91000009
   16.46416664   79.23660278    0.44000000    2.91000009
   16.46722221   87.74990082    0.44000000    2.91000009
   16.47055626   86.48249817    0.44000000    2.91000009
   16.47389030   88.11900330    0.44000000    2.91000009
   16.47694588   86.67579651    0.44000000    2.91000009
   16.48027802   87.45269775    0.46000001    2.91000009
   16.48611069   87.45269775    0.44000000    2.91000009
   16.49027824   92.73359680    0.47999999    2.91000009
   16.49083328   84.75070190    0.46000001    2.91000009
   16.49416733   85.01260376    0.46000001    2.91000009
   16.49722290   88.88970184    0.46000001    2.91000009
   16.50055504   86.67449951    0.47999999    2.91000009
   16.50388908   81.54779816    0.46000001    2.91000009
   16.50694466   87.29419708    0.47999999    2.91000009
   16.51027870   88.10209656    0.46000001    2.89000010
   16.51361084   87.72570038    0.47999999    2.91000009
   16.51666641   89.17079926    0.47999999    2.91000009
   16.52000046   80.22609711    0.47999999    2.91000009
   16.52305603   92.26200104    0.47999999    2.91000009
   16.52416611   87.26640320    0.47999999    2.91000009
   16.52916718   87.26640320    0.46000001    2.91000009
   16.53305435   81.51210022    0.46000001    2.91000009
   16.53638840   87.79049683    0.47999999    2.91000009
   16.53972244   88.76229858    0.47999999    2.91000009
   16.54277802   91.09089661    0.46000001    2.91000009
   16.54611015   85.57800293    0.47999999    2.91000009
   16.54944420   86.84809875    0.47999999    2.91000009
   16.55249977   86.66719818    0.47999999    2.91000009
   16.55583191   84.64669800    0.51999998    2.91000009
   16.55749893   80.16100311    0.51999998    2.91000009
   16.55944443   89.08769989    0.50000000    2.91000009
   16.56250000   87.82499695    0.51999998    2.91000009
   16.56583214   88.43620300    0.51999998    2.91000009
   16.57194519   88.43620300    0.95999998    2.93000007
   16.57611275   93.45330048    0.95999998    2.93000007
   16.57916832   87.75700378    1.14999998    2.93000007
   16.58250046   84.32279968    1.01999998    2.93000007
   16.58583450   85.03469849    1.96000004    2.93000007
   16.58889008   84.37689972    3.48000002    2.93000007
   16.59083366   94.05789948    2.25000000    2.89000010
   16.59250069   83.99669647    1.89999998    2.93000007
   16.59555626   96.37439728    4.90999985    2.96000004
   16.59889030   86.73680115    4.90999985    2.67000008
   16.60222244   91.52230072    4.90999985    2.78999996
   16.60527802   77.87670135    1.34000003    2.91000009
   16.60861206   79.80480194    0.70999998    2.93000007
   16.61472321   79.80480194    1.26999998    2.91000009
   16.61888885   81.12519836    1.69000006    2.93000007
   16.62222290   80.42289734    0.67000002    2.91000009
   16.62416649   81.23989868    0.69000000    2.91000009
   16.62583351   86.57520294    0.69000000    2.93000007
   16.62916756   77.30899811    0.64999998    2.91000009
   16.63222313   79.58100128    0.67000002    2.91000009
   16.63555527   81.21260071    0.64999998    2.89000010
   16.63861084   88.15940094    0.63000000    2.91000009
   16.64194489   90.37460327    0.79000002    2.91000009
   16.64527702   86.20529938    1.73000002    2.91000009
   16.64833260   92.02030182    2.46000004    2.91000009
   16.65166664   87.80059814    2.25000000    2.91000009
   16.65749931   87.80059814    1.25000000    2.89000010
   16.66166687   84.34909821    0.67000002    2.91000009
   16.66499901   94.32669830    0.58999997    2.91000009
   16.66805458   87.14360046    0.56999999    2.91000009
   16.67138863   87.79350281    0.52999997    2.91000009
   16.67472076   90.49819946    0.51999998    2.91000009
   16.67777634   90.53070068    0.56999999    2.91000009
   16.68111038   93.01979828    2.73000002    2.91000009
   16.68444443   87.22989655    4.46999979    2.91000009
   16.68750000   96.05449677    4.90999985    2.82999992
   16.69083214   89.02500153    2.96000004    2.89000010
   16.69277763   93.01300049    2.59999990    2.89000010
   16.69444275   87.41210175    2.15000010    2.80999994
   16.70055580   87.41210175    0.63000000    2.91000009
   16.70444489   88.71710205    0.64999998    2.91000009
   16.70777893   91.48059845    2.13000011    2.89000010
   16.71111107   97.70259857    2.19000006    2.91000009
   16.71416664   93.41629791    0.83999997    2.91000009
   16.71750069   97.81759644    0.51999998    2.91000009
   16.72083473   88.66880035    0.51999998    2.91000009
   16.72389030   89.42310333    0.51999998    2.89000010
   16.72611237   92.49649811    0.52999997    2.91000009
   16.72750092   92.26020050    0.52999997    2.91000009
   16.73083305  101.50499725    0.52999997    2.89000010
   16.73388863   93.58409882    0.51999998    2.89000010
   16.73722267   85.14019775    0.51999998    2.91000009
   16.74333382   85.14019775    0.51999998    2.89000010
   16.74749947   88.35350037    0.52999997    2.89000010
   16.75055504   89.85269928    0.51999998    2.93000007
   16.75388908   81.10289764    0.51999998    2.91000009
   16.75722313   87.17500305    0.52999997    2.91000009
   16.75944519   96.13809967    0.52999997    2.89000010
   16.76083374   85.66979980    0.52999997    2.89000010
   16.76416588   86.18350220    0.51999998    2.89000010
   16.76722145   91.45359802    0.51999998    2.91000009
   16.77055550   92.94360352    0.51999998    2.91000009
   16.77388954   87.49500275    0.51999998    2.91000009
   16.77694511   92.42400360    0.51999998    2.91000009
   16.78027725   81.11489868    0.52999997    2.91000009
   16.78610992   81.11489868    0.52999997    2.91000009
   16.79027748   82.07360077    0.51999998    2.89000010
   16.79277802   93.39649963    0.51999998    2.91000009
   16.79388809   90.01190186    0.51999998    2.89000010
   16.79722214   91.47180176    0.51999998    2.91000009
   16.80027771   95.52320099    0.52999997    2.91000009
   16.80360985   86.23320007    0.52999997    2.91000009
   16.80694389   95.11820221    0.51999998    2.91000009
   16.80999947   85.28220367    0.51999998    2.91000009
   16.81333351   97.70050049    0.51999998    2.89000010
   16.81638718   95.34020233    0.51999998    2.91000009
   16.82000160   87.33149719    0.51999998    2.89000010
   16.82305717   92.69390106    0.52999997    2.91000009
   16.82888985   92.69390106    0.51999998    2.91000009
   16.83305550   90.53679657    0.51999998    2.91000009
   16.83638954   89.75499725    0.51999998    2.91000009
   16.83944511   89.92019653    0.51999998    2.91000009
   16.84277916   87.89050293    0.51999998    2.89000010
   16.84611130   90.24829865    0.51999998    2.91000009
   16.84916687   88.56780243    0.52999997    2.89000010
   16.85250092   89.93389893    0.52999997    2.91000009
   16.85583305   86.97899628    0.55000001    2.91000009
   16.85888863   87.39050293    0.52999997    2.91000009
   16.86000061   86.14679718    0.52999997    2.91000009
   16.86250114   95.72090149    0.55000001    2.89000010
   16.86583328   86.46350098    0.52999997    2.91000009
   16.87194443   86.46350098    0.55000001    2.91000009
   16.87583351   92.95089722    0.55000001    2.91000009
   16.87916756   82.88059998    0.55000001    2.89000010
   16.88249969   76.32160187    0.55000001    2.91000009
   16.88583374   92.03639984    0.56999999    2.91000009
   16.88888931   94.73770142    0.56999999    2.91000009
   16.89222145   97.52189636    0.55000001    2.89000010
   16.89333344   92.56719971    0.56999999    2.91000009
   16.89583397   91.49690247    0.56999999    2.89000010
   16.89916611   87.47619629    0.56999999    2.89000010
   16.90250015   86.16860199    0.56999999    2.91000009
   16.90555573   90.08119965    0.56999999    2.91000009
   16.90888786   90.62460327    0.58999997    2.89000010
   16.91472244   90.62460327    0.58999997    2.91000009
   16.91888809   92.50289917    0.58999997    2.89000010
   16.92222214   88.55560303    0.61000001    2.91000009
   16.92555428   86.38310242    0.61000001    2.89000010
   16.92666626   84.60240173    0.61000001    2.89000010
   16.92916679   84.18609619    0.61000001    2.89000010
   16.93249893   85.04850006    0.61000001    2.89000010
   16.93555450   88.75730133    0.58999997    2.91000009
   16.93888855   88.35250092    0.61000001    2.91000009
   16.94222069   78.68990326    0.61000001    2.91000009
   16.94527626   82.52259827    0.61000001    2.91000009
   16.94861031   87.60569763    0.61000001    2.89000010
   16.95166779   87.50669861    0.63000000    2.91000009
   16.95750046   87.50669861    0.63000000    2.89000010
   16.97583389   80.56590271    0.64999998    2.91000009
   16.97916794   80.93710327    0.63000000    2.91000009
   16.98250008   81.85379791    0.94000000    2.91000009
   16.98555565   88.59490204    1.38000000    2.89000010
   16.98888969   87.81069946    4.90999985    2.80999994
   16.99194527   98.79370117    4.90999985    2.80999994
   16.99527740  172.71200562    4.90999985    2.46000004
   17.00055504  172.71200562    4.90999985    2.40000010
   17.00472260   -1.00000000    4.90999985    1.80999994
   17.00805473   -1.00000000    4.90999985    1.61000001
   17.01166725   -1.00000000    4.90999985    1.51999998
   17.01472282   -1.00000000    4.90999985    1.66999996
   17.01805496   -1.00000000    4.90999985    1.66999996
   17.02111053  147.83799744    4.90999985    1.78999996
   17.02444458   87.21820068    4.90999985    3.01999998
   17.02777672   85.33879852    3.70000005    2.96000004
   17.03083229   94.99269867    0.69000000    2.91000009
   17.03416634   91.31690216    0.64999998    2.91000009
   17.03750038   90.12590027    0.67000002    2.89000010
   17.04333305   90.12590027    0.64999998    2.91000009
   17.04749870   88.81719971    0.64999998    2.89000010
   17.05083275   84.81819916    0.63000000    2.86999989
   17.05416679   91.01039886    0.63000000    2.89000010
   17.05722237   77.96040344    0.64999998    2.91000009
   17.06055450   79.62879944    0.64999998    2.91000009
   17.06361008   88.68930054    0.63000000    2.91000009
   17.06694603   86.99079895    0.63000000    2.89000010
   17.07027817   83.88300323    0.63000000    2.89000010
   17.07333374   84.26570129    0.63000000    2.89000010
   17.07555580   82.39520264    0.63000000    2.89000010
   17.07722282   84.34339905    0.64999998    2.89000010
   17.08055687   87.19609833    0.64999998    2.89000010
   17.08638954   87.19609833    0.64999998    2.89000010
   17.09055710   90.41649628    0.67000002    2.89000010
   17.09361267   87.47460175    0.69000000    2.86999989
   17.09694481   83.16889954    0.94000000    2.89000010
   17.10000038   91.69329834    4.32999992    2.78999996
   17.10333443   90.64089966    4.90999985    2.80999994
   17.10666656   98.44560242    4.90999985    2.86999989
   17.10888863   99.44120026    4.90999985    2.75000000
   17.11027908   99.78610229    4.90999985    2.78999996
   17.11361122   88.24790192    4.90999985    2.89000010
   17.11666679   93.95240021    0.81999999    2.89000010
   17.12000084   86.00550079    0.80000001    2.89000010
   17.12305641   89.04370117    1.00000000    2.89000010
   17.12916756   89.04370117    1.36000001    2.86999989
   17.13333321   88.95919800    1.34000003    2.89000010
   17.13638878   86.96720123    1.46000004    2.86999989
   17.13972282   87.06210327    1.76999998    2.86999989
   17.14222145   84.16339874    1.83000004    2.89000010
   17.14333344   95.25189972    2.40000010    2.84999990
   17.14666748   91.23780060    2.32999992    2.84999990
   17.14972115  110.61299896    3.05999994    2.89000010
   17.15305519   89.11730194    4.90999985    2.71000004
   17.15638924  110.73300171    4.90999985    2.46000004
   17.15944481   -1.00000000    4.90999985    2.34999990
   17.16277695   -1.00000000    4.90999985    1.14999998
   17.16583252   -1.00000000    4.90999985    1.63000000
   17.17611122   -1.00000000    4.90999985    1.36000001
   17.17916679   -1.00000000    4.90999985    1.11000001
   17.18249893   -1.00000000    4.90999985    0.94000000
   17.18583298   -1.00000000    4.90999985    0.79000002
   17.18888855   -1.00000000    4.90999985    1.51999998
   17.19222069   -1.00000000    4.90999985    1.51999998
   17.19555473   -1.00000000    4.90999985    1.50000000
   17.19861031   -1.00000000    4.90999985    1.16999996
   17.20194435   -1.00000000    4.90999985    1.16999996
   17.20499992   -1.00000000    4.90999985    0.52999997
   17.20833397   -1.00000000    4.90999985    0.51999998
   17.21472359   -1.00000000    4.90999985    1.11000001
   17.21888924  204.51600647    4.90999985    1.60000002
   17.22222328   98.70829773    4.90999985    2.40000010
   17.22555542   92.91139984    4.90999985    2.76999998
   17.22861099  273.15301514    4.90999985    2.51999998
   17.23194504  118.95300293    4.90999985    2.61999989
   17.23527718  202.70500183    4.90999985    2.32999992
   17.23833275  271.60501099    4.90999985    2.36999989
   17.24166679   -1.00000000    4.90999985    2.17000008
   17.24527740   -1.00000000    4.90999985    1.69000006
   17.24833298   77.94069672    4.90999985    1.71000004
   17.25166702  179.72000122    4.90999985    2.07999992
   17.25777817  179.72000122    4.90999985    2.13000011
   17.26194382  103.25499725    4.90999985    2.51999998
   17.26499939  117.15299988    4.90999985    2.67000008
   17.26833344   96.09780121    4.90999985    2.67000008
   17.27138901  105.55000305    4.90999985    2.91000009
   17.27472115  331.83401489    4.90999985    2.05999994
   17.27666664   90.16510010    4.90999985    2.07999992
   17.27694511  105.55000305    4.90999985    2.91000009
   17.27694511  331.83401489    4.90999985    2.05999994
   17.27722168   -1.00000000    4.90999985    2.17000008
   17.27722168   -1.00000000    4.90999985    1.69000006
   17.27722168   77.94069672    4.90999985    1.71000004
   17.27750015  179.72000122    4.90999985    2.07999992
   17.27750015  103.25499725    4.90999985    2.51999998
   17.27750015  117.15299988    4.90999985    2.67000008
   17.27777672   96.09780121    4.90999985    2.67000008
   17.27972221  147.68200684    4.90999985    3.01999998
   17.28277779  126.56700134    4.90999985    2.26999998
   17.28610992  173.57200623    4.90999985    2.19000006
   17.28944397   96.23850250    4.90999985    2.59999990
   17.29249954  148.88000488    4.90999985    2.76999998
   17.29749870  148.88000488    4.90999985    2.89000010
   17.30166626   98.58740234    4.90999985    3.00000000
   17.30499840   89.47200012    2.73000002    2.98000002
   17.30833244  102.62699890    2.44000006    2.94000006
   17.31055450   98.41739655    2.76999998    2.94000006
   17.31194305   87.97290039    2.42000008    2.94000006
   17.31527710   94.52020264    1.60000002    2.93000007
   17.31833458  109.58999634    0.83999997    2.93000007
   17.32166672   97.47789764    0.70999998    2.89000010
   17.32500076   94.32990265    0.70999998    2.89000010
   17.32805634   87.60399628    0.69000000    2.89000010
   17.33139038   94.62319946    0.67000002    2.89000010
   17.33444595   88.20220184    0.67000002    2.89000010
   17.34055710   88.20220184    0.69000000    2.89000010
   17.34472275   90.15409851    0.69000000    2.89000010
   17.34777832   86.30090332    0.69000000    2.89000010
   17.35111237   82.35220337    0.69000000    2.89000010
   17.35416794   82.63619995    0.69000000    2.89000010
   17.35750008   82.79340363    0.70999998    2.89000010
   17.36083412   89.51689911    0.69000000    2.86999989
   17.36388969   83.68609619    0.69000000    2.89000010
   17.36722183   85.18049622    0.69000000    2.89000010
   17.37055588   77.98269653    0.70999998    2.89000010
   17.37361145   84.23989868    0.70999998    2.86999989
   17.37694550   84.11789703    0.70999998    2.89000010
   17.37750053   83.20670319    0.70999998    2.89000010
   17.38333321   83.20670319    0.75000000    2.89000010
   17.38750076   91.66819763    0.75000000    2.89000010
   17.39055634   87.89939880    0.75000000    2.89000010
   17.39388847   85.91179657    0.75000000    2.89000010
   17.39722252   99.48880005    0.75000000    2.89000010
   17.40027809   85.25440216    0.75000000    2.86999989
   17.40361023   93.88839722    0.75000000    2.86999989
   17.40694427   83.70390320    0.73000002    2.86999989
   17.40999985   87.02559662    0.73000002    2.86999989
   17.41083336  102.17500305    0.73000002    2.86999989
   17.41388893   91.89399719    0.73000002    2.89000010
   17.41694450   91.67949677    0.73000002    2.89000010
   17.42027664   91.38410187    0.73000002    2.89000010
   17.42611122   91.38410187    0.73000002    2.86999989
   17.43027687   84.60829926    0.73000002    2.89000010
   17.43361092   83.97389984    0.73000002    2.89000010
   17.43666649   89.23439789    0.73000002    2.89000010
   17.43999863   90.55809784    0.73000002    2.89000010
   17.44333267   90.47910309    0.73000002    2.86999989
   17.44416618   82.84960175    0.80000001    2.89000010
   17.44694328   86.18170166    1.26999998    2.89000010
   17.45000076   92.33599854    0.89999998    2.89000010
   17.45333481   85.31529999    1.33000004    2.91000009
   17.45639038   91.90699768    1.03999996    2.91000009
   17.45972252   84.92960358    1.38000000    2.91000009
   17.46305656   89.29630280    1.88000000    2.86999989
   17.46888924   89.29630280    4.34999990    2.93000007
   17.47305679   83.98819733    0.73000002    2.91000009
   17.47638893   85.90380096    0.70999998    2.89000010
   17.47750092   91.58740234    0.70999998    2.89000010
   17.48000145   92.69750214    0.70999998    2.89000010
   17.48333359   87.00260162    0.73000002    2.89000010
   17.48666763   89.56469727    0.73000002    2.89000010
   17.48972321   90.93150330    0.75000000    2.89000010
   17.49305534   93.64659882    0.73000002    2.89000010
   17.49638939   85.42739868    0.73000002    2.89000010
   17.49944496   86.33750153    0.75000000    2.89000010
   17.50277710   88.96399689    0.76999998    2.89000010
   17.50583267   85.25430298    0.73000002    2.89000010
   17.51194382   85.25430298    0.73000002    2.89000010
   17.51611137   86.10150146    0.70999998    2.89000010
   17.51916695   86.09549713    0.70999998    2.89000010
   17.52249908   97.20510101    0.79000002    2.89000010
   17.52555466  100.52400208    0.70999998    2.89000010
   17.52888870   90.75710297    0.70999998    2.91000009
   17.53222275   90.22109985    0.73000002    2.89000010
   17.53527641   90.47859955    0.70999998    2.89000010
   17.53861046   91.15180206    0.70999998    2.89000010
   17.54194450   94.56469727    0.70999998    2.89000010
   17.54416656   98.77729797    0.69000000    2.89000010
   17.54527664   97.21089935    0.69000000    2.89000010
   17.54861069   90.13760376    0.70999998    2.89000010
   17.55472183   90.13760376    0.70999998    2.89000010
   17.55888748   88.52970123    0.70999998    2.89000010
   17.56194305   91.14080048    0.69000000    2.89000010
   17.56527710   90.23960114    0.69000000    2.91000009
   17.56861115   90.97250366    0.69000000    2.89000010
   17.57166672   84.89189911    0.67000002    2.89000010
   17.57500076   85.53389740    0.69000000    2.89000010
   17.57750130   87.66989899    0.67000002    2.89000010
   17.57861137   90.96669769    0.67000002    2.89000010
   17.58194542   86.27120209    0.67000002    2.89000010
   17.58527756   83.75559998    0.67000002    2.89000010
   17.58833313   86.45510101    0.69000000    2.89000010
   17.59166718   88.65450287    0.67000002    2.91000009
   17.59749985   88.65450287    0.69000000    2.89000010
   17.60166740   83.21679688    0.67000002    2.89000010
   17.60499954   88.19860077    0.67000002    2.89000010
   17.60805511   79.52989960    0.67000002    2.91000009
   17.61083412   81.67710114    0.73000002    2.89000010
   17.61166763   79.66570282    0.75000000    2.89000010
   17.61499977   79.73390198    0.92000002    2.89000010
   17.61833382   89.09799957    1.41999996    2.86999989
   17.62138939   86.81900024    2.07999992    2.86999989
   17.62472153   84.00980377    2.19000006    2.86999989
   17.62805557   88.09089661    1.80999994    2.84999990
   17.63111115   84.63289642    2.76999998    2.84999990
   17.63444519   93.26270294    4.90999985    2.82999992
   17.64027786   93.26270294    4.90999985    2.07999992
   17.64444351   92.81929779    4.90999985    2.76999998
   17.64777756  113.60600281    4.90999985    2.78999996
   17.65083313   94.56279755    4.90999985    2.64000010
   17.65416718  139.86599731    4.90999985    2.57999992
   17.65749931  260.66799927    4.90999985    2.28999996
   17.66055489   -1.00000000    4.90999985    2.39000010
   17.66388893  119.87300110    4.90999985    1.75000000
   17.66722107   98.86409760    4.90999985    2.73000002
   17.67027664   80.87670135    4.90999985    2.84999990
   17.67361069   98.45819855    3.72000003    2.84999990
   17.67666626   99.00140381    4.05999994    2.89000010
   17.67749977   98.01069641    3.99000001    2.82999992
   17.68333244   98.01069641    4.90999985    2.82999992
   17.68722153   95.52660370    2.71000004    2.86999989
   17.69055557   81.34519958    2.50000000    2.86999989
   17.69388771   87.02950287    2.05999994    2.84999990
   17.69694328  109.59300232    2.13000011    2.86999989
   17.70027924   95.30010223    2.30999994    2.84999990
   17.70361137   92.25340271    2.39000010    2.86999989
   17.70666695   97.97229767    2.59999990    2.84999990
   17.71000099   87.54599762    2.28999996    2.86999989
   17.71083450   98.05580139    2.11999989    2.86999989
   17.71389008   94.27880096    1.80999994    2.86999989
   17.71694565   90.13420105    1.66999996    2.86999989
   17.72027779   85.92070007    1.63000000    2.86999989
   17.72611237   85.92070007    1.78999996    2.86999989
   17.73027802   85.62870026    2.07999992    2.84999990
   17.73333359   84.44599915    2.09999990    2.84999990
   17.73666763   89.75830078    1.83000004    2.84999990
   17.73999977   88.64440155    1.30999994    2.86999989
   17.74305534   93.39540100    0.88000000    2.89000010
   17.74416733   92.29810333    0.89999998    2.86999989
   17.74694443   86.07009888    0.89999998    2.89000010
   17.75000000   88.76889801    0.92000002    2.86999989
   17.75333405   97.24729919    0.79000002    2.89000010
   17.75638962   96.86660004    0.73000002    2.86999989
   17.75972176   92.07379913    0.75000000    2.89000010
   17.76305580   86.97049713    0.75000000    2.86999989
   17.76888847   86.97049713    0.75000000    2.86999989
   17.77305603   84.05799866    0.75000000    2.86999989
   17.77638817   83.45159912    0.75000000    2.89000010
   17.77750015   90.02330017    0.75000000    2.86999989
   17.78000069   91.83380127    0.75000000    2.86999989
   17.78305435   88.34510040    0.75000000    2.89000010
   17.78638840   82.49130249    0.75000000    2.86999989
   17.78972244   87.67310333    0.75000000    2.89000010
   17.79277802   86.86360168    0.75000000    2.89000010
   17.79611015   89.78980255    0.75000000    2.86999989
   17.79944420   94.58380127    0.76999998    2.86999989
   17.80249977   93.30269623    0.75000000    2.89000010
   17.80583191   88.40930176    0.76999998    2.86999989
   17.81166649   88.40930176    0.76999998    2.86999989
   17.81583214   85.18949890    0.75000000    2.86999989
   17.81916809   83.83679962    0.75000000    2.86999989
   17.82250023   82.23280334    0.75000000    2.89000010
   17.82583427   91.08219910    0.75000000    2.86999989
   17.82888985   81.29609680    0.75000000    2.86999989
   17.83222389   91.65309906    0.75000000    2.86999989
   17.83527756   84.83080292    0.75000000    2.86999989
   17.83861160   87.91840363    0.75000000    2.86999989
   17.84194565   84.72830200    0.75000000    2.86999989
   17.84416771   83.90100098    0.75000000    2.86999989
   17.84555626   87.55999756    0.75000000    2.89000010
   17.84861183   91.48120117    0.76999998    2.89000010
   17.85472298   91.48120117    0.89999998    2.89000010
   17.85861206   84.28540039    2.07999992    2.84999990
   17.86194420   89.49900055    4.90999985    2.84999990
   17.86527824   79.52850342    4.90999985    2.86999989
   17.86833382   86.96450043    4.90999985    2.86999989
   17.87166595   85.64279938    4.90999985    2.76999998
   17.87500000   82.36730194    4.90999985    2.71000004
   17.87750053   83.89270020    4.90999985    2.80999994
   17.87861061   83.81880188    4.90999985    2.78999996
   17.88166618  198.05700684    4.90999985    2.57999992
   17.88500023   -1.00000000    4.90999985    1.71000004
   17.88805580  214.93600464    4.90999985    1.53999996
   17.89138794  100.43900299    4.90999985    2.21000004
   17.89749908  100.43900299    4.90999985    2.64000010
   17.90166664   94.86119843    4.90999985    2.66000009
   17.90472221   93.80049896    4.90999985    2.66000009
   17.90805435   88.51090240    4.90999985    2.78999996
   17.91083336  102.89199829    4.90999985    2.84999990
   17.91166687  220.69900513    4.90999985    2.46000004
   17.91472244  200.41000366    4.90999985    2.39000010
   17.91805458  163.12100220    4.90999985    2.28999996
   17.92111015   96.72959900    4.90999985    2.23000002
   17.92444420   -1.00000000    4.90999985    2.15000010
   17.92777634   -1.00000000    4.90999985    1.73000002
   17.93083191   -1.00000000    4.90999985    1.75000000
   17.93416595   -1.00000000    4.90999985    1.76999998
   17.94027710   -1.00000000    4.90999985    2.42000008
   17.94444275  104.81099701    4.90999985    2.11999989
   17.94777679   -1.00000000    4.90999985    1.91999996
   17.95083427   -1.00000000    4.90999985    1.76999998
   17.95416832   -1.00000000    4.90999985    1.66999996
   17.95722389   23.57019997    4.90999985    1.63000000
   17.96055603   -1.00000000    4.90999985    1.83000004
   17.96389008  165.17300415    4.90999985    1.98000002
   17.96694565  103.39399719    4.90999985    2.26999998
   17.97027779  116.72699738    4.90999985    2.26999998
   17.97361183  182.47500610    4.90999985    2.32999992
   17.99277878  258.11801147    4.90999985    2.42000008
   17.99694443  258.11801147    4.90999985    1.98000002
   18.00111198   -1.00000000    4.90999985    1.19000006
   18.00444412   -1.00000000    4.90999985    0.86000001
   18.00749969   -1.00000000    4.90999985    1.11000001
   18.01083374   -1.00000000    4.90999985    1.39999998
   18.01388931   -1.00000000    4.90999985    1.34000003
   18.01722145   -1.00000000    4.90999985    0.86000001
   18.02055550   -1.00000000    4.90999985    0.89999998
   18.02361107   -1.00000000    4.90999985    0.58999997
   18.02722168   -1.00000000    4.90999985    0.61000001
   18.03055573   -1.00000000    4.90999985    1.03999996
   18.03361130   -1.00000000    4.90999985    1.48000002
   18.04388809   -1.00000000    4.90999985    0.70999998
   18.04722214   -1.00000000    4.90999985    1.13000000
   18.05027771   -1.00000000    4.90999985    0.70999998
   18.05360985   -1.00000000    4.90999985    0.64999998
   18.05666542   -1.00000000    4.90999985    0.79000002
   18.06027794   -1.00000000    4.90999985    1.46000004
   18.06361008   -1.00000000    4.90999985    1.69000006
   18.06666756   -1.00000000    4.90999985    1.48000002
   18.07000160   -1.00000000    4.90999985    1.50000000
   18.07333374   -1.00000000    4.90999985    1.19000006
   18.07638931   -1.00000000    4.90999985    1.26999998
   18.08277893   -1.00000000    4.90999985    2.11999989
   18.08666801   93.18939972    4.90999985    2.86999989
   18.09000015   88.67440033    4.90999985    2.86999989
   18.09277916   91.04239655    4.90999985    2.89000010
   18.09361267   86.02760315    4.90999985    2.89000010
   18.09694481  118.91600037    4.90999985    2.75000000
   18.10027885  103.02200317    4.90999985    2.59999990
   18.10333443  129.91200256    4.90999985    2.23000002
   18.10666656  154.74000549    4.90999985    2.23000002
   18.11000061   93.84870148    4.90999985    2.23000002
   18.11305618  109.34300232    4.90999985    2.42000008
   18.11638832  115.74500275    4.90999985    2.50000000
   18.11972237  123.00700378    4.90999985    2.44000006
   18.12555504  123.00700378    4.90999985    2.40000010
   18.12972260  178.10600281    4.90999985    2.15000010
   18.13277817   -1.00000000    4.90999985    1.89999998
   18.13611031   -1.00000000    4.90999985    1.64999998
   18.13944435   -1.00000000    4.90999985    1.91999996
   18.14249992   47.04380035    4.90999985    1.89999998
   18.14583397  159.73899841    4.90999985    1.96000004
   18.14916611   -1.00000000    4.90999985    2.05999994
   18.15222168   -1.00000000    4.90999985    1.80999994
   18.15555573   -1.00000000    4.90999985    1.50000000
   18.15861130   -1.00000000    4.90999985    1.39999998
   18.16222191   -1.00000000    4.90999985    0.92000002
   18.17249870   -1.00000000    4.90999985    1.48000002
   18.17555428  100.05500031    4.90999985    1.85000002
   18.17888832  237.72200012    4.90999985    1.94000006
   18.18194389   -1.00000000    4.90999985    2.05999994
   18.18527603  157.57200623    4.90999985    1.89999998
   18.18861008  109.58399963    4.90999985    2.50000000
   18.19166565  107.26599884    4.90999985    2.75000000
   18.19388771   93.40309906    4.90999985    2.71000004
   18.19555473   94.21240234    4.90999985    2.73000002
   18.19861031  106.00299835    4.90999985    2.66000009
   18.20194435   88.90550232    4.90999985    2.76999998
   18.20527840   86.06809998    4.90999985    2.86999989
   18.21111107   86.06809998    1.46000004    2.86999989
   18.21527863   91.21269989    1.11000001    2.86999989
   18.21861076   94.90249634    0.95999998    2.86999989
   18.22166634   85.68679810    0.94000000    2.84999990
   18.22500038   95.19869995    0.95999998    2.84999990
   18.22750092   97.88410187    1.00000000    2.86999989
   18.22888947   96.79730225    1.00000000    2.86999989
   18.23194504   93.28330231    1.03999996    2.86999989
   18.23527718   96.67299652    1.14999998    2.86999989
   18.23833275   93.73719788    1.19000006    2.86999989
   18.24166679   94.58740234    1.21000004    2.86999989
   18.24500084   90.39810181    1.21000004    2.84999990
   18.24805641   93.29550171    1.28999996    2.86999989
   18.25416756   93.29550171    4.73999977    2.86999989
   18.25805473   81.13970184    4.90999985    2.86999989
   18.26083374   89.56089783    4.90999985    2.84999990
   18.26166725   86.50289917    4.90999985    2.84999990
   18.26499939   89.60510254    4.90999985    2.82999992
   18.26833344   97.75589752    4.90999985    2.76999998
   18.27138901  209.20399475    4.90999985    2.78999996
   18.27472115  224.75399780    4.90999985    2.01999998
   18.27777672  104.94799805    4.90999985    2.48000002
   18.28111076  187.97200012    4.90999985    2.48000002
   18.28444481  120.26300049    4.90999985    2.30999994
   18.28750038  175.25100708    4.90999985    2.48000002
   18.29083252   -1.00000000    4.90999985    1.64999998
   18.29694366   -1.00000000    4.90999985    1.83000004
   18.30111122   94.47840118    4.90999985    2.34999990
