    HOUR (UT)   FLARE FACTOR    SKY TESTER    SUN TESTER
   13.28500080   -1.00000000   -1.00000000   -1.00000000
   13.34777737   85.81880188    1.53999996    2.82999992
   13.35111141   83.16010284    1.53999996    2.82999992
   13.35416698   84.67639923    1.55999994    2.82999992
   13.35750008   83.15280151    1.55999994    2.82999992
   13.36083412   86.81390381    1.53999996    2.82999992
   13.36388969   83.89959717    1.53999996    2.82999992
   13.36722279   80.53150177    1.55999994    2.82999992
   13.37055588   83.56849670    1.55999994    2.84999990
   13.37638855   83.56849670    1.53999996    2.84999990
   13.38055611   86.45230103    1.53999996    2.84999990
   13.38388920   89.44439697    1.53999996    2.84999990
   13.38694477   82.62860107    1.53999996    2.84999990
   13.39027786   82.61070251    1.60000002    2.84999990
   13.39333344   82.90080261    1.51999998    2.84999990
   13.39666653   82.87650299    1.51999998    2.84999990
   13.39777756   79.21119690    1.53999996    2.84999990
   13.40027714   81.69329834    1.51999998    2.84999990
   13.40333271   77.46330261    1.51999998    2.84999990
   13.40666676   77.65740204    1.51999998    2.84999990
   13.40999985   80.35279846    1.51999998    2.84999990
   13.41305542   81.14790344    1.51999998    2.84999990
   13.41638851   80.46839905    1.51999998    2.84999990
   13.41944504   81.63249969    1.51999998    2.84999990
   13.42277813   80.18129730    1.51999998    2.84999990
   13.42750072   80.18129730    1.51999998    2.84999990
   13.43166733   85.79820251    1.51999998    2.84999990
   13.43500042   77.73699951    1.50000000    2.84999990
   13.43805599   82.70230103    1.50000000    2.86999989
   13.44138908   82.28869629    1.51999998    2.84999990
   13.44472218   82.93589783    1.50000000    2.86999989
   13.44777775   81.72399902    1.50000000    2.84999990
   13.44833374   82.83979797    1.50000000    2.84999990
   13.45166683   81.66259766    1.50000000    2.84999990
   13.45472240   80.11289978    1.50000000    2.86999989
   13.45805550   75.66320038    1.50000000    2.84999990
   13.46138859   73.58560181    1.50000000    2.84999990
   13.46444416   77.44280243    1.51999998    2.84999990
   13.46777725   76.18299866    1.51999998    2.84999990
   13.47111034   79.83309937    1.51999998    2.84999990
   13.47416592   78.98290253    1.51999998    2.84999990
   13.47861099   78.98290253    1.51999998    2.84999990
   13.48277760   80.25990295    1.51999998    2.84999990
   13.48611164   78.31520081    1.51999998    2.84999990
   13.48944473   80.66390228    1.51999998    2.84999990
   13.49250031   82.28220367    1.53999996    2.84999990
   13.49583340   78.33450317    1.51999998    2.84999990
   13.49777794   78.82050323    1.51999998    2.84999990
   13.49944496   76.68969727    1.50000000    2.84999990
   13.50249958   83.06700134    1.51999998    2.84999990
   13.50583363   81.08010101    1.51999998    2.84999990
   13.50916672   82.08650208    1.51999998    2.84999990
   13.51249981   78.39720154    1.51999998    2.84999990
   13.51583290   77.61779785    1.51999998    2.84999990
   13.51916599   80.12400055    1.51999998    2.84999990
   13.52222157   81.31670380    1.51999998    2.84999990
   13.52555561   80.12779999    1.51999998    2.84999990
   13.52999973   80.12779999    1.51999998    2.84999990
   13.53416729   75.58329773    1.64999998    2.84999990
   13.53722286   79.38179779    1.53999996    2.84999990
   13.54055595   77.22419739    1.53999996    2.84999990
   13.54361153   78.80490112    1.53999996    2.84999990
   13.54694462   85.86299896    1.58000004    2.84999990
   13.54777813   81.64260101    2.39000010    2.84999990
   13.55055618   83.33290100    1.55999994    2.84999990
   13.55361176   81.85870361    1.55999994    2.86999989
   13.55694485   81.44290161    1.55999994    2.84999990
   13.56027794   81.61080170    1.55999994    2.84999990
   13.56333351   80.27390289    1.55999994    2.84999990
   13.56666660   81.56150055    1.55999994    2.84999990
   13.56999969   83.95379639    1.55999994    2.86999989
   13.57305527   82.27590179    1.55999994    2.86999989
   13.57638836   81.25409698    1.58000004    2.84999990
   13.58111095   81.25409698    1.58000004    2.84999990
   13.58527756   80.42829895    1.63000000    2.84999990
   13.58833313   83.58100128    1.60000002    2.84999990
   13.59166622   81.49590302    1.60000002    2.86999989
   13.59499931   77.72619629    1.60000002    2.84999990
   13.59777737   76.93260193    1.60000002    2.84999990
   13.59861088   77.72869873    1.61000001    2.86999989
   13.60166740   77.09040070    1.60000002    2.86999989
   13.60500050   77.56349945    1.60000002    2.86999989
   13.60833359   80.37920380    1.60000002    2.84999990
   13.61138916   75.81610107    1.60000002    2.84999990
   13.61472225   76.88860321    1.60000002    2.84999990
   13.61777782   80.24810028    1.60000002    2.86999989
   13.62111092   77.95390320    1.61000001    2.84999990
   13.62444496   78.22100067    1.61000001    2.84999990
   13.62750053   81.03730011    1.61000001    2.86999989
   13.63222218   81.03730011    1.61000001    2.84999990
   13.63638878   80.20140076    1.63000000    2.84999990
   13.63972187   80.28040314    1.63000000    2.84999990
   13.64277744   80.24069977    1.64999998    2.84999990
   13.64611053   78.10669708    1.64999998    2.84999990
   13.64777756   82.32109833    1.76999998    2.86999989
   13.64972210   79.91590118    1.91999996    2.84999990
   13.65277767   78.72740173    2.03999996    2.86999989
   13.65611076   78.27030182    2.36999989    2.86999989
   13.65944386   76.50810242    3.18000007    2.91000009
   13.66249943   77.82099915    3.76999998    2.89000010
   13.66583252   80.24259949    4.90999985    2.91000009
   13.66916656   78.59989929    4.90999985    2.93000007
   13.67222214   78.00399780    4.90999985    2.93000007
   13.67555618   78.07939911    4.90999985    2.94000006
   13.67861176   77.45570374    4.90999985    2.96000004
   13.68333340   77.45570374    4.90999985    2.98000002
   13.68750000  107.83399963    4.90999985    2.53999996
   13.69083309   -1.00000000    4.90999985    0.89999998
   13.69416714   -1.00000000    4.90999985    0.50000000
   13.69722271   -1.00000000    4.90999985    0.36000001
   13.70083332   -1.00000000    4.90999985    0.19000000
   13.70388889   -1.00000000    4.90999985    0.20999999
   13.70722198   -1.00000000    4.90999985    0.17000000
   13.71027756   -1.00000000    4.90999985    0.38000000
   13.71361065   -1.00000000    4.90999985    0.38000000
   13.71694374   -1.00000000    4.90999985    0.19000000
   13.71999931   -1.00000000    4.90999985    0.15000001
   13.72333336   -1.00000000    4.90999985    0.11000000
   13.72666645   -1.00000000    4.90999985    0.09000000
   13.72972202   -1.00000000    4.90999985    0.09000000
   13.73861122   -1.00000000    4.90999985    0.07000000
   13.74194431   -1.00000000    4.42999983    0.05000000
   13.74499989   -1.00000000    2.19000006    0.05000000
   13.74888897   -1.00000000    1.64999998    0.03000000
   13.75194454   -1.00000000    1.73000002    0.03000000
   13.75527763   -1.00000000    1.60000002    0.01000000
   13.75833321   -1.00000000    1.66999996    0.01000000
   13.76166630   -1.00000000    1.73000002    0.03000000
   13.76500034   -1.00000000    1.78999996    0.03000000
   13.76805496   -1.00000000    2.28999996    0.03000000
   13.77138901   -1.00000000    2.51999998    0.05000000
   13.77472210   -1.00000000    4.32999992    0.07000000
   13.77777767   -1.00000000    4.90999985    0.09000000
   13.78111076   -1.00000000    4.90999985    0.11000000
   13.78972244   -1.00000000    4.90999985    0.23000000
   13.79305553   -1.00000000    4.90999985    0.28000000
   13.79638958   -1.00000000    4.90999985    0.30000001
   13.80000019   -1.00000000    4.90999985    0.31999999
   13.80305576   -1.00000000    4.90999985    0.30000001
   13.80638885   -1.00000000    4.90999985    0.30000001
   13.80972195   -1.00000000    4.90999985    0.38000000
   13.81277752   -1.00000000    4.90999985    0.47999999
   13.81611156  137.58000183    4.90999985    0.61000001
   13.81916618   90.94509888    4.90999985    0.95999998
   13.82250023   82.37689972    4.90999985    1.55999994
   13.82583332   78.40630341    4.90999985    2.34999990
   13.82888889   74.79039764    4.90999985    2.80999994
   13.83222198   82.59300232    2.53999996    2.80999994
   13.83694458   82.59300232    4.90999985    2.86999989
   13.84111118   76.87000275    1.46000004    2.86999989
   13.84444427   83.05079651    1.44000006    2.86999989
   13.84749985   84.12079620    1.44000006    2.86999989
   13.84805489   80.45639801    1.46000004    2.86999989
   13.85138893   80.42430115    1.51999998    2.86999989
   13.85444450   70.56829834    1.71000004    2.86999989
   13.85777855   85.90830231    2.69000006    2.89000010
   13.86111164   78.93389893    4.53000021    2.89000010
   13.86416721   81.67179871    4.90999985    2.91000009
   13.86750031   80.34729767    4.90999985    2.91000009
   13.87083340  109.57599640    4.90999985    2.59999990
   13.87388897   -1.00000000    4.90999985    1.71000004
   13.87722206   -1.00000000    4.90999985    0.38000000
   13.88055611   -1.00000000    4.90999985    0.19000000
   13.88361073   -1.00000000    4.90999985    0.20999999
   13.89222240   -1.00000000    4.90999985    0.81999999
   13.89555550   -1.00000000    4.90999985    1.21000004
   13.89888859   -1.00000000    4.90999985    0.58999997
   13.90222168   -1.00000000    4.90999985    0.25000000
   13.90555477   -1.00000000    4.90999985    0.25000000
   13.90861034   -1.00000000    4.90999985    0.23000000
   13.91194439   -1.00000000    4.90999985    0.23000000
   13.91527748   -1.00000000    4.90999985    0.40000001
   13.91833401   -1.00000000    4.90999985    0.81999999
   13.92166710   -1.00000000    4.90999985    1.38000000
   13.92500019   -1.00000000    4.90999985    1.34000003
   13.92805576   -1.00000000    4.90999985    1.30999994
   13.93138885  156.49200439    4.90999985    1.38000000
   13.93444443  179.83999634    4.90999985    1.85000002
   13.93944454  179.83999634    4.90999985    2.57999992
   13.94361115   83.34889984    4.90999985    2.71000004
   13.94666672   87.73059845    4.90999985    2.94000006
   13.94805527   82.33119965    4.90999985    2.96000004
   13.95027733  152.90299988    4.90999985    2.39000010
   13.95361137   -1.00000000    4.90999985    0.75000000
   13.95666695   -1.00000000    4.90999985    0.98000002
   13.96000004  177.23800659    4.90999985    0.83999997
   13.96305561  169.56100464    4.90999985    1.60000002
   13.96638870  130.66499329    4.90999985    1.16999996
   13.96972179   -1.00000000    4.90999985    1.50000000
   13.97277737   -1.00000000    4.90999985    1.75000000
   13.97611046   80.64520264    4.90999985    1.55999994
   13.97944355   81.29810333    4.90999985    3.01999998
   13.98249912   80.59200287    4.90999985    3.01999998
   13.98583317   90.68699646    4.90999985    2.94000006
   13.99055576   90.68699646    4.90999985    3.03999996
   13.99472237   76.54840088    4.90999985    2.76999998
   13.99805546   82.67739868    4.90999985    3.00000000
   13.99861145   84.88140106    4.90999985    2.98000002
   14.00166702  109.36000061    4.90999985    2.98000002
   14.00500011  118.99800110    4.90999985    2.84999990
   14.00833321  131.20599365    4.90999985    1.86000001
   14.01138878   98.20629883    4.90999985    2.03999996
   14.01472187  116.87100220    4.90999985    2.15000010
   14.01805496  102.45400238    4.90999985    2.09999990
   14.02111053   97.58820343    4.90999985    1.89999998
   14.02444458   89.22170258    4.90999985    2.32999992
   14.02777767   86.30059814    4.90999985    2.39000010
   14.03083324  124.13500214    4.90999985    2.59999990
   14.03416729  103.74199677    4.90999985    1.73000002
   14.03750038   96.48239899    4.90999985    1.88000000
   14.04166698   96.48239899    4.90999985    1.73000002
   14.04583359  103.78900146    4.90999985    1.75000000
   14.04861164  167.65699768    4.90999985    1.44000006
   14.04944515   -1.00000000    4.90999985    1.11000001
   14.05277824   -1.00000000    4.90999985    0.44000000
   14.05583382   -1.00000000    4.90999985    0.25000000
   14.05916691   -1.00000000    4.90999985    0.25999999
   14.06250000  126.55899811    4.90999985    1.16999996
   14.06555557   75.05690002    4.90999985    2.19000006
   14.06888866   84.73439789    4.90999985    2.98000002
   14.07222176   85.44010162    4.90999985    2.96000004
   14.07527733   82.57579803    1.71000004    2.93000007
   14.07861137   83.24510193    4.90999985    2.91000009
   14.08166695   81.51290131    4.90999985    2.91000009
   14.08500004   80.56870270    4.90999985    2.89000010
   14.08833313   83.13999939    4.90999985    2.86999989
   14.09277725   83.13999939    4.90999985    2.86999989
   14.09694386   83.50440216    4.90999985    2.89000010
   14.09861088   87.62609863    4.90999985    2.89000010
   14.10055637   85.15229797    4.90999985    2.89000010
   14.10388947   82.38310242    4.90999985    2.86999989
   14.10722256   82.46489716    4.90999985    2.89000010
   14.11027813   89.76799774    4.90999985    2.89000010
   14.11361122   80.52380371    4.90999985    2.89000010
   14.11666679   79.64880371    4.90999985    2.89000010
   14.11999989   80.94249725    4.90999985    2.91000009
   14.12333393   80.71990204    4.90999985    2.89000010
   14.12638855   77.64939880    4.90999985    2.89000010
   14.12972260   77.86450195    4.90999985    2.91000009
   14.13305569   84.43039703    4.90999985    2.89000010
   14.13611126   82.15509796    4.90999985    2.91000009
   14.13944435   88.69539642    4.90999985    2.89000010
   14.14416695   88.69539642    4.90999985    2.86999989
   14.14833355   84.28359985    4.90999985    2.91000009
   14.14861107   82.14029694    4.90999985    2.91000009
   14.15194416   83.50250244    4.90999985    2.89000010
   14.15527725   85.03769684    4.90999985    2.89000010
   14.15833282   72.38269806    4.90999985    2.89000010
   14.16166592   78.57189941    4.90999985    2.89000010
   14.16499996   84.50479889    4.90999985    2.89000010
   14.16805553   82.81999969    4.90999985    2.91000009
   14.17138958   84.26010132    4.90999985    2.89000010
   14.17444515   83.17829895    4.90999985    2.89000010
   14.17777824   85.17530060    4.90999985    2.89000010
   14.18111134   75.66999817    4.90999985    2.89000010
   14.18416691   79.02429962    4.90999985    2.89000010
   14.18750000   80.27790070    4.90999985    2.91000009
   14.19083309   81.50589752    4.90999985    2.91000009
   14.19527817   81.50589752    4.90999985    2.91000009
   14.19944477   81.40740204    4.90999985    2.91000009
   14.20249939   76.35260010    4.90999985    2.93000007
   14.20583344   78.49130249    4.90999985    2.91000009
   14.20916653   73.88649750    4.90999985    2.89000010
   14.21222210   86.61350250    4.90999985    2.91000009
   14.21555519   79.67220306    4.90999985    2.91000009
   14.21888828   79.29470062    4.90999985    2.91000009
   14.22194386   79.54799652    4.90999985    2.93000007
   14.22527695   89.16970062    4.90999985    2.93000007
   14.22833252   84.02459717    4.90999985    2.91000009
   14.23166656   78.44580078    4.90999985    2.91000009
   14.23500061   81.67379761    4.90999985    2.91000009
   14.23805618   80.80789948    4.90999985    2.91000009
   14.24138927   78.62490082    4.90999985    2.91000009
   14.24638939   78.62490082    4.90999985    2.91000009
   14.25055599   81.74040222    4.90999985    2.91000009
   14.25388908   76.57019806    4.90999985    2.91000009
   14.25722218   77.71589661    4.90999985    2.91000009
   14.26027775   81.45390320    4.90999985    2.91000009
   14.26361084   76.61540222    4.90999985    2.91000009
   14.26666641   81.98190308    4.90999985    2.91000009
   14.26999950   82.94270325    4.90999985    2.93000007
   14.27333355   79.29540253    4.90999985    2.91000009
   14.27638817   79.16979980    4.90999985    2.91000009
   14.27972221   80.58879852    4.90999985    2.89000010
   14.28305531   70.03880310    4.90999985    2.91000009
   14.28611183   77.80680084    4.90999985    2.91000009
   14.28944492   87.47650146    4.90999985    2.91000009
   14.29250050   81.59510040    4.90999985    2.91000009
   14.29750061   81.59510040    4.90999985    2.93000007
   14.30166721   84.77610016    4.90999985    2.93000007
   14.30500031   74.01950073    4.90999985    2.91000009
   14.30833340   85.52469635    4.90999985    2.91000009
   14.31138897   81.36489868    4.90999985    2.91000009
   14.31472206   87.76589966    4.90999985    2.91000009
   14.31805515   87.38520050    4.90999985    2.91000009
   14.32111073   84.61070251    4.90999985    2.91000009
   14.32444477   83.52269745    4.90999985    2.91000009
   14.32750034   81.05870056    4.90999985    2.93000007
   14.33083344   80.68090057    4.90999985    2.93000007
   14.33416653   77.50689697    4.90999985    2.91000009
   14.33722210   78.85759735    4.90999985    2.91000009
   14.34055519   82.38760376    4.90999985    2.93000007
   14.34388828   89.42199707    4.90999985    2.93000007
   14.36527824   83.65509796    4.90999985    2.93000007
   14.36555576   80.50420380    4.90999985    2.93000007
   14.36888885   79.20449829    4.90999985    2.93000007
   14.37222195   82.78119659    4.90999985    2.93000007
   14.37527752   76.77570343    4.90999985    2.93000007
   14.37861156   75.84940338    4.90999985    2.93000007
   14.38166714   77.83560181    4.90999985    2.93000007
   14.38500023   82.01699829    4.90999985    2.93000007
   14.38833332   82.92530060    4.90999985    2.93000007
   14.39138889   76.66580200    4.90999985    2.93000007
   14.39472198   82.85489655    4.90999985    2.93000007
   14.39999962   82.85489655    4.90999985    2.93000007
   14.40416622   76.58630371    4.90999985    2.93000007
   14.40749931   79.45200348    4.90999985    2.93000007
   14.41055489   83.62310028    4.90999985    2.93000007
   14.41388893   82.85449982    4.90999985    2.93000007
   14.41499996   84.44570160    4.90999985    2.93000007
   14.41750050   85.15470123    4.90999985    2.94000006
   14.42083359   79.98600006    4.90999985    2.93000007
   14.42388916   78.24310303    4.90999985    2.93000007
   14.42722225   81.83879852    4.90999985    2.93000007
   14.43055630   77.30149841    4.90999985    2.94000006
   14.43361092   83.65360260    4.90999985    2.94000006
   14.43694496   82.29409790    4.90999985    2.94000006
   14.44000053   78.73059845    4.90999985    2.93000007
   14.44333363   82.30120087    4.90999985    2.93000007
   14.44666672   75.93840027    4.90999985    2.93000007
   14.45138836   75.93840027    4.90999985    2.93000007
   14.45527744   84.97329712    4.90999985    2.93000007
   14.45861053   74.50150299    4.90999985    2.93000007
   14.46194458   77.37090302    4.90999985    2.93000007
   14.46500015   75.12270355    4.90999985    2.93000007
   14.46555519   73.08750153    4.90999985    2.93000007
   14.46888828   79.09839630    4.90999985    2.94000006
   14.47194386   75.47920227    4.90999985    2.94000006
   14.47527695   77.57890320    4.90999985    2.94000006
   14.47833252   81.54100037    4.90999985    2.93000007
   14.48166656   75.01909637    4.90999985    2.93000007
   14.48500061   83.78800201    4.90999985    2.93000007
   14.48805618   75.02660370    4.90999985    2.93000007
   14.49138927   76.41770172    4.90999985    2.93000007
   14.49472237   81.54260254    4.90999985    2.93000007
   14.49777794   77.97080231    4.90999985    2.93000007
   14.50249958   77.97080231    4.90999985    2.93000007
   14.50666714   82.15679932    4.90999985    2.93000007
   14.50972176   74.52739716    4.90999985    2.93000007
   14.51305580   78.05860138    4.90999985    2.93000007
   14.51500034   80.69280243    4.90999985    2.93000007
   14.51666641   78.43890381    4.90999985    2.93000007
   14.51999950   75.60289764    4.90999985    2.89000010
   14.52305508   73.98010254    4.90999985    2.91000009
   14.52638817   77.26499939    4.90999985    2.93000007
   14.52944374   77.10389709    4.90999985    2.91000009
   14.53277779   76.78430176    4.90999985    2.91000009
   14.53611183   78.91120148    4.90999985    2.93000007
   14.53916740   81.72080231    4.90999985    2.93000007
   14.54250050   79.60160065    4.90999985    2.91000009
   14.54583359   80.86270142    4.90999985    2.93000007
   14.54888916   86.14510345    4.90999985    2.93000007
   14.55361176   86.14510345    4.90999985    2.93000007
   14.55777836   81.67980194    4.90999985    2.93000007
   14.56111145   81.62539673    4.90999985    2.93000007
   14.56416702   81.97730255    4.90999985    2.93000007
   14.56500053   77.54260254    4.90999985    2.93000007
   14.56777763   76.03230286    4.90999985    2.93000007
   14.57111073   77.58159637    4.90999985    2.93000007
   14.57416630   83.36730194    4.90999985    2.93000007
   14.57750034   77.26260376    4.90999985    2.93000007
   14.58083344   68.70929718    4.90999985    2.91000009
   14.58388901   75.92600250    4.90999985    2.93000007
   14.58722210   79.27380371    4.90999985    2.91000009
   14.59055519   80.79309845    4.90999985    2.93000007
   14.59361076   77.47170258    4.90999985    2.93000007
   14.59694386   81.04920197    4.90999985    2.93000007
   14.60000038   88.17649841    4.90999985    2.93000007
   14.60472298   88.17649841    4.90999985    2.94000006
   14.60888958   83.82399750    4.90999985    2.93000007
   14.61222267   79.43959808    4.90999985    2.94000006
   14.61527824   79.34439850    4.90999985    2.94000006
   14.61583328   81.15809631    4.90999985    2.94000006
   14.61916637   81.90630341    4.90999985    2.93000007
   14.62222195   83.93589783    4.90999985    2.93000007
   14.62555599   84.45420074    4.90999985    2.94000006
   14.62888908   88.24960327    4.90999985    2.94000006
   14.63194466   75.24949646    4.90999985    2.94000006
   14.63527775   74.52459717    4.90999985    2.94000006
   14.63833332   71.21739960    4.90999985    2.94000006
   14.64166641   79.94550323    4.90999985    2.93000007
   14.64499950   74.07409668    4.90999985    2.93000007
   14.64805508   76.02400208    4.90999985    2.93000007
   14.65138817   80.99459839    4.90999985    2.93000007
   14.65611076   80.99459839    4.90999985    2.94000006
   14.66027737   80.21369934    4.90999985    2.93000007
   14.66333294   79.94029999    4.90999985    2.93000007
   14.66527748   80.58730316    4.90999985    2.93000007
   14.66694450   84.89279938    4.90999985    2.94000006
   14.67027855   84.65119934    4.90999985    2.93000007
   14.67333412   84.64869690    4.90999985    2.93000007
   14.67666721   82.04900360    4.90999985    2.93000007
   14.68000031   75.18340302    4.90999985    2.93000007
   14.68305588   79.34770203    4.90999985    2.93000007
   14.68638897   78.48149872    1.28999996    2.93000007
   14.68972206   80.41929626    1.16999996    2.94000006
   14.69277763   73.78910065    1.16999996    2.94000006
   14.69611073   77.19740295    1.16999996    2.93000007
   14.69916630   75.04799652    1.16999996    2.91000009
   14.70249939   81.05349731    1.19000006    2.93000007
   14.70722198   81.05349731    1.19000006    2.94000006
   14.71138859   81.15219879    1.23000002    2.93000007
   14.71444416   78.07790375    1.16999996    2.93000007
   14.71527767   80.43260193    1.16999996    2.93000007
   14.71805477   83.81800079    1.16999996    2.94000006
   14.72138882   81.38469696    1.14999998    2.93000007
   14.72444439   77.43080139    1.14999998    2.93000007
   14.72777748   78.08200073    1.16999996    2.94000006
   14.73111057   82.74720001    1.16999996    2.94000006
   14.73416710   80.06749725    1.16999996    2.94000006
   14.73750019   85.38829803    1.16999996    2.93000007
   14.74055576   80.52040100    1.19000006    2.93000007
   14.74388885   81.79070282    1.19000006    2.93000007
   14.74722290   75.85649872    1.19000006    2.93000007
   14.75027752   75.92209625    1.19000006    2.93000007
   14.75361156   79.76300049    1.19000006    2.94000006
   14.75833321   79.76300049    1.19000006    2.94000006
   14.76249981   81.19210052    1.19000006    2.93000007
   14.76527786   78.36000061    1.19000006    2.93000007
   14.76611137   71.00640106    1.19000006    2.94000006
   14.76944447   76.48960114    1.19000006    2.94000006
   14.77250004   77.90799713    1.19000006    2.93000007
   14.77583313   81.99939728    1.21000004    2.93000007
   14.77916622   72.83059692    1.19000006    2.93000007
   14.78222179   86.97810364    1.19000006    2.93000007
   14.78555584   78.78810120    1.19000006    2.94000006
   14.78861141   78.58419800    1.16999996    2.94000006
   14.79194450   77.55319977    1.13000000    2.94000006
   14.79527855   79.01670074    1.13000000    2.94000006
   14.79833412   92.56140137    1.13000000    2.94000006
   14.80166721   80.75890350    1.13000000    2.94000006
   14.80500031   79.82019806    1.13000000    2.94000006
   14.80944443   79.82019806    1.14999998    2.94000006
   14.81361103   78.32440186    1.13000000    2.93000007
   14.81555557   89.85910034    1.13000000    2.94000006
   14.81722260   80.88719940    1.11000001    2.94000006
   14.82055569   73.84159851    1.13000000    2.94000006
   14.82361126   75.61959839    1.13000000    2.94000006
   14.82694435   78.68840027    1.13000000    2.94000006
   14.83027744   86.47689819    1.13000000    2.94000006
   14.83333302   85.87519836    1.13000000    2.94000006
   14.83666611   80.12210083    1.13000000    2.94000006
   14.84000015   78.58139801    1.11000001    2.94000006
   14.84305477   74.98889923    1.13000000    2.94000006
   14.84638882   76.60559845    1.13000000    2.94000006
   14.84944439   79.22669983    1.13000000    2.94000006
   14.85277843   78.61479950    1.13000000    2.94000006
   14.85611153   78.15619659    1.13000000    2.94000006
   14.86083412   78.15619659    1.13000000    2.94000006
   14.86500072   74.64540100    1.13000000    2.94000006
   14.86555576   75.88929749    1.13000000    2.94000006
   14.86833382   74.56269836    1.14999998    2.93000007
   14.87166691   73.75920105    1.14999998    2.93000007
   14.87472248   82.30639648    1.14999998    2.94000006
   14.87805557   80.97380066    1.16999996    2.94000006
   14.88138866   71.94719696    1.16999996    2.94000006
   14.88444424   78.45909882    1.16999996    2.94000006
   14.88777733   80.02950287    1.19000006    2.94000006
   14.89111137   78.15679932    1.19000006    2.94000006
   14.89416695   82.86540222    1.21000004    2.94000006
   14.89750004   82.81559753    1.21000004    2.94000006
   14.90055561   75.15419769    1.21000004    2.93000007
   14.90388870   81.16449738    1.21000004    2.93000007
   14.90722179   76.59619904    1.14999998    2.96000004
   14.91194439   76.59619904    1.14999998    2.94000006
   14.91611099   87.43499756    1.14999998    2.96000004
   14.91916656   79.94989777    1.13000000    2.94000006
   14.92250061   77.40039825    1.14999998    2.94000006
   14.92583370   80.09790039    1.14999998    2.94000006
   14.92888927   79.25679779    1.14999998    2.94000006
   14.93222237   77.10800171    1.14999998    2.94000006
   14.93555546   72.19049835    1.14999998    2.94000006
   14.93861103   81.59760284    1.14999998    2.94000006
   14.94194412   81.42700195    1.13000000    2.94000006
   14.94499969   85.90670013    1.13000000    2.94000006
   14.94833374   80.32230377    1.13000000    2.94000006
   14.95166683   81.80529785    1.14999998    2.94000006
   14.95472240   77.45690155    1.13000000    2.94000006
   14.95805550   73.73560333    1.13000000    2.94000006
   14.96305561   73.73560333    1.13000000    2.94000006
   14.96722221   78.15429688    1.14999998    2.94000006
   14.97055531   77.82099915    1.13000000    2.94000006
   14.97361088   81.83470154    1.14999998    2.94000006
   14.97694397   76.55670166    1.13000000    2.94000006
   14.97999954   78.92479706    1.14999998    2.94000006
   14.98333359   84.29429626    1.14999998    2.94000006
   14.98666668   70.06719971    1.14999998    2.94000006
   14.98972225   75.63980103    1.13000000    2.96000004
   14.99305534   74.45729828    1.13000000    2.94000006
   14.99638939   73.08979797    1.13000000    2.94000006
   14.99944496   80.55699921    1.13000000    2.94000006
   15.00277805   77.16040039    1.13000000    2.96000004
   15.00583363   77.51989746    1.11000001    2.94000006
   15.00916672   79.09020233    1.13000000    2.94000006
   15.01416683   79.09020233    1.13000000    2.94000006
   15.01833344   79.09089661    1.11000001    2.96000004
   15.02166653   73.47200012    1.13000000    2.94000006
   15.02499962   72.65830231    1.13000000    2.94000006
   15.02805519   75.07420349    1.14999998    2.94000006
   15.03138828   75.38580322    1.14999998    2.94000006
   15.03472233   81.39459991    1.14999998    2.94000006
   15.03777790   76.50160217    1.16999996    2.94000006
   15.04111195   79.60690308    1.16999996    2.93000007
   15.04444504   79.23390198    1.16999996    2.94000006
   15.04750061   77.18150330    1.16999996    2.94000006
   15.05083370   76.02059937    1.16999996    2.94000006
   15.05388927   82.86199951    1.16999996    2.94000006
   15.05722237   82.52410126    1.16999996    2.94000006
   15.06055546   77.42340088    1.14999998    2.94000006
   15.06555557   77.42340088    1.13000000    2.94000006
   15.06972218   75.88899994    1.13000000    2.94000006
   15.07277775   79.78009796    1.13000000    2.94000006
   15.07611084   78.41089630    1.14999998    2.94000006
   15.07916641   77.50879669    1.13000000    2.94000006
   15.08249950   80.51370239    1.13000000    2.94000006
   15.08583260   82.55449677    1.13000000    2.94000006
   15.08888817   75.60659790    1.13000000    2.94000006
   15.09222221   82.08709717    1.13000000    2.94000006
   15.09527779   74.02189636    1.13000000    2.94000006
   15.09861088   78.32160187    1.11000001    2.93000007
   15.10194492   84.38079834    1.11000001    2.94000006
   15.10527802   76.96939850    1.11000001    2.94000006
   15.10833359   80.46900177    1.13000000    2.94000006
   15.11166668   82.73130035    1.11000001    2.94000006
   15.11666679   82.73130035    1.11000001    2.96000004
   15.12083340   83.41290283    1.11000001    2.94000006
   15.12444496   78.29930115    1.11000001    2.94000006
   15.12750053   78.95729828    1.11000001    2.94000006
   15.13111115   79.42659760    1.11000001    2.94000006
   15.13444424   78.67099762    1.11000001    2.94000006
   15.13749981   77.00820160    1.11000001    2.94000006
   15.14083290   82.11370087    1.11000001    2.94000006
   15.14416695   77.97149658    1.11000001    2.94000006
   15.14722252   80.60350037    1.11000001    2.94000006
   15.15055561   85.41690063    1.13000000    2.94000006
   15.15361118   77.12719727    1.11000001    2.94000006
   15.15694427   79.75109863    1.11000001    2.94000006
   15.16027737   77.58540344    1.11000001    2.94000006
   15.16333294   76.01360321    1.13000000    2.94000006
   15.16777802   76.01360321    1.11000001    2.94000006
   15.17194462   73.94830322    1.13000000    2.94000006
   15.27805519   -1.00000000   -1.00000000   -1.00000000
   15.41111088   -1.00000000   -1.00000000   -1.00000000
   15.63500023   -1.00000000   -1.00000000   -1.00000000
   15.76777744   -1.00000000   -1.00000000   -1.00000000
   15.80444431   78.40740204    1.01999998    2.98000002
   15.80833340   87.11499786    1.00000000    2.96000004
   15.81166649   77.69110107    1.00000000    2.96000004
   15.81500053   80.48349762    0.98000002    2.96000004
   15.81805515   79.29250336    0.98000002    2.98000002
   15.82138920   88.70330048    1.00000000    2.98000002
   15.82444477   86.86119843    1.00000000    2.98000002
   15.82777786   80.28559875    0.98000002    2.98000002
   15.83305550   80.28559875    0.98000002    2.98000002
   15.83722210   80.69110107    0.98000002    2.98000002
   15.84055519   80.05879974    1.00000000    2.96000004
   15.84361076   75.07610321    0.98000002    2.98000002
   15.84694386   72.13990021    0.95999998    2.98000002
   15.85027790   85.43520355    0.98000002    2.98000002
   15.85333347   78.45659637    0.98000002    2.98000002
   15.85444450   80.35949707    0.98000002    2.98000002
   15.85694504   80.36139679    0.98000002    2.98000002
   15.86027813   76.25229645    0.98000002    2.96000004
   15.86333370   77.76100159    0.98000002    2.98000002
   15.86666679   74.93779755    0.95999998    2.98000002
   15.86972237   78.54340363    0.95999998    2.98000002
   15.87305546   71.18820190    0.95999998    2.98000002
   15.87638855   71.67600250    0.95999998    2.98000002
   15.87944412   72.61350250    0.95999998    2.98000002
   15.88444424   72.61350250    0.98000002    2.98000002
   15.88833332   74.60189819    0.98000002    2.98000002
   15.89166641   75.40080261    0.98000002    2.98000002
   15.89499950   82.66940308    1.00000000    2.98000002
   15.89805508   77.80799866    0.98000002    2.96000004
   15.90138817   84.32050323    0.98000002    2.96000004
   15.90444374   82.39890289    1.00000000    2.96000004
   15.90499973   75.21140289    1.00000000    2.96000004
   15.90833282   78.46399689    1.00000000    2.98000002
   15.91138840   75.29879761    1.01999998    2.96000004
   15.91472149   83.01909637    1.01999998    2.98000002
   15.91777802   73.16600037    1.01999998    2.98000002
   15.92111111   81.61489868    1.01999998    2.98000002
   15.92444515   90.68340302    1.01999998    2.98000002
   15.92750072   79.37860107    1.01999998    2.96000004
   15.93083382   79.39679718    1.01999998    2.96000004
   15.93555546   79.39679718    1.00000000    2.98000002
   15.93972206   93.06600189    1.00000000    2.98000002
   15.94277763   76.08719635    1.00000000    2.96000004
   15.94611073   84.58360291    1.00000000    2.96000004
   15.94944477  123.74600220    0.98000002    2.98000002
   15.95249939  148.07499695    0.98000002    2.98000002
   15.95444393  121.97599792    0.98000002    2.96000004
   15.95611095  114.62999725    0.98000002    2.96000004
   15.95944405  123.30799866    1.00000000    2.98000002
   15.96277714  132.69700623    0.98000002    2.96000004
   15.96583271  122.65799713    0.98000002    2.96000004
   15.96916580   99.90889740    0.98000002    2.96000004
   15.97222137  100.19000244    0.98000002    2.96000004
   15.97555542  116.04000092    0.98000002    2.96000004
   15.97888851   87.08360291    1.00000000    2.96000004
   15.98194408  111.55400085    1.00000000    2.98000002
   15.98666668  111.55400085    0.98000002    2.96000004
   15.99083328   98.18199921    1.00000000    2.96000004
   15.99416733  136.31199646    1.00000000    2.98000002
   15.99722290  125.53299713    1.00000000    2.98000002
   16.00055504  127.27200317    1.00000000    2.98000002
   16.00361061   69.04010010    1.00000000    2.98000002
   16.00472260   85.37809753    0.98000002    2.98000002
   16.00722313  168.59300232    0.98000002    2.98000002
   16.01055527  183.47099304    0.98000002    2.98000002
   16.01361084  203.40199280    0.98000002    2.96000004
   16.01694489  211.91799927    0.95999998    2.96000004
   16.02027702  209.49499512    0.94000000    2.98000002
   16.02333260  260.97100830    0.94000000    2.98000002
   16.02666664  218.74299622    0.94000000    2.98000002
   16.03000069  207.33200073    0.92000002    2.98000002
   16.03305435  197.30700684    0.92000002    2.98000002
   16.03777695  197.30700684    0.94000000    2.98000002
   16.04194450  181.57899475    0.94000000    2.98000002
   16.04527664  180.87199402    0.94000000    3.00000000
   16.04833221  189.62500000    0.94000000    2.98000002
   16.05166626  181.71499634    0.94000000    2.98000002
   16.05444336  176.23300171    0.94000000    3.00000000
   16.05527687  187.68800354    0.94000000    3.00000000
   16.05861092  163.89799500    0.95999998    2.98000002
   16.06166649  200.15100098    0.95999998    2.96000004
   16.06499863  178.26899719    0.95999998    2.98000002
   16.06833458  183.86700439    0.98000002    2.98000002
   16.07139015  188.87100220    0.95999998    2.98000002
   16.07472229  207.39999390    0.95999998    2.98000002
   16.07777786  207.30200195    0.95999998    2.98000002
   16.08111191  189.75900269    0.95999998    2.98000002
   16.08444595  177.49400330    0.94000000    2.98000002
   16.08916664  177.49400330    0.94000000    2.98000002
   16.09305573  154.24400330    0.94000000    2.98000002
   16.09638977  180.13000488    0.94000000    2.98000002
   16.09972191  153.57000732    0.94000000    2.98000002
   16.10277748  145.80200195    0.94000000    2.98000002
   16.10472298  189.84199524    0.94000000    2.98000002
   16.10639000  189.20599365    0.94000000    2.98000002
   16.10972214  192.06199646    0.94000000    2.98000002
   16.11277771  198.59500122    0.92000002    2.98000002
   16.11611176  189.77200317    0.89999998    2.98000002
   16.11944389  168.35499573    0.89999998    3.00000000
   16.12249947  176.66900635    0.89999998    2.98000002
   16.12583351  168.21899414    0.89999998    3.00000000
   16.12916756  152.83599854    0.89999998    3.00000000
   16.13222313  172.36999512    0.89999998    2.98000002
   16.13555527  147.00399780    0.89999998    2.98000002
   16.14027786  147.00399780    0.92000002    2.98000002
   16.14444351  162.24200439    0.92000002    2.98000002
   16.14749908  166.12600708    0.92000002    2.98000002
   16.15083313  128.81399536    0.92000002    2.98000002
   16.15416718  159.66900635    0.92000002    2.98000002
   16.15472221  177.03599548    0.92000002    2.98000002
   16.15749931  172.64799500    0.89999998    2.98000002
   16.16083336  160.96499634    0.89999998    2.98000002
   16.16416550  146.02299500    0.92000002    2.98000002
   16.16722107  161.29400635    0.92000002    2.98000002
   16.17055511  155.66099548    0.92000002    2.98000002
   16.17388916  144.03599548    0.89999998    2.98000002
   16.17694473  137.90100098    0.92000002    3.00000000
   16.18027687  154.76199341    0.92000002    2.98000002
   16.18333244  147.74400330    0.89999998    3.00000000
   16.18666649  165.48199463    0.89999998    2.98000002
   16.19138718  165.48199463    0.89999998    2.98000002
   16.19555473  134.32899475    0.89999998    3.00000000
   16.19888878  135.92599487    0.88000000    3.00000000
   16.20194435  118.57099915    0.89999998    2.98000002
   16.20472336  147.70599365    0.89999998    2.98000002
   16.20555687  128.31500244    0.89999998    3.00000000
   16.20888901  119.73500061    0.89999998    2.98000002
   16.21222305  137.69299316    0.92000002    3.00000000
   16.21527863  114.09600067    0.89999998    3.00000000
   16.21861076  125.34600067    0.89999998    2.98000002
   16.22194481  133.29200745    0.89999998    2.98000002
   16.22500038  118.61699677    0.89999998    2.98000002
   16.22833443  103.81600189    0.89999998    2.98000002
   16.23139000  143.35499573    0.89999998    2.98000002
   16.23472214  124.52300262    0.89999998    3.00000000
   16.23805618  127.02400208    0.89999998    3.00000000
   16.24250031  127.02400208    0.92000002    2.98000002
   16.24666786  135.78199768    0.94000000    2.98000002
   16.25000000   96.54239655    1.00000000    2.98000002
   16.25305557  134.91600037    1.05999994    2.98000002
   16.25472260  117.08499908    1.11000001    2.98000002
   16.25666618  117.64199829    1.16999996    2.98000002
   16.26000023  118.50700378    1.30999994    2.98000002
   16.26333427  133.07099915    1.51999998    3.00000000
   16.26638794  107.45600128    1.53999996    2.98000002
   16.26972198  126.77500153    1.55999994    2.98000002
   16.27305603  118.87400055    1.73000002    2.98000002
   16.27611160  112.06999969    1.73000002    3.00000000
   16.27944374  108.81400299    1.80999994    3.00000000
   16.28249931  117.54799652    1.83000004    3.00000000
   16.28583336  118.26799774    1.94000006    3.01999998
   16.28916550  126.10099792    2.30999994    3.00000000
   16.29388809  126.10099792    3.05999994    3.00000000
   16.29777718   99.00420380    3.76999998    3.00000000
   16.30111122  104.21099854    4.71999979    3.00000000
   16.30444336  106.56099701    4.90999985    3.00000000
   16.30499840  133.77200317    4.90999985    3.00000000
   16.30777740   98.58689880    4.90999985    3.00000000
   16.31110954  100.79499817    4.90999985    3.01999998
   16.31444359  105.77999878    4.90999985    3.00000000
   16.31750107  113.42099762    4.90999985    3.01999998
   16.32083511  115.56700134    4.90999985    3.01999998
   16.32389069  113.41500092    4.90999985    3.00000000
   16.32722282  118.20099640    4.90999985    3.00000000
   16.33055687  114.69300079    4.90999985    3.01999998
   16.33361244  112.55699921    4.90999985    3.01999998
   16.33694458   99.63500214    4.90999985    3.01999998
   16.34027863  104.87400055    4.90999985    3.01999998
   16.34500122  104.87400055    4.90999985    3.01999998
   16.34916687   70.85060120    4.90999985    3.01999998
   16.35222244   69.62380219    4.90999985    3.01999998
   16.35499954   71.17289734    4.90999985    3.03999996
   16.35583305  103.64099884    4.90999985    3.03999996
   16.35916710  110.91699982    4.90999985    3.01999998
   16.36250114  104.70899963    4.90999985    3.03999996
   16.36555672  127.83599854    4.90999985    3.01999998
   16.36888885   99.60590363    4.90999985    3.03999996
   16.37194443   90.45999908    4.90999985    3.01999998
   16.37527847  104.22799683    0.69000000    3.11999989
   16.37861061   93.90299988    0.07000000    0.25000000
   16.38166618  111.16799927    0.07000000    0.25000000
   16.38500023   90.38099670    0.07000000    0.25000000
   16.38833237  118.99500275    0.07000000    0.25000000
   16.39138794  113.02600098    0.07000000    0.25000000
   16.39611053  113.02600098    0.07000000    0.25000000
   16.40027809  104.08499908    0.07000000    0.25000000
   16.40361023  101.20899963    0.07000000    0.25000000
   16.40499878  104.97499847    0.07000000    0.25000000
   16.40694427  100.31500244    0.07000000    0.25000000
   16.41027832  105.49600220    0.07000000    0.25000000
   16.41361046  113.69599915    0.07000000    0.25000000
   16.41666603   93.73690033    0.07000000    0.25000000
   16.42000008  108.52899933    0.07000000    0.25000000
   16.42333221  108.56700134    0.07000000    0.25000000
   16.42638779  111.67800140    0.07000000    0.25000000
   16.42972183  106.97499847    0.07000000    0.25000000
   16.43277740   91.44680023    0.07000000    0.25000000
   16.43610954   91.07659912    0.07000000    0.25000000
   16.43944359   88.66739655    0.07000000    0.25000000
   16.44249916   99.08730316    0.07000000    0.25000000
   16.44722176   99.08730316    0.07000000    0.25000000
   16.45138931   98.62519836    0.07000000    0.25000000
   16.45472336   88.72779846    0.07000000    0.25000000
   16.45527840   97.89050293    0.07000000    0.25000000
   16.45833397  105.31199646    0.07000000    0.25000000
   16.46166801   98.24490356    0.07000000    0.25000000
   16.46500015   74.48349762    0.07000000    0.25000000
   16.46805573   82.28939819    0.07000000    0.25000000
   16.47138977   91.78089905    0.07000000    0.25000000
   16.47472191   94.65589905    0.07000000    0.25000000
   16.47777748   92.71530151    0.07000000    0.25000000
   16.48111153   90.38110352    0.07000000    0.25000000
   16.48444557   87.96659851    0.07000000    0.25000000
   16.48750114   80.21589661    0.07000000    0.25000000
   16.49083328   87.20909882    0.07000000    0.25000000
   16.49388885   81.04299927    0.07000000    0.25000000
   16.49861145   81.04299927    0.07000000    0.25000000
   16.50250053   71.16249847    0.07000000    0.25000000
   16.50527763   75.51329803    0.07000000    0.25000000
   16.50611115   82.69799805    0.07000000    0.25000000
   16.50944519   76.92810059    0.07000000    0.25000000
   16.51277733   79.13480377    0.07000000    0.25000000
   16.51583290   79.09390259    0.07000000    0.25000000
   16.51916695   77.28579712    0.07000000    0.25000000
   16.52249908   76.87660217    0.07000000    0.25000000
   16.52555466   80.64409637    0.07000000    0.25000000
   16.52888870   78.89050293    0.07000000    0.25000000
   16.53194427   79.32769775    0.07000000    0.25000000
   16.53527641   77.72589874    0.07000000    0.25000000
   16.53861046   77.69329834    0.07000000    0.25000000
   16.54166603   80.34210205    0.07000000    0.25000000
   16.54500008   82.65270233    0.07000000    0.25000000
   16.54972076   82.65270233    0.07000000    0.25000000
   16.55388832   77.01959991    0.07000000    0.25000000
   16.55527687   83.03800201    0.07000000    0.25000000
   16.55722237   82.81130219    0.07000000    0.25000000
   16.56055450   85.18840027    0.07000000    0.25000000
   16.56388855   80.17009735    0.07000000    0.25000000
   16.56694603   77.81130219    0.07000000    0.25000000
   16.57027817   76.23429871    0.07000000    0.25000000
   16.57361221   77.22879791    0.07000000    0.25000000
   16.57666779   79.16490173    0.07000000    0.25000000
   16.58000183   78.33080292    0.07000000    0.25000000
   16.58305550   68.76229858    0.07000000    0.25000000
   16.58638954   71.29530334    0.07000000    0.25000000
   16.58972359   78.00969696    0.07000000    0.25000000
   16.59277916   78.70069885    0.07000000    0.25000000
   16.59611130   79.82559967    0.07000000    0.25000000
   16.60083389   79.82559967    0.07000000    0.25000000
   16.60499954   80.65640259    0.07000000    0.25000000
   16.60555649   82.09480286    0.07000000    0.25000000
   16.60888863   80.38459778    0.07000000    0.25000000
   16.61194420   79.51149750    0.07000000    0.25000000
   16.61527824   79.04090118    0.07000000    0.25000000
   16.61833382   78.43080139    0.07000000    0.25000000
   16.62166595   77.35160065    0.07000000    0.25000000
   16.62500000   75.18750000    0.07000000    0.25000000
   16.62805557   79.85160065    0.07000000    0.25000000
   16.63138962   78.41660309    0.07000000    0.25000000
   16.63472176   81.23310089    0.07000000    0.25000000
   16.63777733   78.25949860    0.07000000    0.25000000
   16.64111137   75.65480042    0.07000000    0.25000000
   16.64416695   76.01280212    0.07000000    0.25000000
   16.64749908   81.37290192    0.07000000    0.25000000
   16.65194321   81.37290192    0.07000000    0.25000000
   16.65611076   76.80580139    0.07000000    0.25000000
   16.65944481   86.13410187    0.07000000    0.25000000
   16.66250038   80.11080170    0.07000000    0.25000000
   16.66583252   78.35250092    0.07000000    0.25000000
   16.66916656   86.38469696    0.07000000    0.25000000
   16.67222214   79.81330109    0.07000000    0.25000000
   16.67555428   73.45989990    0.07000000    0.25000000
   16.67888832   85.35530090    0.07000000    0.25000000
   16.68194389   79.42520142    0.07000000    0.25000000
   16.68527603   79.20410156    0.07000000    0.25000000
   16.68833160   74.70079803    0.07000000    0.25000000
   16.69166565   81.89389801    0.07000000    0.25000000
   16.69499969   80.77239990    0.07000000    0.25000000
   16.69805527   78.62930298    0.07000000    0.25000000
   16.70333481   78.62930298    0.07000000    0.25000000
   16.70722389   77.94059753    0.07000000    0.25000000
   16.71055603   80.13349915    0.07000000    0.25000000
   16.71389008   89.25180054    0.07000000    0.25000000
   16.71694565   83.22660065    0.07000000    0.25000000
   16.72027779   79.66339874    0.07000000    0.25000000
   16.72361183   77.44159698    0.07000000    0.25000000
   16.72666740   83.76830292    0.07000000    0.25000000
   16.73000145   80.42569733    0.07000000    0.25000000
   16.73333359   81.69100189    0.07000000    0.25000000
   16.73638916   72.16239929    0.07000000    0.25000000
   16.73972321   83.46759796    0.07000000    0.25000000
   16.74277878   81.69170380    0.07000000    0.25000000
   16.74611092   80.65360260    0.07000000    0.25000000
   16.74944496   81.10729980    0.07000000    0.25000000
   16.75444412   81.10729980    0.07000000    0.25000000
   16.75861168   81.83280182    0.07000000    0.25000000
   16.76166725   80.74060059    0.07000000    0.25000000
   16.76499939   85.39939880    0.07000000    0.25000000
   16.76833344   87.78050232    0.07000000    0.25000000
   16.77138901   82.09400177    0.07000000    0.25000000
   16.77472115   82.48200226    0.07000000    0.25000000
   16.77777672   84.31829834    0.07000000    0.25000000
   16.78111076   89.89689636    0.07000000    0.25000000
   16.78444481   87.85690308    0.07000000    0.25000000
   16.78750038   84.33010101    0.07000000    0.25000000
   16.79083252   77.35549927    0.07000000    0.25000000
   16.79416656   80.86229706    0.07000000    0.25000000
   16.79722214   84.60700226    0.07000000    0.25000000
   16.80055428   79.29799652    0.07000000    0.25000000
   16.82194519   74.96260071    0.07000000    0.25000000
   16.82250023   77.97589874    0.07000000    0.25000000
   16.82555580   73.09470367    0.07000000    0.25000000
   16.82888985   78.00650024    0.07000000    0.25000000
   16.83222389   83.18090057    0.07000000    0.25000000
   16.83527756   78.31250000    0.07000000    0.25000000
   16.83861160   73.46060181    0.07000000    0.25000000
   16.84166718   80.65809631    0.07000000    0.25000000
   16.84500122   76.28250122    0.07000000    0.25000000
   16.84833336   80.05590057    0.07000000    0.25000000
   16.85138893   77.29270172    0.07000000    0.25000000
   16.85694504   77.29270172    0.07000000    0.25000000
   16.86111069   78.85250092    0.07000000    0.25000000
   16.86416626   85.73320007    0.07000000    0.25000000
   16.86750031   75.70539856    0.07000000    0.25000000
   16.87055588   83.45600128    0.07000000    0.25000000
   16.87194443   80.26679993    0.07000000    0.25000000
   16.87416649   78.28279877    0.07000000    0.25000000
   16.87750053   80.76660156    0.07000000    0.25000000
   16.88083267   85.32869720    0.07000000    0.25000000
   16.88388824   85.55290222    0.07000000    0.25000000
   16.88722229   82.41639709    0.07000000    0.25000000
   16.89055634   86.47440338    0.07000000    0.25000000
   16.89361191   81.81680298    0.07000000    0.25000000
   16.89694405   82.23079681    0.07000000    0.25000000
   16.89999962   84.45500183    0.07000000    0.25000000
   16.90333366   84.66870117    0.07000000    0.25000000
   16.90805435   84.66870117    0.07000000    0.25000000
   16.91222191   87.77010345    0.07000000    0.25000000
   16.91527748   80.09359741    0.07000000    0.25000000
   16.91860962   83.68730164    0.07000000    0.25000000
   16.92194366   82.45220184    0.07000000    0.25000000
   16.92249870   86.04340363    0.07000000    0.25000000
   16.92555428   84.48609924    0.07000000    0.25000000
   16.92888832   81.87619781    0.07000000    0.25000000
   16.93222237   85.75869751    0.07000000    0.25000000
   16.93527603   83.30390167    0.07000000    0.25000000
   16.93861008   82.91529846    0.07000000    0.25000000
   16.94166565   83.16600037    0.07000000    0.25000000
   16.94499969   79.46489716    0.07000000    0.25000000
   16.94833183   76.16079712    0.07000000    0.25000000
   16.95138931   81.40779877    0.07000000    0.25000000
   16.95472336   87.77149963    0.07000000    0.25000000
   16.95916748   87.77149963    0.07000000    0.25000000
   16.96333504   84.40319824    0.07000000    0.25000000
   16.96666718   84.96589661    0.07000000    0.25000000
   16.96972275   82.56919861    0.07000000    0.25000000
   16.97194481   69.94740295    0.07000000    0.25000000
   16.97361183   88.06999969    0.07000000    0.25000000
   16.97666740   82.95300293    0.07000000    0.25000000
   16.98000145   80.63510132    0.07000000    0.25000000
   16.98305511   85.59439850    0.07000000    0.25000000
   16.98638916   82.96230316    0.07000000    0.25000000
   16.98972321   81.11280060    0.07000000    0.25000000
   16.99277878   77.13390350    0.07000000    0.25000000
   16.99611092   77.36419678    0.07000000    0.25000000
   16.99944496   80.70680237    0.07000000    0.25000000
   17.00250053   84.13670349    0.07000000    0.25000000
   17.00583267   86.58129883    0.07000000    0.25000000
   17.01027870   86.58129883    0.07000000    0.25000000
   17.01444435   73.40229797    0.07000000    0.25000000
   17.01777840   80.00820160    0.07000000    0.25000000
   17.02111053   77.01260376    0.07000000    0.25000000
   17.02194405   79.34580231    0.07000000    0.25000000
   17.02472115   88.83750153    0.07000000    0.25000000
   17.02777672   83.06759644    0.07000000    0.25000000
   17.03111076   81.72039795    0.07000000    0.25000000
   17.03416634   80.32240295    0.07000000    0.25000000
   17.03750038   78.92890167    0.07000000    0.25000000
   17.04083252   86.06759644    0.07000000    0.25000000
   17.04388809   77.03880310    0.07000000    0.25000000
   17.04722214   76.50070190    0.07000000    0.25000000
   17.05055428   77.74980164    0.07000000    0.25000000
   17.05360985   80.52929688    0.07000000    0.25000000
   17.05694389   76.77559662    0.07000000    0.25000000
   17.06166649   76.77559662    0.07000000    0.25000000
   17.06583214   87.00849915    0.07000000    0.25000000
   17.06888962   71.66899872    0.07000000    0.25000000
   17.07222366   77.81250000    0.07000000    0.25000000
   17.07250023   78.21119690    0.07000000    0.25000000
   17.07583427   78.60119629    0.07000000    0.25000000
   17.07888985   76.00000000    0.07000000    0.25000000
   17.08222389   78.71109772    0.07000000    0.25000000
   17.08555603   84.61830139    0.07000000    0.25000000
   17.08861160   73.86019897    0.07000000    0.25000000
   17.09194565   77.58200073    0.07000000    0.25000000
   17.09527779   73.42189789    0.07000000    0.25000000
   17.09833336   85.87840271    0.07000000    0.25000000
   17.10166740   81.30780029    0.07000000    0.25000000
   17.10472298   88.49839783    0.07000000    0.25000000
   17.10805511   83.63330078    0.07000000    0.25000000
   17.11277771   83.63330078    0.07000000    0.25000000
   17.11694527   82.92890167    0.07000000    0.25000000
   17.12027740   75.59429932    0.07000000    0.25000000
   17.12222290   76.33100128    0.07000000    0.25000000
   17.12361145   79.55780029    0.07000000    0.25000000
   17.12694550   79.05760193    0.07000000    0.25000000
   17.13027763   78.03099823    0.07000000    0.25000000
   17.13333321   79.18920135    0.07000000    0.25000000
   17.13666725   83.71900177    0.07000000    0.25000000
   17.13972282   75.71859741    0.07000000    0.25000000
   17.14305496   89.32589722    0.07000000    0.25000000
   17.14638901   81.50319672    0.07000000    0.25000000
   17.14944458   87.49469757    0.07000000    0.25000000
   17.15277672   78.06169891    0.07000000    0.25000000
   17.15611076   82.95610046    0.07000000    0.25000000
   17.15916634   76.11759949    0.07000000    0.25000000
   17.16388893   76.11759949    0.07000000    0.25000000
   17.16805458   82.89929962    0.07000000    0.25000000
   17.17138863   83.58730316    0.07000000    0.25000000
   17.17222214   85.43170166    0.07000000    0.25000000
   17.17499924   81.55000305    0.07000000    0.25000000
   17.17833328   81.69629669    0.07000000    0.25000000
   17.18166542   83.52059937    0.07000000    0.25000000
   17.18472099   82.53359985    0.07000000    0.25000000
   17.18805504   88.06900024    0.07000000    0.25000000
   17.19138718   77.17140198    0.07000000    0.25000000
   17.19444275   79.48549652    0.07000000    0.25000000
   17.19777679   82.05059814    0.07000000    0.25000000
   17.20083427   89.09590149    0.07000000    0.25000000
   17.20416832   85.34549713    0.07000000    0.25000000
   17.20750046   85.58149719    0.07000000    0.25000000
   17.21055603   82.81590271    0.07000000    0.25000000
   17.21527863   82.81590271    0.07000000    0.25000000
   17.21944427   70.63680267    0.07000000    0.25000000
   17.22222328   74.94999695    0.07000000    0.25000000
   17.22277832   80.88159943    0.07000000    0.25000000
   17.22611237   81.30300140    0.07000000    0.25000000
   17.22944450   77.41940308    0.07000000    0.25000000
   17.23250008   86.35590363    0.07000000    0.25000000
   17.23583412   81.83350372    0.07000000    0.25000000
   17.23916626   83.97219849    0.07000000    0.25000000
   17.24222183   82.84239960    0.07000000    0.25000000
   17.24555588   83.18049622    0.07000000    0.25000000
   17.24861145   78.45880127    0.07000000    0.25000000
   17.25194359   75.05509949    0.07000000    0.25000000
   17.25527763   80.07730103    0.07000000    0.25000000
   17.25833321   82.24880219    0.07000000    0.25000000
   17.26166725   82.20210266    0.07000000    0.25000000
   17.26638794   82.20210266    0.07000000    0.25000000
   17.27055550   82.15740204    0.07000000    0.25000000
   17.27222252   81.12740326    0.07000000    0.25000000
   17.27416611   77.53710175    0.07000000    0.25000000
   17.27722168   80.47889709    0.07000000    0.25000000
   17.28055573   81.39040375    0.07000000    0.25000000
   17.28361130   78.43920135    0.07000000    0.25000000
   17.28694344   78.51609802    0.07000000    0.25000000
   17.29027748   81.85829926    0.07000000    0.25000000
   17.29333305   80.28440094    0.07000000    0.25000000
   17.29666710   80.87449646    0.07000000    0.25000000
   17.29999924   84.10050201    0.07000000    0.25000000
   17.30305481   81.25759888    0.07000000    0.25000000
   17.30638885   84.24749756    0.07000000    0.25000000
   17.30944443   83.00440216    0.07000000    0.25000000
   17.31277657   82.44429779    0.07000000    0.25000000
   17.31750107   82.44429779    0.07000000    0.25000000
   17.32166672   72.97489929    0.07000000    0.25000000
   17.32222366   87.58910370    0.07000000    0.25000000
   17.32527924   84.09300232    0.07000000    0.25000000
   17.32833481   84.14800262    0.07000000    0.25000000
   17.33166695   85.22689819    0.07000000    0.25000000
   17.33472252   80.87860107    0.07000000    0.25000000
   17.33805656   84.91269684    0.07000000    0.25000000
   17.34138870   82.83000183    0.07000000    0.25000000
   17.34444427   80.95469666    0.07000000    0.25000000
   17.34777832   81.84700012    0.07000000    0.25000000
   17.35111237   87.03430176    0.07000000    0.25000000
   17.35416794   82.41480255    0.07000000    0.25000000
   17.35750008   83.73889923    0.07000000    0.25000000
   17.36055565   82.80149841    0.07000000    0.25000000
   17.36388969   81.36209869    0.07000000    0.25000000
   17.36861038   81.36209869    0.07000000    0.25000000
   17.37277794   83.92769623    0.07000000    0.25000000
   17.37611198   85.07700348    0.07000000    0.25000000
   17.37944412   79.20819855    0.07000000    0.25000000
   17.38249969   85.18750000    0.07000000    0.25000000
   17.38583374   85.50789642    0.07000000    0.25000000
   17.38888931   82.22319794    0.07000000    0.25000000
   17.39222145   78.47570038    0.07000000    0.25000000
   17.39555550   78.16459656    0.07000000    0.25000000
   17.39861107   81.37889862    0.07000000    0.25000000
   17.40194321   79.81050110    0.07000000    0.25000000
   17.40527725   75.89040375    0.07000000    0.25000000
   17.40833282   80.39880371    0.07000000    0.25000000
   17.41166687   83.39720154    0.07000000    0.25000000
   17.41472244   76.18810272    0.07000000    0.25000000
   17.42000008   76.18810272    0.07000000    0.25000000
   17.42416573   78.54049683    0.07000000    0.25000000
   17.42722130   79.04209900    0.07000000    0.25000000
   17.43055534   86.72070313    0.07000000    0.25000000
   17.43361092   83.57089996    0.07000000    0.25000000
   17.43694305   72.84249878    0.07000000    0.25000000
   17.44027710   82.64450073    0.07000000    0.25000000
   17.44333267   88.02619934    0.07000000    0.25000000
   17.44666672   84.12210083    0.07000000    0.25000000
   17.45000076   83.76470184    0.07000000    0.25000000
   17.45305634   76.73690033    0.07000000    0.25000000
   17.45639038   86.01090240    0.07000000    0.25000000
   17.45944595   85.76640320    0.07000000    0.25000000
   17.46277809   84.83290100    0.07000000    0.25000000
   17.46611214   88.70719910    0.07000000    0.25000000
   17.47111130   88.70719910    0.07000000    0.25000000
   17.47527885   85.38999939    0.07000000    0.25000000
   17.47833443   84.39260101    0.07000000    0.25000000
   17.48166656   81.93280029    0.07000000    0.25000000
   17.48500061   83.64060211    0.07000000    0.25000000
   17.48805618   83.77159882    0.07000000    0.25000000
   17.49138832   83.09500122    0.07000000    0.25000000
   17.49472237   81.86859894    0.07000000    0.25000000
   17.49777794   78.12860107    0.07000000    0.25000000
   17.50111198   83.63860321    0.07000000    0.25000000
   17.50416756   88.26589966    0.07000000    0.25000000
   17.50749969   83.17359924    0.07000000    0.25000000
   17.51083374   83.78639984    0.07000000    0.25000000
   17.51388931   80.67729950    0.07000000    0.25000000
   17.51722145   91.55400085    0.07000000    0.25000000
   17.52222252   91.55400085    0.07000000    0.25000000
   17.52638817   87.58049774    0.07000000    0.25000000
   17.52972221   85.67449951    0.07000000    0.25000000
   17.53305435   78.10369873    0.07000000    0.25000000
   17.53610992   80.76080322    0.07000000    0.25000000
   17.53944397   78.60720062    0.07000000    0.25000000
   17.54249954   74.25209808    0.07000000    0.25000000
   17.54583359   77.36380005    0.07000000    0.25000000
   17.54916573   77.25119781    0.07000000    0.25000000
   17.55222130   83.58750153    0.07000000    0.25000000
   17.55555534   85.89790344    0.07000000    0.25000000
   17.55888748   79.30310059    0.07000000    0.25000000
   17.56194305   75.86260223    0.07000000    0.25000000
   17.56527710   75.31629944    0.07000000    0.25000000
   17.56833458   82.23650360    0.07000000    0.25000000
   17.57333374   82.23650360    0.07000000    0.25000000
   17.57750130   79.71320343    0.07000000    0.25000000
   17.58083344   78.10079956    0.07000000    0.25000000
   17.58416748   76.14869690    0.07000000    0.25000000
   17.58722305   76.45179749    0.07000000    0.25000000
   17.59055710   74.96499634    0.07000000    0.25000000
   17.59361267   74.86139679    0.07000000    0.25000000
   17.59694481   76.20159912    0.07000000    0.25000000
   17.60027885   81.16130066    0.07000000    0.25000000
   17.60333443   72.92669678    0.07000000    0.25000000
   17.60666656   79.63760376    0.07000000    0.25000000
   17.61000061   77.09169769    0.07000000    0.25000000
   17.61305618   75.27799988    0.07000000    0.25000000
   17.61638832   81.57340240    0.07000000    0.25000000
   17.61972237   76.82610321    0.07000000    0.25000000
   17.62472153   76.82610321    0.07000000    0.25000000
   17.62888908   76.56950378    0.07000000    0.25000000
   17.63194466   76.28119659    0.07000000    0.25000000
   17.63527679   83.31130219    0.07000000    0.25000000
   17.63833237   79.94180298    0.07000000    0.25000000
   17.64166641   81.25440216    0.07000000    0.25000000
   17.64500046   80.43569946    0.07000000    0.25000000
   17.64805603   79.63390350    0.07000000    0.25000000
   17.65138817   81.53959656    0.07000000    0.25000000
   17.65472221   80.64550018    0.07000000    0.25000000
   17.65777779   79.22720337    0.07000000    0.25000000
   17.66110992   72.92720032    0.07000000    0.25000000
   17.66416550   81.99579620    0.07000000    0.25000000
   17.66749954   81.89550018    0.07000000    0.25000000
   17.67083359   82.30590057    0.07000000    0.25000000
   17.67583275   82.30590057    0.07000000    0.25000000
   17.68000031   89.82469940    0.07000000    0.25000000
   17.68305397   82.26599884    0.07000000    0.25000000
   17.68638802   82.30220032    0.07000000    0.25000000
   17.68972206   84.59190369    0.07000000    0.25000000
   17.69277763   83.32479858    0.07000000    0.25000000
   17.69610977   80.66850281    0.07000000    0.25000000
   17.69944382   77.13549805    0.07000000    0.25000000
   17.70250130   85.56759644    0.07000000    0.25000000
   17.70583344   75.94249725    0.07000000    0.25000000
   17.70916748   84.30709839    0.07000000    0.25000000
   17.71222305   85.16419983    0.07000000    0.25000000
   17.71555710   81.19920349    0.07000000    0.25000000
   17.71861076   82.13529968    0.07000000    0.25000000
   17.72194481   87.61399841    0.07000000    0.25000000
   17.72694588   87.61399841    0.07000000    0.25000000
   17.73111153   85.50440216    0.07000000    0.25000000
   17.73444557   85.97940063    0.07000000    0.25000000
   17.73750114   78.75820160    0.07000000    0.25000000
   17.74083328   83.40280151    0.07000000    0.25000000
   17.74416733   80.63249969    0.07000000    0.25000000
   17.74722290   81.18499756    0.07000000    0.25000000
   17.75055504   78.56559753    0.07000000    0.25000000
   17.75361061   81.40409851    0.07000000    0.25000000
   17.75694466   75.96080017    0.07000000    0.25000000
   17.76027870   81.21790314    0.07000000    0.25000000
   17.76333427   87.29650116    0.07000000    0.25000000
   17.76666641   82.13659668    0.07000000    0.25000000
   17.77000046   85.44039917    0.07000000    0.25000000
   17.77305603   79.54070282    0.07000000    0.25000000
   17.77805519   79.54070282    0.07000000    0.25000000
   17.78222275   82.29280090    0.07000000    0.25000000
   17.78555489   82.28639984    0.07000000    0.25000000
   17.78888893   86.30670166    0.07000000    0.25000000
   17.79194450   79.06839752    0.07000000    0.25000000
   17.79527664   84.54119873    0.07000000    0.25000000
   17.79833221   82.23459625    0.07000000    0.25000000
   17.80166626   83.55870056    0.07000000    0.25000000
   17.80499840   78.98629761    0.07000000    0.25000000
   17.80805397   81.29650116    0.07000000    0.25000000
   17.81138802   81.74810028    0.07000000    0.25000000
   17.81472206   88.16629791    0.07000000    0.25000000
   17.81777954   79.03079987    0.07000000    0.25000000
   17.82111168   78.69010162    0.07000000    0.25000000
   17.84222221   78.69010162    0.07000000    0.25000000
   17.84638977   76.34819794    0.07000000    0.25000000
   17.84944534   73.69819641    0.07000000    0.25000000
   17.85277748   75.58380127    0.07000000    0.25000000
   17.85611153   76.65750122    0.07000000    0.25000000
   17.85916710   77.93890381    0.07000000    0.25000000
   17.86250114   84.62529755    0.07000000    0.25000000
   17.86555672   79.05090332    0.07000000    0.25000000
   17.86888885   78.32080078    0.07000000    0.25000000
   17.87222290   81.65570068    0.07000000    0.25000000
   17.87527847   80.85630035    0.07000000    0.25000000
   17.87861061   75.89820099    0.07000000    0.25000000
   17.88194466   69.26260376    0.07000000    0.25000000
   17.88500023   84.23570251    0.07000000    0.25000000
   17.88833237   79.65329742    0.07000000    0.25000000
   17.88972282   78.21980286    0.07000000    0.25000000
   17.89388847   78.21980286    0.07000000    0.25000000
   17.89777756   76.64910126    0.07000000    0.25000000
   17.90111160   75.83789825    0.07000000    0.25000000
   17.90444374   75.63379669    0.07000000    0.25000000
   17.90749931   77.17019653    0.07000000    0.25000000
   17.91083336   78.55670166    0.07000000    0.25000000
   17.91416550   77.41639709    0.07000000    0.25000000
   17.91722107   79.31150055    0.07000000    0.25000000
   17.92055511   80.89620209    0.07000000    0.25000000
   17.92361069   76.53489685    0.07000000    0.25000000
   17.92694473   82.32260132    0.07000000    0.25000000
   17.93027687   81.10540009    0.07000000    0.25000000
   17.93333244   82.40609741    0.07000000    0.25000000
   17.93666649   83.42060089    0.07000000    0.25000000
   17.93972206   89.21009827    0.07000000    0.25000000
   17.94027710   82.14320374    0.07000000    0.25000000
   17.94499969   82.14320374    0.07000000    0.25000000
   17.94916534   79.57689667    0.07000000    0.25000000
   17.95222282   78.78720093    0.07000000    0.25000000
   17.95555687   77.63050079    0.07000000    0.25000000
   17.95888901   79.72010040    0.07000000    0.25000000
   17.96194458   75.86689758    0.07000000    0.25000000
   17.96527863   79.81490326    0.07000000    0.25000000
   17.96833420   80.21399689    0.07000000    0.25000000
   17.97166634   78.86820221    0.07000000    0.25000000
   17.97500038   82.21199799    0.07000000    0.25000000
   17.97805595   77.96420288    0.07000000    0.25000000
   17.98139000   82.30799866    0.07000000    0.25000000
   17.98472214   85.31610107    0.07000000    0.25000000
   17.98777771   77.37719727    0.07000000    0.25000000
   17.98972321   86.00160217    0.07000000    0.25000000
   17.99138832   83.55970001    0.07000000    0.25000000
   17.99611092   83.55970001    0.07000000    0.25000000
   18.00027847   78.95259857    0.07000000    0.25000000
   18.00361061   87.75119781    0.07000000    0.25000000
   18.00666618   89.82890320    0.07000000    0.25000000
   18.01000023   78.48349762    0.07000000    0.25000000
   18.01305580   82.60260010    0.07000000    0.25000000
   18.01638794   85.64179993    0.07000000    0.25000000
   18.01972198   86.28800201    0.07000000    0.25000000
   18.02277756   78.54869843    0.07000000    0.25000000
   18.02611160   79.34369659    0.07000000    0.25000000
   18.02944374   80.58110046    0.07000000    0.25000000
   18.03249931   84.44159698    0.07000000    0.25000000
   18.03583336   89.79920197    0.07000000    0.25000000
   18.03888893   86.38330078    0.07000000    0.25000000
   18.03972244   83.38289642    0.07000000    0.25000000
   18.04249954   86.03040314    0.07000000    0.25000000
   18.04722214   86.03040314    0.07000000    0.25000000
   18.05138779   80.87760162    0.07000000    0.25000000
   18.05472183   82.27970123    0.07000000    0.25000000
   18.05777740   80.73989868    0.07000000    0.25000000
   18.06110954   85.76750183    0.07000000    0.25000000
   18.06444359   80.80449677    0.07000000    0.25000000
   18.06750107   87.43489838    0.07000000    0.25000000
   18.07083511   78.28500366    0.07000000    0.25000000
   18.07416725   80.37960052    0.07000000    0.25000000
   18.07722282   82.08499908    0.07000000    0.25000000
   18.08055687   78.56300354    0.07000000    0.25000000
   18.08361244   82.02169800    0.07000000    0.25000000
   18.08694458   77.15760040    0.07000000    0.25000000
   18.08972359   71.45639801    0.07000000    0.25000000
   18.09055710   85.19450378    0.07000000    0.25000000
   18.09388924   81.99819946    0.07000000    0.25000000
   18.09861183   81.99819946    0.07000000    0.25000000
   18.10250092   81.98580170    0.07000000    0.25000000
   18.10583305   86.52999878    0.07000000    0.25000000
   18.10916710   91.99310303    0.07000000    0.25000000
   18.11222267   86.93019867    0.07000000    0.25000000
   18.11555672   87.08380127    0.07000000    0.25000000
   18.11888885   83.53949738    0.07000000    0.25000000
   18.12194443   85.95960236    0.07000000    0.25000000
   18.12527847   81.53649902    0.07000000    0.25000000
   18.12861061   75.07379913    0.07000000    0.25000000
   18.13166618   91.75990295    0.07000000    0.25000000
   18.13500023   80.94689941    0.07000000    0.25000000
   18.13833237   77.31890106    0.07000000    0.25000000
   18.13972282   79.42980194    0.07000000    0.25000000
   18.14166641   80.64289856    0.07000000    0.25000000
   18.14500046   78.30979919    0.07000000    0.25000000
   18.14972115   78.30979919    0.07000000    0.25000000
   18.15388870   82.61630249    0.07000000    0.25000000
   18.15694427   90.36930084    0.07000000    0.25000000
   18.16027832   79.60859680    0.07000000    0.25000000
   18.16361046   81.05660248    0.07000000    0.25000000
   18.16666603   80.87590027    0.07000000    0.25000000
   18.17000008   86.01909637    0.07000000    0.25000000
   18.17305565   94.35340118    0.07000000    0.25000000
   18.17638779   81.42800140    0.07000000    0.25000000
   18.17972183   87.43800354    0.07000000    0.25000000
   18.18277740   80.04160309    0.07000000    0.25000000
   18.18610954   89.17120361    0.07000000    0.25000000
   18.18944359   90.02429962    0.07000000    0.25000000
   18.18972206   91.63619995    0.07000000    0.25000000
   18.19305420   87.37550354    0.07000000    0.25000000
   18.19638824   89.45950317    0.07000000    0.25000000
   18.20083427   89.45950317    0.07000000    0.25000000
   18.20499992   68.92639923    0.07000000    0.25000000
   18.20833397   76.45999908    0.07000000    0.25000000
   18.21138954   76.96859741    0.07000000    0.25000000
   18.21472359   77.08319855    0.07000000    0.25000000
   18.21777916   82.27790070    0.07000000    0.25000000
   18.22111130   78.08830261    0.07000000    0.25000000
   18.22444534   78.53579712    0.07000000    0.25000000
   18.22750092   83.95050049    0.07000000    0.25000000
   18.23083305   84.57740021    0.07000000    0.25000000
   18.23416710   76.84750366    0.07000000    0.25000000
   18.23722267   80.18260193    0.07000000    0.25000000
   18.23972321   78.15599823    0.07000000    0.25000000
   18.24083328   80.01180267    0.07000000    0.25000000
   18.24416733   82.65670013    0.07000000    0.25000000
   18.24722290   80.96160126    0.07000000    0.25000000
   18.25194359   80.96160126    0.07000000    0.25000000
   18.25611115   77.53279877    0.07000000    0.25000000
   18.25944519   75.46910095    0.07000000    0.25000000
   18.26250076   77.16529846    0.07000000    0.25000000
   18.26583290   79.10469818    0.07000000    0.25000000
   18.26916695   80.20760345    0.07000000    0.25000000
   18.27222252   77.54029846    0.07000000    0.25000000
   18.27555466   74.99469757    0.07000000    0.25000000
   18.27888870   77.95079803    0.07000000    0.25000000
   18.28194427   82.99099731    0.07000000    0.25000000
   18.28527641   79.72290039    0.07000000    0.25000000
   18.28833199   80.15370178    0.07000000    0.25000000
   18.28972244   77.14830017    0.07000000    0.25000000
   18.29194450   90.89900208    0.07000000    0.25000000
   18.29527664   81.16200256    0.07000000    0.25000000
   18.29833221   75.51439667    0.07000000    0.25000000
   18.30333328   75.51439667    0.07000000    0.25000000
   18.30722237   82.64749908    0.07000000    0.25000000
   18.31055450   80.47109985    0.07000000    0.25000000
   18.31388855   80.13670349    0.07000000    0.25000000
   18.31694603   88.44280243    0.07000000    0.25000000
   18.32027817   86.62999725    0.07000000    0.25000000
   18.32361221   75.80590057    0.07000000    0.25000000
   18.32666779   79.81770325    0.07000000    0.25000000
   18.33000183   79.02300262    0.07000000    0.25000000
   18.33305550   79.22589874    0.07000000    0.25000000
   18.33638954   77.10910034    0.07000000    0.25000000
   18.33972359   82.78379822    0.07000000    0.25000000
   18.34027863   76.24469757    0.07000000    0.25000000
   18.34333420   79.32540131    0.07000000    0.25000000
   18.34666824   83.03720093    0.07000000    0.25000000
   18.35000038   79.44090271    0.07000000    0.25000000
   18.35444450   79.44090271    0.07000000    0.25000000
   18.35861206   83.61750031    0.07000000    0.25000000
   18.36166763   96.17880249    0.07000000    0.25000000
   18.36499977   74.48529816    0.07000000    0.25000000
   18.36833382   86.95200348    0.07000000    0.25000000
   18.37138939   81.00839996    0.07000000    0.25000000
   18.37472153   84.46440125    0.07000000    0.25000000
   18.37777710   91.56529999    0.07000000    0.25000000
   18.38111115   79.10710144    0.07000000    0.25000000
   18.38444519   83.18090057    0.07000000    0.25000000
   18.38750076   86.32649994    0.07000000    0.25000000
   18.39027786   79.67140198    0.07000000    0.25000000
   18.39111137   86.10459900    0.07000000    0.25000000
   18.39444351   88.00669861    0.07000000    0.25000000
   18.39749908   86.19380188    0.07000000    0.25000000
   18.40083313   88.55079651    0.07000000    0.25000000
   18.40555573   88.55079651    0.07000000    0.25000000
   18.40972137   84.09259796    0.07000000    0.25000000
   18.41305542   86.26789856    0.07000000    0.25000000
   18.41611099   75.53479767    0.07000000    0.25000000
   18.41944313   83.15650177    0.07000000    0.25000000
   18.42249870   84.74459839    0.07000000    0.25000000
   18.42583275   78.96630096    0.07000000    0.25000000
   18.42916679   82.30339813    0.07000000    0.25000000
   18.43222237   70.81240082    0.07000000    0.25000000
   18.43555450   83.75379944    0.07000000    0.25000000
   18.43888855   83.26180267    0.07000000    0.25000000
   18.44027710   89.10379791    0.07000000    0.25000000
   18.44222069   90.81250000    0.07000000    0.25000000
   18.44555473   83.60710144    0.07000000    0.25000000
   18.44888878   76.27999878    0.07000000    0.25000000
   18.45194435   84.19960022    0.07000000    0.25000000
   18.45666695   84.19960022    0.07000000    0.25000000
   18.46083450   82.24549866    0.07000000    0.25000000
   18.46416664   82.11440277    0.07000000    0.25000000
   18.46722221   76.75330353    0.07000000    0.25000000
   18.47055626   75.73650360    0.07000000    0.25000000
   18.47389030   79.76429749    0.07000000    0.25000000
   18.47694588   82.55639648    0.07000000    0.25000000
   18.48027802   79.51119995    0.07000000    0.25000000
   18.48361206   78.47740173    0.07000000    0.25000000
   18.48666763   77.23059845    0.07000000    0.25000000
   18.48999977   81.30269623    0.07000000    0.25000000
   18.49055672   76.55989838    0.07000000    0.25000000
   18.49361229   81.28479767    0.07000000    0.25000000
   18.49694443   85.87840271    0.07000000    0.25000000
   18.50027847   85.78610229    0.07000000    0.25000000
   18.50333405   75.98359680    0.07000000    0.25000000
   18.50777817   75.98359680    0.07000000    0.25000000
   18.51194382   77.04000092    0.07000000    0.25000000
   18.51527786   79.03679657    0.07000000    0.25000000
   18.51861000   82.63710022    0.07000000    0.25000000
   18.52166557   74.11060333    0.07000000    0.25000000
   18.52499962   72.11779785    0.07000000    0.25000000
   18.52833366   85.32340240    0.07000000    0.25000000
   18.53138924   80.48130035    0.07000000    0.25000000
   18.53472137   89.15640259    0.07000000    0.25000000
   18.53777695   85.44349670    0.07000000    0.25000000
   18.54055595   85.19390106    0.07000000    0.25000000
   18.54166603   87.47399902    0.07000000    0.25000000
   18.54472160   90.95330048    0.07000000    0.25000000
   18.54805565   83.06379700    0.07000000    0.25000000
   18.55111122   75.42019653    0.07000000    0.25000000
   18.55444336   79.76190186    0.07000000    0.25000000
   18.55916595   79.76190186    0.07000000    0.25000000
   18.56333351   76.94539642    0.07000000    0.25000000
   18.56638718   83.27469635    0.07000000    0.25000000
   18.56972313   80.23529816    0.07000000    0.25000000
   18.57305717   82.98419952    0.07000000    0.25000000
   18.57611275   77.84960175    0.07000000    0.25000000
   18.57944489   82.43470001    0.07000000    0.25000000
   18.58250046   84.61589813    0.07000000    0.25000000
   18.58583450   79.73529816    0.07000000    0.25000000
   18.58916664   77.22170258    0.07000000    0.25000000
   18.59055710   75.48650360    0.07000000    0.25000000
   18.59277916   76.97450256    0.07000000    0.25000000
   18.59583473   78.42880249    0.07000000    0.25000000
   18.59916687   87.09339905    0.07000000    0.25000000
   18.60222244   82.42590332    0.07000000    0.25000000
   18.60555649   86.33290100    0.07000000    0.25000000
   18.61027908   86.33290100    0.07000000    0.25000000
   18.61444473   83.70600128    0.07000000    0.25000000
   18.61750031   75.20210266    0.07000000    0.25000000
   18.62083435   83.33219910    0.07000000    0.25000000
   18.62416649   81.39320374    0.07000000    0.25000000
   18.62722206   83.02770233    0.07000000    0.25000000
   18.63055611   84.75279999    0.07000000    0.25000000
   18.63388824   84.12609863    0.07000000    0.25000000
   18.63694382   79.76950073    0.07000000    0.25000000
   18.64027786   82.45829773    0.07000000    0.25000000
   18.64083290   73.31079865    0.07000000    0.25000000
   18.64388847   82.65969849    0.07000000    0.25000000
   18.64722252   78.46340179    0.07000000    0.25000000
   18.65055466   80.29419708    0.07000000    0.25000000
   18.65361023   79.57180023    0.07000000    0.25000000
   18.65694427   85.18139648    0.07000000    0.25000000
   18.66138840   85.18139648    0.07000000    0.25000000
   18.66555595   83.90799713    0.07000000    0.25000000
   18.66888809   82.87349701    0.07000000    0.25000000
   18.67194366   84.87960052    0.07000000    0.25000000
   18.67527771   85.64990234    0.07000000    0.25000000
   18.67860985   78.08540344    0.07000000    0.25000000
   18.68166542   78.57990265    0.07000000    0.25000000
   18.68499947   75.65440369    0.07000000    0.25000000
   18.68805504   78.25579834    0.07000000    0.25000000
   18.69083214   81.71250153    0.07000000    0.25000000
   18.69194412   81.37169647    0.07000000    0.25000000
   18.69499969   74.22010040    0.07000000    0.25000000
   18.69833183   76.02739716    0.07000000    0.25000000
   18.70138931   85.69899750    0.07000000    0.25000000
   18.70472336   76.76879883    0.07000000    0.25000000
   18.70805550   75.87670135    0.07000000    0.25000000
   18.71250153   75.87670135    0.07000000    0.25000000
   18.71666718   75.39520264    0.07000000    0.25000000
   18.72000122   74.28160095    0.07000000    0.25000000
   18.72333336   75.14379883    0.07000000    0.25000000
   18.72638893   81.20649719    0.07000000    0.25000000
   18.72972298   80.42749786    0.07000000    0.25000000
   18.73277855   75.24340057    0.07000000    0.25000000
   18.73611069   77.92420197    0.07000000    0.25000000
   18.73944473   84.46549988    0.07000000    0.25000000
   18.74083328   78.41500092    0.07000000    0.25000000
   18.74305534   83.73629761    0.07000000    0.25000000
   18.74611092   80.51999664    0.07000000    0.25000000
   18.74944496   79.75800323    0.07000000    0.25000000
   18.75250053   85.53019714    0.07000000    0.25000000
   18.75583267   82.79070282    0.07000000    0.25000000
   18.75916672   84.59980011    0.07000000    0.25000000
   18.76388931   84.59980011    0.07000000    0.25000000
   18.76777840   89.12090302    0.07000000    0.25000000
   18.77111053   89.00399780    0.07000000    0.25000000
   18.77444458   88.81990051    0.07000000    0.25000000
   18.77750015   78.78939819    0.07000000    0.25000000
   18.78083229   80.41429901    0.07000000    0.25000000
   18.78416634   81.61199951    0.07000000    0.25000000
   18.78722191   81.42299652    0.07000000    0.25000000
   18.79055595   76.58159637    0.07000000    0.25000000
   18.79111099   79.44049835    0.07000000    0.25000000
   18.79416656   87.32309723    0.07000000    0.25000000
   18.79749870   79.36029816    0.07000000    0.25000000
   18.80083275   79.89900208    0.07000000    0.25000000
   18.80388832   81.71029663    0.07000000    0.25000000
   18.80722237   79.22149658    0.07000000    0.25000000
   18.81055450   84.33959961    0.07000000    0.25000000
   18.81499863   84.33959961    0.07000000    0.25000000
   18.81916809   82.04550171    0.07000000    0.25000000
   18.82222366   77.58689880    0.07000000    0.25000000
   18.82555580   82.37419891    0.07000000    0.25000000
   18.82888985   88.60060120    0.07000000    0.25000000
   18.83194542   82.54940033    0.07000000    0.25000000
   18.83527756   79.08070374    0.07000000    0.25000000
   18.83833313   84.44170380    0.07000000    0.25000000
   18.85555649   86.93869781    0.07000000    0.25000000
   18.85805511   82.42769623    0.07000000    0.25000000
   18.86138916   78.89739990    0.07000000    0.25000000
   18.86638832   78.89739990    0.07000000    0.25000000
   18.87055588   79.57759857    0.07000000    0.25000000
   18.87361145   77.32649994    0.07000000    0.25000000
   18.87694550   78.25910187    0.07000000    0.25000000
   18.88027763   81.89279938    0.07000000    0.25000000
   18.88333321   74.49970245    0.07000000    0.25000000
   18.88666725   74.57070160    0.07000000    0.25000000
   18.88972282   79.49069977    0.07000000    0.25000000
   18.89305496   78.89140320    0.07000000    0.25000000
   18.89638901   96.71489716    0.07000000    0.25000000
   18.89944458   84.77970123    0.07000000    0.25000000
   18.90277672   72.56349945    0.07000000    0.25000000
   18.90527725   83.47470093    0.07000000    0.25000000
   18.90638924   76.92720032    0.07000000    0.25000000
   18.90972137   87.19190216    0.07000000    0.25000000
   18.91277695   86.33820343    0.07000000    0.25000000
   18.91749954   86.33820343    0.07000000    0.25000000
   18.92166519   78.07050323    0.07000000    0.25000000
   18.92499924   77.34020233    0.07000000    0.25000000
   18.92805481   82.47059631    0.07000000    0.25000000
   18.93138885   80.80960083    0.07000000    0.25000000
   18.93444443   87.05349731    0.07000000    0.25000000
   18.93777657   84.69100189    0.07000000    0.25000000
   18.94111061   78.68160248    0.07000000    0.25000000
   18.94416618   82.58959961    0.07000000    0.25000000
   18.94749832   77.02719879    0.07000000    0.25000000
   18.95083427   72.13390350    0.07000000    0.25000000
   18.95388985   78.53949738    0.07000000    0.25000000
   18.95527840   78.25039673    0.07000000    0.25000000
   18.95750046   91.45490265    0.07000000    0.25000000
   18.96083450   75.56130219    0.07000000    0.25000000
   18.96389008   78.41829681    0.07000000    0.25000000
   18.96861076   78.41829681    0.07000000    0.25000000
   18.97277832   77.48110199    0.07000000    0.25000000
   18.97611237   78.25050354    0.07000000    0.25000000
   18.97916794   83.88800049    0.07000000    0.25000000
   18.98250008   80.62920380    0.07000000    0.25000000
   18.98583412   81.60579681    0.07000000    0.25000000
   18.98888969   80.71589661    0.07000000    0.25000000
   18.99222183   81.04119873    0.07000000    0.25000000
   18.99527740   82.66059875    0.07000000    0.25000000
   18.99861145   80.08789825    0.07000000    0.25000000
   19.00194359   82.08519745    0.07000000    0.25000000
   19.00499916   83.88919830    0.07000000    0.25000000
   19.00555611   79.71769714    0.07000000    0.25000000
   19.00888824   80.33429718    0.07000000    0.25000000
   19.01194382   84.24639893    0.07000000    0.25000000
   19.01527786   82.08409882    0.07000000    0.25000000
   19.02000046   82.08409882    0.07000000    0.25000000
   19.02388954   82.50279999    0.07000000    0.25000000
   19.02722168   81.44249725    0.07000000    0.25000000
   19.03055573   76.89309692    0.07000000    0.25000000
   19.03361130   75.50199890    0.07000000    0.25000000
   19.03694344   78.29699707    0.07000000    0.25000000
   19.03999901   75.51560211    0.07000000    0.25000000
   19.04333305   76.95290375    0.07000000    0.25000000
   19.04666710   74.38020325    0.07000000    0.25000000
   19.04972076   79.49990082    0.07000000    0.25000000
   19.05305481   76.10739899    0.07000000    0.25000000
   19.05555534   84.05269623    0.07000000    0.25000000
   19.05666542   74.40889740    0.07000000    0.25000000
   19.05999947   75.52290344    0.07000000    0.25000000
   19.06305504   73.14320374    0.07000000    0.25000000
   19.06638718   74.05380249    0.07000000    0.25000000
   19.07111168   74.05380249    0.07000000    0.25000000
   19.07527924   84.12979889    0.07000000    0.25000000
   19.07833481   87.08229828    0.07000000    0.25000000
   19.08166695   74.58719635    0.07000000    0.25000000
   19.08472252   80.51959991    0.07000000    0.25000000
   19.08805656   77.02929688    0.07000000    0.25000000
   19.09138870   77.88990021    0.07000000    0.25000000
   19.09444427   79.88690186    0.07000000    0.25000000
   19.09777832   76.09960175    0.07000000    0.25000000
   19.10111237   84.41249847    0.07000000    0.25000000
   19.10416794   81.80580139    0.07000000    0.25000000
   19.10555649   80.02359772    0.07000000    0.25000000
   19.10777855   77.88569641    0.07000000    0.25000000
   19.11111069   82.56179810    0.07000000    0.25000000
   19.11416626   71.49669647    0.07000000    0.25000000
   19.11750031   77.65509796    0.07000000    0.25000000
   19.12222290   77.65509796    0.07000000    0.25000000
   19.12638855   83.22010040    0.07000000    0.25000000
   19.12944412   82.44210052    0.07000000    0.25000000
   19.13277817   81.29370117    0.07000000    0.25000000
   19.13611031   80.08540344    0.07000000    0.25000000
   19.13916588   77.86150360    0.07000000    0.25000000
   19.14249992   82.25270081    0.07000000    0.25000000
   19.14583397   77.33159637    0.07000000    0.25000000
   19.14888954   76.50199890    0.07000000    0.25000000
   19.15222168   72.59790039    0.07000000    0.25000000
   19.15555573   80.60569763    0.07000000    0.25000000
   19.15611076   86.77390289    0.07000000    0.25000000
   19.15916634   83.53220367    0.07000000    0.25000000
   19.16250038   81.56909943    0.07000000    0.25000000
   19.16555595   78.53040314    0.07000000    0.25000000
   19.16888809   75.91960144    0.07000000    0.25000000
   19.17333221   75.91960144    0.07000000    0.25000000
   19.17749977   81.20290375    0.07000000    0.25000000
   19.18083191   81.47959900    0.07000000    0.25000000
   19.18388748   82.05239868    0.07000000    0.25000000
   19.18722153   77.95230103    0.07000000    0.25000000
   19.19055557   81.56749725    0.07000000    0.25000000
   19.19361115   83.40110016    0.07000000    0.25000000
   19.19694328   87.17289734    0.07000000    0.25000000
   19.20000076   82.35929871    0.07000000    0.25000000
   19.20333481   84.97419739    0.07000000    0.25000000
   19.20611191   74.74579620    0.07000000    0.25000000
   19.20694542   76.80670166    0.07000000    0.25000000
   19.21027946   76.34799957    0.07000000    0.25000000
   19.21333504   80.23139954    0.07000000    0.25000000
   19.21666718   84.61550140    0.07000000    0.25000000
   19.22000122   76.52680206    0.07000000    0.25000000
   19.22444534   76.52680206    0.07000000    0.25000000
   19.22861099   72.56060028    0.07000000    0.25000000
   19.23194504   77.11669922    0.07000000    0.25000000
   19.23527718   77.76110077    0.07000000    0.25000000
   19.23833275   78.46150208    0.07000000    0.25000000
   19.24166679   84.08650208    0.07000000    0.25000000
   19.24472237   82.68039703    0.07000000    0.25000000
   19.24805641   87.09140015    0.07000000    0.25000000
   19.25138855   86.06690216    0.07000000    0.25000000
   19.25444412   85.53220367    0.07000000    0.25000000
   19.25611115   89.24559784    0.07000000    0.25000000
   19.25805473   84.86190033    0.07000000    0.25000000
   19.26138878   86.92579651    0.07000000    0.25000000
   19.26472282   75.58139801    0.07000000    0.25000000
   19.26777840   84.56289673    0.07000000    0.25000000
   19.27111053   96.12059784    0.07000000    0.25000000
   19.27583313   96.12059784    0.07000000    0.25000000
   19.28000069   95.37470245    0.07000000    0.25000000
   19.28305435   87.33319855    0.07000000    0.25000000
   19.28638840   83.40399933    0.07000000    0.25000000
   19.28944397   90.72750092    0.07000000    0.25000000
   19.29277802   80.57779694    0.07000000    0.25000000
   19.29611015   90.43000031    0.07000000    0.25000000
   19.29916573   88.01519775    0.07000000    0.25000000
   19.30249977   85.51000214    0.07000000    0.25000000
   19.30583191   92.75669861    0.07000000    0.25000000
   19.30638885   97.55280304    0.07000000    0.25000000
   19.30944443   90.61740112    0.07000000    0.25000000
   19.31277657   88.18170166    0.07000000    0.25000000
   19.31583214   84.77310181    0.07000000    0.25000000
   19.31916809   85.82569885    0.07000000    0.25000000
   19.32250023   76.76229858    0.07000000    0.25000000
   19.32694626   76.76229858    0.07000000    0.25000000
   19.33111191   90.76339722    0.07000000    0.25000000
   19.33416748   89.87899780    0.07000000    0.25000000
   19.33750153   93.82209778    0.07000000    0.25000000
   19.34083366  100.62000275    0.07000000    0.25000000
   19.34388924   94.22129822    0.07000000    0.25000000
   19.34722328   96.37770081    0.07000000    0.25000000
   19.35055542   94.57659912    0.07000000    0.25000000
   19.35361099   90.85119629    0.07000000    0.25000000
   19.35639000   91.00399780    0.07000000    0.25000000
   19.35722351   85.00129700    0.07000000    0.25000000
   19.36055565   72.49620056    0.07000000    0.25000000
   19.36388969   82.34829712    0.07000000    0.25000000
   19.36694527   89.01180267    0.07000000    0.25000000
   19.37027740   76.93240356    0.07000000    0.25000000
   19.37333298   84.24469757    0.07000000    0.25000000
   19.37805557   84.24469757    0.07000000    0.25000000
   19.38222313   88.08969879    0.07000000    0.25000000
   19.38555527   86.11550140    0.07000000    0.25000000
   19.38861084   90.13439941    0.07000000    0.25000000
   19.39194489   92.73049927    0.07000000    0.25000000
   19.39527702   91.54499817    0.07000000    0.25000000
   19.39833260   85.05000305    0.07000000    0.25000000
   19.40166664  106.29900360    0.07000000    0.25000000
   19.40499878  103.43399811    0.07000000    0.25000000
   19.40638924   96.16100311    0.07000000    0.25000000
   19.40833282   96.01190186    0.07000000    0.25000000
   19.41166687   96.89040375    0.07000000    0.25000000
   19.41499901   79.10880280    0.07000000    0.25000000
   19.41805458   95.01239777    0.07000000    0.25000000
   19.42138863  102.34799957    0.07000000    0.25000000
   19.42444420   96.26840210    0.07000000    0.25000000
   19.42916679   96.26840210    0.07000000    0.25000000
   19.43333244  110.57599640    0.07000000    0.25000000
   19.43666649   93.74530029    0.07000000    0.25000000
   19.43999863  104.27600098    0.07000000    0.25000000
   19.44305420   75.61609650    0.07000000    0.25000000
   19.44638824  104.67199707    0.07000000    0.25000000
   19.44944382   97.01300049    0.07000000    0.25000000
   19.45277786  105.11199951    0.07000000    0.25000000
   19.45611191   98.46569824    0.07000000    0.25000000
   19.45666695  100.80599976    0.07000000    0.25000000
   19.45972252   96.73709869    0.07000000    0.25000000
   19.46305656   88.88069916    0.07000000    0.25000000
   19.46611214   89.19080353    0.07000000    0.25000000
   19.46944427   88.28489685    0.07000000    0.25000000
   19.47277832  107.04799652    0.07000000    0.25000000
   19.47583389  103.51999664    0.07000000    0.25000000
   19.48055649  103.51999664    0.07000000    0.25000000
   19.48472214   97.24500275    0.07000000    0.25000000
   19.48777771   85.48979950    0.07000000    0.25000000
   19.49111176   93.96710205    0.07000000    0.25000000
   19.49416733   85.73789978    0.07000000    0.25000000
   19.49749947   88.29750061    0.07000000    0.25000000
   19.50083351   77.65360260    0.07000000    0.25000000
   19.50388908   85.58439636    0.07000000    0.25000000
   19.50666618   91.23410034    0.07000000    0.25000000
   19.50749969   88.92810059    0.07000000    0.25000000
   19.51083374   85.31269836    0.07000000    0.25000000
   19.51388931   86.33200073    0.07000000    0.25000000
   19.51722145   88.05639648    0.07000000    0.25000000
   19.52055550   76.89320374    0.07000000    0.25000000
   19.52361107   88.17729950    0.07000000    0.25000000
   19.52694511   88.30760193    0.07000000    0.25000000
   19.53166580   88.30760193    0.07000000    0.25000000
   19.53583336   95.09829712    0.07000000    0.25000000
   19.53888893   96.84519958    0.07000000    0.25000000
   19.54222107   89.71739960    0.07000000    0.25000000
   19.54555511  100.43000031    0.07000000    0.25000000
   19.54861069   75.35520172    0.07000000    0.25000000
   19.55194283   88.12349701    0.07000000    0.25000000
   19.55527687   90.43499756    0.07000000    0.25000000
   19.55666542  101.26599884    0.07000000    0.25000000
   19.55861092   89.16390228    0.07000000    0.25000000
   19.56194305   83.56420135    0.07000000    0.25000000
   19.56527710   93.22930145    0.07000000    0.25000000
   19.56833458   92.03350067    0.07000000    0.25000000
   19.57166672   82.68599701    0.07000000    0.25000000
   19.57472229   87.30030060    0.07000000    0.25000000
   19.57805634   91.84400177    0.07000000    0.25000000
   19.58277893   91.84400177    0.07000000    0.25000000
   19.58694458   85.79570007    0.07000000    0.25000000
   19.59027863   85.76490021    0.07000000    0.25000000
   19.59333420   83.06250000    0.07000000    0.25000000
   19.59666824   84.60399628    0.07000000    0.25000000
   19.60000038   75.89420319    0.07000000    0.25000000
   19.60305595   86.46179962    0.07000000    0.25000000
   19.60639000   84.08419800    0.07000000    0.25000000
   19.60694504   84.13220215    0.07000000    0.25000000
   19.61000061   77.70069885    0.07000000    0.25000000
   19.61333466   79.12210083    0.07000000    0.25000000
   19.61666679   82.02570343    0.07000000    0.25000000
   19.61972237   79.87500000    0.07000000    0.25000000
   19.62305641   83.76080322    0.07000000    0.25000000
   19.62638855   84.91059875    0.07000000    0.25000000
   19.62944412   86.18840027    0.07000000    0.25000000
   19.63388824   86.18840027    0.07000000    0.25000000
   19.63805580   79.45649719    0.07000000    0.25000000
   19.64138794   82.94290161    0.07000000    0.25000000
   19.64472198   90.42639923    0.07000000    0.25000000
   19.64777756   86.90769958    0.07000000    0.25000000
   19.65111160   78.66590118    0.07000000    0.25000000
   19.65444374   78.99579620    0.07000000    0.25000000
   19.65694427   97.75740051    0.07000000    0.25000000
   19.65833282   75.65529633    0.07000000    0.25000000
   19.66138840   91.28199768    0.07000000    0.25000000
   19.66472244   86.66510010    0.07000000    0.25000000
   19.66777802   87.78040314    0.07000000    0.25000000
   19.67111015   91.07849884    0.07000000    0.25000000
   19.67444420   98.65470123    0.07000000    0.25000000
   19.67749977   91.35710144    0.07000000    0.25000000
   19.68083191   84.21549988    0.07000000    0.25000000
   19.68527603   84.21549988    0.07000000    0.25000000
   19.68944359   85.06780243    0.07000000    0.25000000
   19.69249916   79.84899902    0.07000000    0.25000000
   19.69583321   78.82050323    0.07000000    0.25000000
   19.69888878   80.93350220    0.07000000    0.25000000
   19.70222282   75.64140320    0.07000000    0.25000000
   19.70555687   75.63200378    0.07000000    0.25000000
   19.70694542   77.32309723    0.07000000    0.25000000
   19.70888901   88.03520203    0.07000000    0.25000000
   19.71222305   79.31749725    0.07000000    0.25000000
   19.71555710   78.38410187    0.07000000    0.25000000
   19.71861076   80.96130371    0.07000000    0.25000000
   19.72194481   81.13179779    0.07000000    0.25000000
   19.72527885   79.53450012    0.07000000    0.25000000
   19.72833443   82.78859711    0.07000000    0.25000000
   19.73166656   80.88780212    0.07000000    0.25000000
   19.73638916   80.88780212    0.07000000    0.25000000
   19.74055672   84.52339935    0.07000000    0.25000000
   19.74361229   95.48570251    0.07000000    0.25000000
   19.74694443   87.04350281    0.07000000    0.25000000
   19.75027847   96.20590210    0.07000000    0.25000000
   19.75333405   91.96990204    0.07000000    0.25000000
   19.75666618   85.90689850    0.07000000    0.25000000
   19.75722313   92.52960205    0.07000000    0.25000000
   19.76027870   96.55789948    0.07000000    0.25000000
   19.76361084   84.68849945    0.07000000    0.25000000
   19.76694489   79.45909882    0.07000000    0.25000000
   19.77000046   89.72570038    0.07000000    0.25000000
   19.77333260   82.88320160    0.07000000    0.25000000
   19.77666664   82.69159698    0.07000000    0.25000000
   19.77972221   79.88020325    0.07000000    0.25000000
   19.78305435   82.86569977    0.07000000    0.25000000
   19.78750038   82.86569977    0.07000000    0.25000000
   19.79166603   70.51820374    0.07000000    0.25000000
   19.79500008   78.76239777    0.07000000    0.25000000
   19.79805565   83.58489990    0.07000000    0.25000000
   19.80138779   81.08159637    0.07000000    0.25000000
   19.80472183   84.95429993    0.07000000    0.25000000
   19.80722237   86.86609650    0.07000000    0.25000000
   19.80833244   81.63089752    0.07000000    0.25000000
   19.81138802   81.45700073    0.07000000    0.25000000
   19.81472206   83.93070221    0.07000000    0.25000000
   19.81777954   82.87490082    0.07000000    0.25000000
   19.82111168   78.15350342    0.07000000    0.25000000
   19.82444572   78.81939697    0.07000000    0.25000000
   19.82750130   87.55670166    0.07000000    0.25000000
   19.83083344   80.69100189    0.07000000    0.25000000
   19.83416748   88.98639679    0.07000000    0.25000000
   19.83861160   88.98639679    0.07000000    0.25000000
   19.84277916   84.89600372    0.07000000    0.25000000
   19.84611130   97.44860077    0.07000000    0.25000000
   19.84944534   85.25189972    0.07000000    0.25000000
   19.85250092   89.93730164    0.07000000    0.25000000
   19.87222290   89.61129761    0.07000000    0.25000000
   19.87277794   86.20839691    0.07000000    0.25000000
   19.87611198   88.38590240    0.07000000    0.25000000
   19.87916756   86.23470306    0.07000000    0.25000000
   19.88249969   87.69830322    0.07000000    0.25000000
   19.88555527   84.63719940    0.07000000    0.25000000
   19.88999939   84.63719940    0.07000000    0.25000000
   19.89388847   94.97830200    0.07000000    0.25000000
   19.89722252   91.74269867    0.07000000    0.25000000
   19.90055466   93.42939758    0.07000000    0.25000000
   19.90361023   82.95989990    0.07000000    0.25000000
   19.90694427   77.09690094    0.07000000    0.25000000
   19.91027832   92.63279724    0.07000000    0.25000000
   19.91333389   90.82900238    0.07000000    0.25000000
   19.91666603   86.44439697    0.07000000    0.25000000
   19.91972160   83.13240051    0.07000000    0.25000000
   19.92277718   80.49729919    0.07000000    0.25000000
   19.92361069   79.85559845    0.07000000    0.25000000
   19.92666626   83.81330109    0.07000000    0.25000000
   19.93000031   86.51730347    0.07000000    0.25000000
   19.93333244   85.59339905    0.07000000    0.25000000
   19.93638802   87.31569672    0.07000000    0.25000000
   19.94111061   87.31569672    0.07000000    0.25000000
   19.94527626   93.42929840    0.07000000    0.25000000
   19.94833183   88.17359924    0.07000000    0.25000000
   19.95166779   88.54579926    0.07000000    0.25000000
   19.95499992   91.61009979    0.07000000    0.25000000
   19.95805550   91.18640137    0.07000000    0.25000000
   19.96138954   92.52719879    0.07000000    0.25000000
   19.96444511   89.95680237    0.07000000    0.25000000
   19.96777916   88.43900299    0.07000000    0.25000000
   19.97111130   83.61560059    0.07000000    0.25000000
   19.97277832   87.58910370    0.07000000    0.25000000
   19.97472191   83.84780121    0.07000000    0.25000000
   19.97777748   88.20580292    0.07000000    0.25000000
   19.98111153   98.12380219    0.07000000    0.25000000
   19.98444557   90.67890167    0.07000000    0.25000000
   19.98750114   87.81259918    0.07000000    0.25000000
   19.99222183   87.81259918    0.07000000    0.25000000
   19.99638939   86.98239899    0.07000000    0.25000000
   19.99972153   86.72660065    0.07000000    0.25000000
   20.00277710   84.88400269    0.07000000    0.25000000
   20.00638962   96.06939697    0.07000000    0.25000000
   20.00972176   84.40589905    0.07000000    0.25000000
   20.01305580   86.84989929    0.07000000    0.25000000
   20.01611137   91.28800201    0.07000000    0.25000000
   20.01944351   85.75350189    0.07000000    0.25000000
   20.02249908   88.66809845    0.07000000    0.25000000
   20.02305603   87.08570099    0.07000000    0.25000000
   20.02638817   84.07620239    0.07000000    0.25000000
   20.02972221   88.94239807    0.07000000    0.25000000
   20.03277779   85.45850372    0.07000000    0.25000000
   20.03610992   83.07379913    0.07000000    0.25000000
   20.03916550   82.11139679    0.07000000    0.25000000
   20.04333305   82.11139679    0.07000000    0.25000000
   20.04749870   81.94740295    0.07000000    0.25000000
   20.05083275   85.50599670    0.07000000    0.25000000
   20.05388832   90.02680206    0.07000000    0.25000000
   20.05722237   87.37020111    0.07000000    0.25000000
   20.06055450   86.62809753    0.07000000    0.25000000
   20.06361008   89.69670105    0.07000000    0.25000000
   20.06694603   90.61940002    0.07000000    0.25000000
   20.07027817   82.34120178    0.07000000    0.25000000
   20.07305717   84.15519714    0.07000000    0.25000000
   20.07389069   89.00119781    0.07000000    0.25000000
   20.07722282   84.43049622    0.07000000    0.25000000
   20.08027840   85.91179657    0.07000000    0.25000000
   20.08361244   87.71749878    0.07000000    0.25000000
   20.08666801   78.00810242    0.07000000    0.25000000
   20.09000015   79.00740051    0.07000000    0.25000000
   20.09472275   79.00740051    0.07000000    0.25000000
   20.09861183   86.17160034    0.07000000    0.25000000
   20.10194397   85.00090027    0.07000000    0.25000000
   20.10527802   88.05429840    0.07000000    0.25000000
   20.10833359   82.48320007    0.07000000    0.25000000
   20.11166763   90.68699646    0.07000000    0.25000000
   20.11499977   90.08309937    0.07000000    0.25000000
   20.11805534   80.24700165    0.07000000    0.25000000
   20.12138939   95.94709778    0.07000000    0.25000000
   20.12333298   86.32969666    0.07000000    0.25000000
   20.12500000   89.24060059    0.07000000    0.25000000
   20.12805557   98.80460358    0.07000000    0.25000000
   20.13138962   93.95809937    0.07000000    0.25000000
   20.13472176   84.28379822    0.07000000    0.25000000
   20.13777733   74.37950134    0.07000000    0.25000000
   20.14111137   84.42710114    0.07000000    0.25000000
   20.14583397   84.42710114    0.07000000    0.25000000
   20.14999962   85.77729797    0.07000000    0.25000000
   20.15305519   79.53880310    0.07000000    0.25000000
   20.15638924  105.17600250    0.07000000    0.25000000
   20.15972137   93.42420197    0.07000000    0.25000000
   20.16277695   94.58609772    0.07000000    0.25000000
   20.16611099   97.62370300    0.07000000    0.25000000
   20.16916656   89.11769867    0.07000000    0.25000000
   20.17249870   85.58239746    0.07000000    0.25000000
   20.17333221   84.70980072    0.07000000    0.25000000
   20.17611122   90.91490173    0.07000000    0.25000000
   20.17916679   86.85579681    0.07000000    0.25000000
   20.18249893   84.95130157    0.07000000    0.25000000
   20.18583298   93.05590057    0.07000000    0.25000000
   20.18888855   95.33149719    0.07000000    0.25000000
   20.19222069   78.26850128    0.07000000    0.25000000
   20.19694328   78.26850128    0.07000000    0.25000000
   20.20111275   92.02200317    0.07000000    0.25000000
   20.20444489   91.50430298    0.07000000    0.25000000
   20.20750046   87.12770081    0.07000000    0.25000000
   20.21083450   89.29360199    0.07000000    0.25000000
   20.21416664   95.51110077    0.07000000    0.25000000
   20.21722221   93.77429962    0.07000000    0.25000000
   20.22055626   90.20749664    0.07000000    0.25000000
   20.22333336   81.45870209    0.07000000    0.25000000
   20.22416687   84.68630219    0.07000000    0.25000000
   20.22722244   92.40889740    0.07000000    0.25000000
   20.23055649   97.78430176    0.07000000    0.25000000
   20.23388863   86.70099640    0.07000000    0.25000000
   20.23694420   84.67050171    0.07000000    0.25000000
   20.24027824   85.30229950    0.07000000    0.25000000
   20.24361229   84.51270294    0.07000000    0.25000000
   20.24805641   84.51270294    0.07000000    0.25000000
   20.25222206   86.12039948    0.07000000    0.25000000
   20.25555611   89.45549774    0.07000000    0.25000000
   20.25861168   84.44539642    0.07000000    0.25000000
   20.26194382   91.68550110    0.07000000    0.25000000
   20.26527786   94.81729889    0.07000000    0.25000000
   20.26833344   92.26560211    0.07000000    0.25000000
   20.27166557   98.67040253    0.07000000    0.25000000
   20.27333260   87.49379730    0.07000000    0.25000000
   20.27527809   86.45690155    0.07000000    0.25000000
   20.27833366   92.00000000    0.07000000    0.25000000
   20.28166580   84.38839722    0.07000000    0.25000000
   20.28499985   84.39679718    0.07000000    0.25000000
   20.28805542   86.41809845    0.07000000    0.25000000
   20.29138756   88.46150208    0.07000000    0.25000000
   20.29472160   83.63200378    0.07000000    0.25000000
   20.29944420   83.63200378    0.07000000    0.25000000
   20.30333328   78.80609894    0.07000000    0.25000000
   20.30666542   80.03700256    0.07000000    0.25000000
   20.30999947   75.45400238    0.07000000    0.25000000
   20.31305504   81.16069794    0.07000000    0.25000000
   20.31638718   79.52729797    0.07000000    0.25000000
   20.31972313   86.92130280    0.07000000    0.25000000
   20.32277870   87.98590088    0.07000000    0.25000000
   20.32333374   86.28939819    0.07000000    0.25000000
   20.32638931   81.54250336    0.07000000    0.25000000
   20.32972336   84.52469635    0.07000000    0.25000000
   20.33277893   87.75229645    0.07000000    0.25000000
   20.33611107   82.48780060    0.07000000    0.25000000
   20.33916664   74.03579712    0.07000000    0.25000000
   20.34250069   82.86859894    0.07000000    0.25000000
   20.34583473   83.95030212    0.07000000    0.25000000
   20.35055542   83.95030212    0.07000000    0.25000000
   20.35472298   75.77349854    0.07000000    0.25000000
   20.35777855   81.37840271    0.07000000    0.25000000
   20.36111069   77.05439758    0.07000000    0.25000000
   20.36444473   79.04720306    0.07000000    0.25000000
   20.36750031   90.14810181    0.07000000    0.25000000
   20.37083435   81.53849792    0.07000000    0.25000000
   20.37333298   83.26399994    0.07000000    0.25000000
   20.37444496   89.38079834    0.07000000    0.25000000
   20.37777710   82.62460327    0.07000000    0.25000000
   20.38083267   98.49829865    0.07000000    0.25000000
   20.38416672   92.61329651    0.07000000    0.25000000
   20.38722229   84.24749756    0.07000000    0.25000000
   20.39055634   86.56140137    0.07000000    0.25000000
   20.39388847   84.95880127    0.07000000    0.25000000
   20.39694405   92.03759766    0.07000000    0.25000000
   20.40166664   92.03759766    0.07000000    0.25000000
   20.40583229   84.20899963    0.07000000    0.25000000
   20.40916634   82.86399841    0.07000000    0.25000000
   20.41222191   81.13670349    0.07000000    0.25000000
   20.41555595   81.92890167    0.07000000    0.25000000
   20.41888809   86.80429840    0.07000000    0.25000000
   20.42194366   87.94049835    0.07000000    0.25000000
   20.42333221   92.09629822    0.07000000    0.25000000
   20.42555428   82.98680115    0.07000000    0.25000000
   20.42888832   85.47660065    0.07000000    0.25000000
   20.43194389   87.50659943    0.07000000    0.25000000
   20.43527603   81.98549652    0.07000000    0.25000000
   20.43861008   79.56659698    0.07000000    0.25000000
   20.44166565   78.96929932    0.07000000    0.25000000
   20.44499969   81.57640076    0.07000000    0.25000000
   20.44805527   84.92639923    0.07000000    0.25000000
   20.45277786   84.92639923    0.07000000    0.25000000
   20.45694542   81.39019775    0.07000000    0.25000000
   20.46027946   84.56020355    0.07000000    0.25000000
   20.46333504   91.54429626    0.07000000    0.25000000
   20.46666718   91.79750061    0.07000000    0.25000000
   20.47000122   97.28839874    0.07000000    0.25000000
   20.47305679   88.73110199    0.07000000    0.25000000
   20.47361183   86.35729980    0.07000000    0.25000000
   20.47694588   85.19709778    0.07000000    0.25000000
   20.48000145   85.06179810    0.07000000    0.25000000
   20.48333359   83.50309753    0.07000000    0.25000000
   20.48666763   90.43389893    0.07000000    0.25000000
   20.48972321   90.11990356    0.07000000    0.25000000
   20.49305534   89.04709625    0.07000000    0.25000000
   20.49638939   82.18319702    0.07000000    0.25000000
   20.49944496   81.03350067    0.07000000    0.25000000
   20.50416756   81.03350067    0.07000000    0.25000000
   20.50805473   87.59700012    0.07000000    0.25000000
   20.51138878   91.37560272    0.07000000    0.25000000
   20.51472282   96.67369843    0.07000000    0.25000000
   20.51777840   91.99690247    0.07000000    0.25000000
   20.52111053   91.07070160    0.07000000    0.25000000
   20.52361107   98.87680054    0.07000000    0.25000000
   20.52472115   87.30619812    0.07000000    0.25000000
   20.52777672   85.59690094    0.07000000    0.25000000
   20.53111076   79.66760254    0.07000000    0.25000000
   20.53444481   84.30560303    0.07000000    0.25000000
   20.53750038   90.62030029    0.07000000    0.25000000
   20.54083252   81.17929840    0.07000000    0.25000000
   20.54416656   90.33930206    0.07000000    0.25000000
   20.54722214   82.06289673    0.07000000    0.25000000
   20.55055428   80.86319733    0.07000000    0.25000000
   20.55527687   80.86319733    0.07000000    0.25000000
   20.55944443   85.41510010    0.07000000    0.25000000
   20.56250000   81.12979889    0.07000000    0.25000000
   20.56583214   84.60350037    0.07000000    0.25000000
   20.56916809   88.19090271    0.07000000    0.25000000
   20.57222366   82.67289734    0.07000000    0.25000000
   20.57361221   88.36840057    0.07000000    0.25000000
   20.57583427   80.41899872    0.07000000    0.25000000
   20.57916832   80.10669708    0.07000000    0.25000000
   20.58222389   85.48950195    0.07000000    0.25000000
   20.58555603   84.93750000    0.07000000    0.25000000
   20.58861160   85.17769623    0.07000000    0.25000000
   20.59194565   85.34349823    0.07000000    0.25000000
   20.59527779   87.12020111    0.07000000    0.25000000
   20.59833336   81.58370209    0.07000000    0.25000000
   20.60166740   80.72940063    0.07000000    0.25000000
   20.60639000   80.72940063    0.07000000    0.25000000
   20.61055565   87.92910004    0.07000000    0.25000000
   20.61388969   81.26360321    0.07000000    0.25000000
   20.61694527   84.93009949    0.07000000    0.25000000
   20.62027740   84.45860291    0.07000000    0.25000000
   20.62361145   80.25990295    0.07000000    0.25000000
   20.62416649   84.34420013    0.07000000    0.25000000
   20.62722206   89.21589661    0.07000000    0.25000000
   20.63055611   77.07730103    0.07000000    0.25000000
   20.63361168   80.20950317    0.07000000    0.25000000
   20.63694382   89.27220154    0.07000000    0.25000000
   20.64027786   85.53639984    0.07000000    0.25000000
   20.64333344   84.06629944    0.07000000    0.25000000
   20.64666748   78.57119751    0.07000000    0.25000000
   20.64999962   83.69799805    0.07000000    0.25000000
   20.65305519   81.45590210    0.07000000    0.25000000
   20.65749931   81.45590210    0.07000000    0.25000000
   20.66166687   85.87699890    0.07000000    0.25000000
   20.66499901   85.45149994    0.07000000    0.25000000
   20.66805458   81.18800354    0.07000000    0.25000000
   20.67138863   80.01519775    0.07000000    0.25000000
   20.67416573   77.78679657    0.07000000    0.25000000
   20.67499924   82.40390015    0.07000000    0.25000000
   20.67833328   88.54199982    0.07000000    0.25000000
   20.68138885   89.05970001    0.07000000    0.25000000
   20.68472099   85.11430359    0.07000000    0.25000000
   20.68805504   89.37960052    0.07000000    0.25000000
   20.69111061   80.67489624    0.07000000    0.25000000
   20.69444275   89.05879974    0.07000000    0.25000000
   20.69777679   78.89019775    0.07000000    0.25000000
   20.70083427   81.35759735    0.07000000    0.25000000
   20.70416832   85.17130280    0.07000000    0.25000000
   20.70888901   85.17130280    0.07000000    0.25000000
   20.71277809   80.73570251    0.07000000    0.25000000
   20.71611214   83.95539856    0.07000000    0.25000000
   20.71944427   91.81410217    0.07000000    0.25000000
   20.72249985   90.68150330    0.07000000    0.25000000
   20.72416687   82.49189758    0.07000000    0.25000000
   20.72611237   83.94419861    0.07000000    0.25000000
   20.72944450   83.88310242    0.07000000    0.25000000
   20.73277855   85.47709656    0.07000000    0.25000000
   20.73583412   82.25949860    0.07000000    0.25000000
   20.73916626   79.17019653    0.07000000    0.25000000
   20.74222183   85.40290070    0.07000000    0.25000000
   20.74555588   82.63610077    0.07000000    0.25000000
   20.74888992   81.67230225    0.07000000    0.25000000
   20.75194359   87.56289673    0.07000000    0.25000000
   20.75527763   80.92099762    0.07000000    0.25000000
   20.76000023   80.92099762    0.07000000    0.25000000
   20.76416588   86.65299988    0.07000000    0.25000000
   20.76749992   88.35489655    0.07000000    0.25000000
   20.77055550   94.40689850    0.07000000    0.25000000
   20.77388954  115.10800171    0.07000000    0.25000000
   20.77444458  125.60199738    0.07000000    0.25000000
   20.77750015  119.31099701    0.07000000    0.25000000
   20.78083229  108.99900055    0.07000000    0.25000000
   20.78416634  128.53900146    0.07000000    0.25000000
   20.78722191  170.25799561    0.07000000    0.25000000
   20.79055595  110.64199829    0.07000000    0.25000000
   20.79361153  190.80799866    0.07000000    0.25000000
   20.79694366  137.33000183    0.07000000    0.25000000
   20.80027771  150.11799622    0.07000000    0.25000000
   20.80333328  155.26600647    0.07000000    0.25000000
   20.80666542  131.75900269    0.07000000    0.25000000
   20.81110954  131.75900269    0.07000000    0.25000000
   20.81527710  141.00999451    0.07000000    0.25000000
   20.81861115   94.59790039    0.07000000    0.25000000
   20.82166672  112.04799652    0.07000000    0.25000000
   20.82444572  115.66300201    0.07000000    0.25000000
   20.82527924   81.05310059    0.07000000    0.25000000
   20.82861137   99.05999756    0.07000000    0.25000000
   20.83194542   93.81289673    0.07000000    0.25000000
   20.83500099  102.70500183    0.07000000    0.25000000
   20.83833313  129.73300171    0.07000000    0.25000000
   20.84166718  114.87899780    0.07000000    0.25000000
   20.84472275  113.56700134    0.07000000    0.25000000
   20.84805679   84.61940002    0.07000000    0.25000000
   20.85111237   91.91649628    0.07000000    0.25000000
   20.85444450   89.67060089    0.07000000    0.25000000
   20.85777855   89.64270020    0.07000000    0.25000000
   20.86250114   89.64270020    0.07000000    0.25000000
   20.86638832   91.64019775    0.07000000    0.25000000
   20.86972237   76.77020264    0.07000000    0.25000000
   20.88888931   84.61940002    0.07000000    0.25000000
   20.88972282   79.51429749    0.07000000    0.25000000
   20.89305496   80.62339783    0.07000000    0.25000000
   20.89611053   86.96019745    0.07000000    0.25000000
   20.89944458   87.22170258    0.07000000    0.25000000
   20.90250015   99.39749908    0.07000000    0.25000000
   20.90583229   83.15529633    0.07000000    0.25000000
   20.90916634   88.55290222    0.07000000    0.25000000
   20.91361046   88.55290222    0.07000000    0.25000000
   20.91777802   83.21050262    0.07000000    0.25000000
   20.92083359   81.82990265    0.07000000    0.25000000
   20.92416573  112.10800171    0.07000000    0.25000000
   20.92749977   85.62470245    0.07000000    0.25000000
   20.93055534   77.42610168    0.07000000    0.25000000
   20.93388748   87.13320160    0.07000000    0.25000000
   20.93722153   84.04820251    0.07000000    0.25000000
   20.93888855   87.98909760    0.07000000    0.25000000
   20.94083214   92.00129700    0.07000000    0.25000000
   20.94388771   85.36799622    0.07000000    0.25000000
   20.94722176   95.81549835    0.07000000    0.25000000
   20.95055580   81.90249634    0.07000000    0.25000000
   20.95361137   84.45020294    0.07000000    0.25000000
   20.95694542   88.22260284    0.07000000    0.25000000
   20.96000099   79.48780060    0.07000000    0.25000000
   20.96472359   79.48780060    0.07000000    0.25000000
   20.96888924   83.17579651    0.07000000    0.25000000
   20.97222328   80.66919708    0.07000000    0.25000000
   20.97527885   80.01429749    0.07000000    0.25000000
   20.97861099   82.48880005    0.07000000    0.25000000
   20.98194504   78.37159729    0.07000000    0.25000000
   20.98500061   81.89099884    0.07000000    0.25000000
   20.98833275   90.21009827    0.07000000    0.25000000
   20.98888969   80.74269867    0.07000000    0.25000000
   20.99194527   82.16770172    0.07000000    0.25000000
   20.99500084   83.76550293    0.07000000    0.25000000
   20.99833298   89.23880005    0.07000000    0.25000000
   21.00166702   84.23860168    0.07000000    0.25000000
   21.00472260   88.39250183    0.07000000    0.25000000
   21.00805473   86.07350159    0.07000000    0.25000000
   21.01138878   85.29859924    0.07000000    0.25000000
   21.01583290   85.29859924    0.07000000    0.25000000
   21.02000046   79.96920013    0.07000000    0.25000000
   21.02333260   79.86460114    0.07000000    0.25000000
   21.02666664   87.15930176    0.07000000    0.25000000
   21.02972221   82.92040253    0.07000000    0.25000000
   21.03305435   89.44940186    0.07000000    0.25000000
   21.03610992   81.60340118    0.07000000    0.25000000
   21.03888893   84.16660309    0.07000000    0.25000000
   21.03999901   83.57620239    0.07000000    0.25000000
   21.04305458   89.80989838    0.07000000    0.25000000
   21.04638863   87.24960327    0.07000000    0.25000000
   21.04972076   81.16519928    0.07000000    0.25000000
   21.05277634   78.02429962    0.07000000    0.25000000
   21.05611038   78.35620117    0.07000000    0.25000000
   21.05916595   81.72309875    0.07000000    0.25000000
   21.06250000   82.10610199    0.07000000    0.25000000
   21.06722260   82.10610199    0.07000000    0.25000000
   21.07139015   84.40859985    0.07000000    0.25000000
   21.07444572   86.38819885    0.07000000    0.25000000
   21.07777786   87.83399963    0.07000000    0.25000000
   21.08083344   86.03769684    0.07000000    0.25000000
   21.08416748   84.56009674    0.07000000    0.25000000
   21.08750153   84.13240051    0.07000000    0.25000000
   21.08889008   87.19909668    0.07000000    0.25000000
   21.09111214   96.77259827    0.07000000    0.25000000
   21.09416771   84.57740021    0.07000000    0.25000000
   21.09749985   83.22540283    0.07000000    0.25000000
   21.10083389   91.30899811    0.07000000    0.25000000
   21.10388947   89.21089935    0.07000000    0.25000000
   21.10722351   92.92130280    0.07000000    0.25000000
   21.11027908   90.18910217    0.07000000    0.25000000
   21.11361122   86.31009674    0.07000000    0.25000000
   21.11833382   86.31009674    0.07000000    0.25000000
   21.12249947   82.62779999    0.07000000    0.25000000
   21.12555504   87.26750183    0.07000000    0.25000000
   21.12888908   80.43240356    0.07000000    0.25000000
   21.13222313   82.09529877    0.07000000    0.25000000
   21.13527679   86.38420105    0.07000000    0.25000000
   21.13861084   89.52570343    0.07000000    0.25000000
   21.13916588   91.42150116    0.07000000    0.25000000
   21.14249992   94.09010315    0.07000000    0.25000000
   21.14555550   96.81649780    0.07000000    0.25000000
   21.14888954   92.99859619    0.07000000    0.25000000
   21.15194321   88.60870361    0.07000000    0.25000000
   21.15527725   92.31179810    0.07000000    0.25000000
   21.15861130   92.41369629    0.07000000    0.25000000
   21.16166687   89.02610016    0.07000000    0.25000000
   21.16499901   87.46929932    0.07000000    0.25000000
   21.16944313   87.46929932    0.07000000    0.25000000
   21.17361069   85.04460144    0.07000000    0.25000000
   21.17694473   88.32209778    0.07000000    0.25000000
   21.18000031   93.34359741    0.07000000    0.25000000
   21.18333244   92.82260132    0.07000000    0.25000000
   21.18666649   89.61100006    0.07000000    0.25000000
   21.18916512   90.16639709    0.07000000    0.25000000
   21.18999863   89.13510132    0.07000000    0.25000000
   21.19333267   89.98310089    0.07000000    0.25000000
   21.19666672   86.60050201    0.07000000    0.25000000
   21.19972038   90.26200104    0.07000000    0.25000000
   21.20305634   80.20999908    0.07000000    0.25000000
   21.20639038   83.68409729    0.07000000    0.25000000
   21.20944595   92.19120026    0.07000000    0.25000000
   21.21277809   90.17690277    0.07000000    0.25000000
   21.21611214   91.14550018    0.07000000    0.25000000
   21.22055626   91.14550018    0.07000000    0.25000000
   21.22472191   95.06739807    0.07000000    0.25000000
   21.22805595   89.72480011    0.07000000    0.25000000
   21.23139000   90.52580261    0.07000000    0.25000000
   21.23444557   85.04810333    0.07000000    0.25000000
   21.23777771   88.91290283    0.07000000    0.25000000
   21.23916626   84.37570190    0.07000000    0.25000000
   21.24138832   84.30079651    0.07000000    0.25000000
   21.24444389   84.93119812    0.07000000    0.25000000
   21.24777794   86.94879913    0.07000000    0.25000000
   21.25083351   94.41699982    0.07000000    0.25000000
   21.25416756   83.71749878    0.07000000    0.25000000
   21.25749969   85.49189758    0.07000000    0.25000000
   21.26055527   85.44259644    0.07000000    0.25000000
   21.26388931   88.83580017    0.07000000    0.25000000
   21.26722145   90.78639984    0.07000000    0.25000000
   21.27194405   90.78639984    0.07000000    0.25000000
   21.27611160   91.33380127    0.07000000    0.25000000
   21.27916718   87.36769867    0.07000000    0.25000000
   21.28249931   87.82279968    0.07000000    0.25000000
   21.28555489   86.57759857    0.07000000    0.25000000
   21.28888893   86.69370270    0.07000000    0.25000000
   21.28944397   86.58560181    0.07000000    0.25000000
   21.29277802   94.42739868    0.07000000    0.25000000
   21.29583359   87.88210297    0.07000000    0.25000000
   21.29916573   91.92330170    0.07000000    0.25000000
   21.30222130   85.73870087    0.07000000    0.25000000
   21.30555534   84.04209900    0.07000000    0.25000000
   21.30888748   86.30020142    0.07000000    0.25000000
   21.31194305   89.00050354    0.07000000    0.25000000
   21.31527710   88.67790222    0.07000000    0.25000000
   21.31861115   93.79900360    0.07000000    0.25000000
   21.32305717   93.79900360    0.07000000    0.25000000
   21.32722282   87.20030212    0.07000000    0.25000000
   21.33027840   87.80110168    0.07000000    0.25000000
   21.33361244   92.20110321    0.07000000    0.25000000
   21.33694458   84.63339996    0.07000000    0.25000000
   21.33944511   88.72409821    0.07000000    0.25000000
   21.34055710   83.99430084    0.07000000    0.25000000
   21.34361267   96.91690063    0.07000000    0.25000000
   21.34694481   92.12629700    0.07000000    0.25000000
   21.35000038   90.98699951    0.07000000    0.25000000
   21.35333443   90.62689972    0.07000000    0.25000000
   21.35666656   93.22039795    0.07000000    0.25000000
   21.35972214   84.76850128    0.07000000    0.25000000
   21.36305618   87.29630280    0.07000000    0.25000000
   21.36638832   92.82219696    0.07000000    0.25000000
   21.36944389   88.28919983    0.07000000    0.25000000
   21.37416649   88.28919983    0.07000000    0.25000000
   21.37833405   88.06659698    0.07000000    0.25000000
   21.38166618   87.18470001    0.07000000    0.25000000
   21.38472176   82.22429657    0.07000000    0.25000000
   21.38805580   87.42939758    0.07000000    0.25000000
   21.38944435   93.73809814    0.07000000    0.25000000
   21.39166641   78.25119781    0.07000000    0.25000000
   21.39472198   95.22830200    0.07000000    0.25000000
   21.39805603   93.90599823    0.07000000    0.25000000
   21.40138817   92.47409821    0.07000000    0.25000000
   21.40444374   86.30059814    0.07000000    0.25000000
   21.40777779   85.60890198    0.07000000    0.25000000
   21.41110992   83.91649628    0.07000000    0.25000000
   21.41416550   84.21829987    0.07000000    0.25000000
   21.41749954   93.17179871    0.07000000    0.25000000
   21.42055511   82.44470215    0.07000000    0.25000000
   21.42555428   82.44470215    0.07000000    0.25000000
   21.42944336   87.44010162    0.07000000    0.25000000
   21.43277740   78.25910187    0.07000000    0.25000000
   21.43610954   86.22139740    0.07000000    0.25000000
   21.43916512   96.64450073    0.07000000    0.25000000
   21.43972206   82.12560272    0.07000000    0.25000000
   21.44305420   89.88980103    0.07000000    0.25000000
   21.44610977   82.42389679    0.07000000    0.25000000
   21.44944382   82.25849915    0.07000000    0.25000000
   21.45277786   83.70089722    0.07000000    0.25000000
   21.45583344   90.39469910    0.07000000    0.25000000
   21.45916748   82.64369965    0.07000000    0.25000000
   21.46250153   86.17320251    0.07000000    0.25000000
   21.46555710   81.83689880    0.07000000    0.25000000
   21.46888924   88.73429871    0.07000000    0.25000000
   21.47194481   88.04460144    0.07000000    0.25000000
   21.47666740   88.04460144    0.07000000    0.25000000
   21.48083305   96.47889709    0.07000000    0.25000000
   21.48388863   96.71199799    0.07000000    0.25000000
   21.48722267   94.02110291    0.07000000    0.25000000
   21.48972321   93.62920380    0.07000000    0.25000000
   21.49083328   96.47969818    0.07000000    0.25000000
   21.49416733   90.84649658    0.07000000    0.25000000
   21.49722290   93.67009735    0.07000000    0.25000000
   21.50055504   96.10230255    0.07000000    0.25000000
   21.50361061   82.99420166    0.07000000    0.25000000
   21.50694466   87.52850342    0.07000000    0.25000000
   21.51027870   83.91079712    0.07000000    0.25000000
   21.51333427   94.60790253    0.07000000    0.25000000
   21.51666641   89.28029633    0.07000000    0.25000000
   21.52000046   88.26349640    0.07000000    0.25000000
   21.52305603   84.19850159    0.07000000    0.25000000
   21.52777672   84.19850159    0.07000000    0.25000000
   21.53194427   93.09049988    0.07000000    0.25000000
   21.53527641   89.63179779    0.07000000    0.25000000
   21.53833199   93.36830139    0.07000000    0.25000000
   21.53972244  100.89700317    0.07000000    0.25000000
   21.54194450   86.11630249    0.07000000    0.25000000
   21.54527664   95.76959991    0.07000000    0.25000000
   21.54833221   89.52120209    0.07000000    0.25000000
   21.55166626   81.65550232    0.07000000    0.25000000
   21.55472183   94.47910309    0.07000000    0.25000000
   21.55805397   82.91239929    0.07000000    0.25000000
   21.56138802   89.09549713    0.07000000    0.25000000
   21.56444359   98.61779785    0.07000000    0.25000000
   21.56777954   94.64089966    0.07000000    0.25000000
   21.57111168   93.42099762    0.07000000    0.25000000
   21.57416725   95.44300079    0.07000000    0.25000000
   21.57888985   95.44300079    0.07000000    0.25000000
   21.58305550   84.18299866    0.07000000    0.25000000
   21.58638954   98.94390106    0.07000000    0.25000000
   21.58944511   91.44860077    0.07000000    0.25000000
   21.59000015   84.76399994    0.07000000    0.25000000
   21.59333420   89.62409973    0.07000000    0.25000000
   21.59666824   86.49079895    0.07000000    0.25000000
   21.59972191   93.56919861    0.07000000    0.25000000
   21.60305595   87.64080048    0.07000000    0.25000000
   21.60639000   97.87580109    0.07000000    0.25000000
   21.60944557   93.56250000    0.07000000    0.25000000
   21.61277771   85.13069916    0.07000000    0.25000000
   21.61611176   90.49990082    0.07000000    0.25000000
   21.61916733   92.90319824    0.07000000    0.25000000
   21.62249947   80.93029785    0.07000000    0.25000000
   21.62555504   88.56420135    0.07000000    0.25000000
   21.63027763   88.56420135    0.07000000    0.25000000
   21.63416672   94.54820251    0.07000000    0.25000000
   21.63750076   93.24060059    0.07000000    0.25000000
   21.63999939   85.70989990    0.07000000    0.25000000
   21.64111137   83.05590057    0.07000000    0.25000000
   21.64444351   90.65249634    0.07000000    0.25000000
   21.64749908   86.09929657    0.07000000    0.25000000
   21.65083313   94.53260040    0.07000000    0.25000000
   21.65416718   90.44529724    0.07000000    0.25000000
   21.65722275   82.49530029    0.07000000    0.25000000
   21.66055489   86.01789856    0.07000000    0.25000000
   21.66361046   92.76740265    0.07000000    0.25000000
   21.66694450   86.76059723    0.07000000    0.25000000
   21.67027664   88.63369751    0.07000000    0.25000000
   21.67333221   91.89880371    0.07000000    0.25000000
   21.67666626   84.54419708    0.07000000    0.25000000
   21.68138885   84.54419708    0.07000000    0.25000000
   21.68555450   95.62680054    0.07000000    0.25000000
   21.68861008   82.97669983    0.07000000    0.25000000
   21.68999863   89.46019745    0.07000000    0.25000000
   21.69222069   93.28160095    0.07000000    0.25000000
   21.69555473   82.86710358    0.07000000    0.25000000
   21.69861031   91.66179657    0.07000000    0.25000000
   21.70194435   82.05789948    0.07000000    0.25000000
   21.70527840   81.37139893    0.07000000    0.25000000
   21.70833397   92.19450378    0.07000000    0.25000000
   21.71166801   77.68180084    0.07000000    0.25000000
   21.71472359   84.99610138    0.07000000    0.25000000
   21.71805573   90.48750305    0.07000000    0.25000000
   21.72138977   89.31939697    0.07000000    0.25000000
   21.72444534   90.26409912    0.07000000    0.25000000
   21.72777748   86.42220306    0.07000000    0.25000000
   21.73250008   86.42220306    0.07000000    0.25000000
   21.73666763   82.90930176    0.07000000    0.25000000
   21.73999977   87.54779816    0.07000000    0.25000000
   21.74027824   86.59300232    0.07000000    0.25000000
   21.74361229   91.26000214    0.07000000    0.25000000
   21.74694443   82.70829773    0.07000000    0.25000000
   21.75000000   86.83070374    0.07000000    0.25000000
   21.75333405   89.21269989    0.07000000    0.25000000
   21.75666618   96.87059784    0.07000000    0.25000000
   21.75972176   89.32810211    0.07000000    0.25000000
   21.76305580   89.03479767    0.07000000    0.25000000
   21.76611137   91.39769745    0.07000000    0.25000000
   21.76944351   88.52500153    0.07000000    0.25000000
   21.77277756   92.38970184    0.07000000    0.25000000
   21.77583313   86.16770172    0.07000000    0.25000000
   21.77916718   90.72570038    0.07000000    0.25000000
   21.78361130   90.72570038    0.07000000    0.25000000
   21.78777695   87.25800323    0.07000000    0.25000000
   21.79027748   89.44750214    0.07000000    0.25000000
   21.79138756   94.49600220    0.07000000    0.25000000
   21.79472160   85.34780121    0.07000000    0.25000000
   21.79777718   94.34490204    0.07000000    0.25000000
   21.80111122   90.51349640    0.07000000    0.25000000
   21.80444336   86.45279694    0.07000000    0.25000000
   21.80749893   89.85890198    0.07000000    0.25000000
   21.81083298   88.95709991    0.07000000    0.25000000
   21.81388855   89.34660339    0.07000000    0.25000000
   21.81722260   91.62879944    0.07000000    0.25000000
   21.82055664   91.42990112    0.07000000    0.25000000
   21.82361221   90.97640228    0.07000000    0.25000000
   21.82694626   95.68270111    0.07000000    0.25000000
   21.83027840   75.76239777    0.07000000    0.25000000
   21.83500099   75.76239777    0.07000000    0.25000000
   21.83889008   92.95169830    0.07000000    0.25000000
   21.84027863   90.97409821    0.07000000    0.25000000
   21.84250069   89.74759674    0.07000000    0.25000000
   21.84583473   94.47149658    0.07000000    0.25000000
   21.84889030   83.16660309    0.07000000    0.25000000
   21.85222244   87.44979858    0.07000000    0.25000000
   21.85555649   85.65409851    0.07000000    0.25000000
   21.85861206   86.49749756    0.07000000    0.25000000
   21.86194420   91.91600037    0.07000000    0.25000000
   21.86527824   91.80909729    0.07000000    0.25000000
   21.86833382   85.06169891    0.07000000    0.25000000
   21.87166595   85.83959961    0.07000000    0.25000000
   21.87472153   85.97509766    0.07000000    0.25000000
   21.87805557   89.40460205    0.07000000    0.25000000
   21.88138962   93.51889801    0.07000000    0.25000000
   21.88611031   93.51889801    0.07000000    0.25000000
   21.90611076   88.49269867    0.07000000    0.25000000
   21.90916634   87.67369843    0.07000000    0.25000000
   21.91250038   93.91480255    0.07000000    0.25000000
   21.91583252   87.01290131    0.07000000    0.25000000
   21.91888809   95.29900360    0.07000000    0.25000000
   21.92222214   87.64669800    0.07000000    0.25000000
   21.92555428   82.01280212    0.07000000    0.25000000
   21.92860985   90.83820343    0.07000000    0.25000000
   21.93194389   84.14800262    0.07000000    0.25000000
   21.93750000   84.14800262    0.07000000    0.25000000
   21.94166565   84.04640198    0.07000000    0.25000000
   21.94472122   91.54869843    0.07000000    0.25000000
   21.94805527   86.64900208    0.07000000    0.25000000
   21.95111275   81.21620178    0.07000000    0.25000000
   21.95444489   79.54389954    0.07000000    0.25000000
   21.95583344   85.01260376    0.07000000    0.25000000
   21.95805550   93.41439819    0.07000000    0.25000000
   21.96138954   88.61940002    0.07000000    0.25000000
   21.96472359   85.20929718    0.07000000    0.25000000
   21.96777916   90.91439819    0.07000000    0.25000000
   21.97111130   84.36399841    0.07000000    0.25000000
   21.97444534   88.41020203    0.07000000    0.25000000
   21.97750092   81.90170288    0.07000000    0.25000000
   21.98083305   90.25650024    0.07000000    0.25000000
   21.98388863   82.79180145    0.07000000    0.25000000
   21.98861122   82.79180145    0.07000000    0.25000000
   21.99277878   98.64230347    0.07000000    0.25000000
   21.99583435   89.02739716    0.07000000    0.25000000
   21.99916649   89.42870331    0.07000000    0.25000000
   22.00250053   90.11170197    0.07000000    0.25000000
   22.00555611   89.66809845    0.07000000    0.25000000
   22.00611115   93.33650208    0.07000000    0.25000000
   22.00944519   95.09809875    0.07000000    0.25000000
   22.01277733   85.47170258    0.07000000    0.25000000
   22.01583290   88.79440308    0.07000000    0.25000000
   22.01916695   89.29360199    0.07000000    0.25000000
   22.02222252   92.03520203    0.07000000    0.25000000
   22.02555466   95.91829681    0.07000000    0.25000000
   22.02888870   91.23259735    0.07000000    0.25000000
   22.03194427   82.28749847    0.07000000    0.25000000
   22.03527641   88.06400299    0.07000000    0.25000000
   22.03972244   88.06400299    0.07000000    0.25000000
   22.04388809   87.38320160    0.07000000    0.25000000
   22.04722214   93.77719879    0.07000000    0.25000000
   22.05027771   87.84169769    0.07000000    0.25000000
   22.05360985   94.51799774    0.07000000    0.25000000
   22.05611038  100.41500092    0.07000000    0.25000000
   22.05722237   99.08429718    0.07000000    0.25000000
   22.06055450   88.18440247    0.07000000    0.25000000
   22.06361008   92.90709686    0.07000000    0.25000000
   22.06694603   93.03739929    0.07000000    0.25000000
   22.07000160   88.69680023    0.07000000    0.25000000
   22.07333374   94.10099792    0.07000000    0.25000000
   22.07666779   95.98940277    0.07000000    0.25000000
   22.07972336   89.04209900    0.07000000    0.25000000
   22.08305550   97.71669769    0.07000000    0.25000000
   22.08638954   86.64929962    0.07000000    0.25000000
   22.09083366   86.64929962    0.07000000    0.25000000
   22.09500122   91.80509949    0.07000000    0.25000000
   22.09833336   94.57140350    0.07000000    0.25000000
   22.10166740   89.29889679    0.07000000    0.25000000
   22.10472298   86.84169769    0.07000000    0.25000000
   22.10611153   97.72260284    0.07000000    0.25000000
   22.10833359   89.04160309    0.07000000    0.25000000
   22.11166763   82.95349884    0.07000000    0.25000000
   22.11472321   92.46510315    0.07000000    0.25000000
   22.11805534   77.51879883    0.07000000    0.25000000
   22.12138939   88.11720276    0.07000000    0.25000000
   22.12444496   86.07749939    0.07000000    0.25000000
   22.12777710   85.34770203    0.07000000    0.25000000
   22.13111115   92.25610352    0.07000000    0.25000000
   22.13416672   91.08640289    0.07000000    0.25000000
   22.13750076   82.92379761    0.07000000    0.25000000
   22.14222145   82.92379761    0.07000000    0.25000000
   22.14638901   88.69000244    0.07000000    0.25000000
   22.14944458   80.50800323    0.07000000    0.25000000
   22.15277672   78.29900360    0.07000000    0.25000000
   22.15611076   75.53839874    0.07000000    0.25000000
   22.15666580   81.06089783    0.07000000    0.25000000
   22.15972137   80.38289642    0.07000000    0.25000000
   22.16305542   81.40139771    0.07000000    0.25000000
   22.16611099   81.06089783    0.07000000    0.25000000
   22.16944313   88.28240204    0.07000000    0.25000000
   22.17277718   83.88249969    0.07000000    0.25000000
   22.17583275   85.16169739    0.07000000    0.25000000
   22.17916679   86.40889740    0.07000000    0.25000000
   22.18249893   80.44680023    0.07000000    0.25000000
   22.18555450   86.05139923    0.07000000    0.25000000
   22.18888855   86.67649841    0.07000000    0.25000000
   22.19333267   86.67649841    0.07000000    0.25000000
   22.19749832   90.22660065    0.07000000    0.25000000
   22.20083427   86.40540314    0.07000000    0.25000000
   22.20388985   97.23030090    0.07000000    0.25000000
   22.20666695   86.57669830    0.07000000    0.25000000
   22.20750046  109.25900269    0.07000000    0.25000000
   22.21083450   76.80940247    0.07000000    0.25000000
   22.21389008   92.63590240    0.07000000    0.25000000
   22.21722221   90.13939667    0.07000000    0.25000000
   22.22055626   87.58660126    0.07000000    0.25000000
   22.22361183   80.22219849    0.07000000    0.25000000
   22.22694588   88.76270294    0.07000000    0.25000000
   22.23027802   89.53369904    0.07000000    0.25000000
   22.23333359   85.98390198    0.07000000    0.25000000
   22.23666763   94.54840088    0.07000000    0.25000000
   22.23972321   96.12709808    0.07000000    0.25000000
   22.24444389   96.12709808    0.07000000    0.25000000
   22.24861145   83.38950348    0.07000000    0.25000000
   22.25194359   94.26930237    0.07000000    0.25000000
   22.25499916   94.95099640    0.07000000    0.25000000
   22.25666618   92.50399780    0.07000000    0.25000000
   22.25861168  104.05500031    0.07000000    0.25000000
   22.26194382   93.25479889    0.07000000    0.25000000
   22.26527786   92.26789856    0.07000000    0.25000000
   22.26833344   94.33159637    0.07000000    0.25000000
   22.27166557   95.79709625    0.07000000    0.25000000
   22.27472115   99.67160034    0.07000000    0.25000000
   22.27805519   94.99839783    0.07000000    0.25000000
   22.28138924  105.52899933    0.07000000    0.25000000
   22.28444481   97.04429626    0.07000000    0.25000000
   22.28777695   91.74739838    0.07000000    0.25000000
   22.29111099   91.71420288    0.07000000    0.25000000
   22.29583359   91.71420288    0.07000000    0.25000000
   22.29972076   92.39859772    0.07000000    0.25000000
   22.30305481   90.71060181    0.07000000    0.25000000
   22.30638885  104.77799988    0.07000000    0.25000000
   22.30694389   96.06860352    0.07000000    0.25000000
   22.30999947   88.56169891    0.07000000    0.25000000
   22.31333351   92.55919647    0.07000000    0.25000000
   22.31638718   93.19730377    0.07000000    0.25000000
   22.31972313   87.86090088    0.07000000    0.25000000
   22.32305717   95.97570038    0.07000000    0.25000000
   22.32611275   95.63919830    0.07000000    0.25000000
   22.32944489   95.89779663    0.07000000    0.25000000
   22.33277893   96.77020264    0.07000000    0.25000000
   22.33583450   87.54900360    0.07000000    0.25000000
   22.33916664   95.93370056    0.07000000    0.25000000
   22.34222221   92.06199646    0.07000000    0.25000000
   22.34694481   92.06199646    0.07000000    0.25000000
   22.35111237  103.38999939    0.07000000    0.25000000
   22.35416794   87.75949860    0.07000000    0.25000000
   22.35694504   91.53500366    0.07000000    0.25000000
   22.35777855   89.47940063    0.07000000    0.25000000
   22.36111069   99.94940186    0.07000000    0.25000000
   22.36444473   98.51899719    0.07000000    0.25000000
   22.36750031   87.99680328    0.07000000    0.25000000
   22.37083435   94.07070160    0.07000000    0.25000000
   22.37388992   87.24600220    0.07000000    0.25000000
   22.37722206   82.31700134    0.07000000    0.25000000
   22.38055611   86.27719879    0.07000000    0.25000000
   22.38361168   90.17960358    0.07000000    0.25000000
   22.38694382   79.14219666    0.07000000    0.25000000
   22.39027786   78.84069824    0.07000000    0.25000000
   22.39333344   87.79910278    0.07000000    0.25000000
   22.39805603   87.79910278    0.07000000    0.25000000
   22.40222168   87.51889801    0.07000000    0.25000000
   22.40555573   89.30460358    0.07000000    0.25000000
   22.40694427   84.28649902    0.07000000    0.25000000
   22.40888786   83.75730133    0.07000000    0.25000000
   22.41222191   85.55020142    0.07000000    0.25000000
   22.41555595   88.33509827    0.07000000    0.25000000
   22.41860962   83.31359863    0.07000000    0.25000000
   22.42194366   82.82180023    0.07000000    0.25000000
   22.42499924   85.57479858    0.07000000    0.25000000
   22.42833328   95.43190002    0.07000000    0.25000000
   22.43166542   93.13369751    0.07000000    0.25000000
   22.43472099   91.36650085    0.07000000    0.25000000
   22.43805504   91.98410034    0.07000000    0.25000000
   22.44138718   94.51499939    0.07000000    0.25000000
   22.44444275   92.15969849    0.07000000    0.25000000
   22.44916534   92.15969849    0.07000000    0.25000000
   22.45333481   94.72619629    0.07000000    0.25000000
   22.45666695   78.98300171    0.07000000    0.25000000
   22.45722389   92.77909851    0.07000000    0.25000000
   22.46027946   88.74549866    0.07000000    0.25000000
   22.46361160   91.74189758    0.07000000    0.25000000
   22.46694565   95.34259796    0.07000000    0.25000000
   22.47000122   85.40540314    0.07000000    0.25000000
   22.47333336   94.15070343    0.07000000    0.25000000
   22.47666740   86.85320282    0.07000000    0.25000000
   22.47972298   98.95439911    0.07000000    0.25000000
   22.48305511   88.91329956    0.07000000    0.25000000
   22.48611069   94.36489868    0.07000000    0.25000000
   22.48944473   98.90390015    0.07000000    0.25000000
   22.49277878   99.85880280    0.07000000    0.25000000
   22.49583435  105.38800049    0.07000000    0.25000000
   22.50055504  105.38800049    0.07000000    0.25000000
   22.50444412   88.91690063    0.07000000    0.25000000
   22.50722313   91.59069824    0.07000000    0.25000000
   22.50805473   92.89119720    0.07000000    0.25000000
   22.51138878   88.38379669    0.07000000    0.25000000
   22.51472282   89.16220093    0.07000000    0.25000000
   22.51777840   95.96649933    0.07000000    0.25000000
   22.52111053   92.98200226    0.07000000    0.25000000
   22.52416611   92.97889709    0.07000000    0.25000000
   22.52750015   92.87319946    0.07000000    0.25000000
   22.53083229   92.23889923    0.07000000    0.25000000
   22.53388786   89.08969879    0.07000000    0.25000000
   22.53722191  104.75099945    0.07000000    0.25000000
   22.54055595   89.22679901    0.07000000    0.25000000
   22.54361153   93.97530365    0.07000000    0.25000000
   22.54694366  111.81300354    0.07000000    0.25000000
   22.55166626  111.81300354    0.07000000    0.25000000
   22.55583191   81.35880280    0.07000000    0.25000000
   22.55722237  103.86799622    0.07000000    0.25000000
   22.55944443  100.59500122    0.07000000    0.25000000
   22.56277657  105.79100037    0.07000000    0.25000000
   22.56583214  114.33599854    0.07000000    0.25000000
   22.56916809  109.57599640    0.07000000    0.25000000
   22.57222366   99.43750000    0.07000000    0.25000000
   22.57555580  120.93499756    0.07000000    0.25000000
   22.57888985  173.60299683    0.07000000    0.25000000
   22.58194542  193.89599609    0.07000000    0.25000000
   22.58527756  207.52200317    0.07000000    0.25000000
   22.58861160   70.50170135    0.07000000    0.25000000
   22.59166718   -1.00000000    0.07000000    0.25000000
   22.59500122   -1.00000000    0.07000000    0.25000000
   22.59805679   -1.00000000    0.07000000    0.25000000
   22.60694504   -1.00000000    0.07000000    0.25000000
   22.61055565   -1.00000000    0.07000000    0.25000000
   22.61361122   -1.00000000    0.07000000    0.25000000
   22.61694527   -1.00000000    0.07000000    0.25000000
   22.62027740   -1.00000000    0.07000000    0.25000000
   22.62333298   -1.00000000    0.07000000    0.25000000
   22.62666702   -1.00000000    0.07000000    0.25000000
   22.63000107   -1.00000000    0.07000000    0.25000000
   22.63305473   -1.00000000    0.07000000    0.25000000
   22.63638878   -1.00000000    0.07000000    0.25000000
   22.63944435   -1.00000000    0.07000000    0.25000000
   22.64277840   -1.00000000    0.07000000    0.25000000
   22.64611053   -1.00000000    0.07000000    0.25000000
   22.64916611   -1.00000000    0.07000000    0.25000000
   22.65805435   -1.00000000    0.07000000    0.25000000
   22.66110992   -1.00000000    0.07000000    0.25000000
   22.66444397   -1.00000000    0.07000000    0.25000000
   22.66777802   -1.00000000    0.07000000    0.25000000
   22.67083359   -1.00000000    0.07000000    0.25000000
   22.67416573   -1.00000000    0.07000000    0.25000000
   22.67749977   -1.00000000    0.07000000    0.25000000
   22.68055534   -1.00000000    0.07000000    0.25000000
   22.68388748   -1.00000000    0.07000000    0.25000000
   22.68694305   -1.00000000    0.07000000    0.25000000
   22.69027710   -1.00000000    0.07000000    0.25000000
   22.69361115   -1.00000000    0.07000000    0.25000000
   22.69666672   -1.00000000    0.07000000    0.25000000
   22.70000076   -1.00000000    0.07000000    0.25000000
   22.70916748   -1.00000000    0.07000000    0.25000000
