    HOUR (UT)   FLARE FACTOR    SKY TESTER    SUN TESTER
   12.05277824   -1.00000000   -1.00000000   -1.00000000
   12.13416672   97.70200348    4.11999989    2.44000006
   12.13749981   97.05529785    4.11999989    2.42000008
   12.14055538  108.01100159    4.13999987    2.42000008
   12.14388847   96.95220184    4.09999990    2.42000008
   12.14722252  103.37899780    4.09999990    2.42000008
   12.15027714  108.49600220    4.11999989    2.40000010
   12.15444374  108.49600220    4.15999985    2.40000010
   12.15861034   97.69309998    4.19999981    2.39000010
   12.16194439  110.80100250    4.19999981    2.39000010
   12.16527748  110.87000275    4.19999981    2.39000010
   12.16722298  102.80000305    4.15999985    2.39000010
   12.16888905  108.36499786    4.15999985    2.36999989
   12.17222214  109.13500214    4.15999985    2.36999989
   12.17527771  109.39700317    4.15999985    2.39000010
   12.17861176  105.68699646    4.19999981    2.39000010
   12.18194485  105.68900299    4.17999983    2.39000010
   12.18500042  107.50700378    4.13999987    2.39000010
   12.18916702  107.50700378    4.13999987    2.36999989
   12.19333363  105.49199677    4.13999987    2.36999989
   12.19666672   96.81379700    4.07999992    2.40000010
   12.19972229  102.83000183    4.05999994    2.40000010
   12.20083332  103.77600098    4.07999992    2.42000008
   12.20722198   99.50559998    4.00000000    2.40000010
   12.21055508  101.32399750    4.00000000    2.42000008
   12.21388912  105.99400330    3.99000001    2.42000008
   12.21694374  104.67800140    3.99000001    2.44000006
   12.22027779  101.64199829    3.95000005    2.42000008
   12.22611046  101.64199829    3.91000009    2.42000008
   12.23027706   99.58540344    3.86999989    2.44000006
   12.23361111  104.22599792    3.86999989    2.46000004
   12.23416710  108.13200378    3.86999989    2.46000004
   12.23694515  103.42199707    3.84999990    2.46000004
   12.24027824  103.99199677    3.84999990    2.46000004
   12.24361134  101.51100159    3.82999992    2.46000004
   12.24666691  106.98300171    3.82999992    2.46000004
   12.25000000  110.00000000    3.84999990    2.46000004
   12.25305557  105.78199768    3.84999990    2.46000004
   12.25638866  105.62000275    3.80999994    2.46000004
   12.26055527  105.62000275    3.82999992    2.46000004
   12.26472187  115.26899719    3.84999990    2.46000004
   12.26749992  105.71399689    3.84999990    2.46000004
   12.26833344  108.44400024    3.86999989    2.46000004
   12.27166653   97.42009735    3.89000010    2.46000004
   12.27499962   98.22850037    3.91000009    2.46000004
   12.27805519   96.84529877    3.93000007    2.46000004
   12.28138828  102.80000305    3.99000001    2.46000004
   12.28472233  100.38700104    4.00000000    2.46000004
   12.28777790   96.52310181    4.00000000    2.46000004
   12.29111195  100.66200256    4.00000000    2.44000006
   12.29527855  100.66200256    4.00000000    2.46000004
   12.29944515  104.55899811    3.99000001    2.44000006
   12.30083370  108.89099884    3.99000001    2.44000006
   12.30277824  105.22000122    3.99000001    2.46000004
   12.30611134  102.16200256    3.97000003    2.46000004
   12.30944443  100.26000214    3.97000003    2.48000002
   12.31250000  101.20700073    3.99000001    2.48000002
   12.31583309  101.90399933    3.93000007    2.48000002
   12.31916618  102.82599640    3.93000007    2.48000002
   12.32222176  103.76300049    3.86999989    2.46000004
   12.32555580  104.48699951    3.84999990    2.48000002
   12.32972240  104.48699951    3.86999989    2.46000004
   12.33388901  108.13400269    3.86999989    2.46000004
   12.33444405  111.05100250    3.84999990    2.46000004
   12.33777714  118.43299866    3.84999990    2.46000004
   12.34083271  129.33799744    3.89000010    2.46000004
   12.34416676  119.37899780    3.91000009    2.48000002
   12.34749985  116.83100128    3.91000009    2.46000004
   12.35055637  115.38899994    3.91000009    2.48000002
   12.35388947  110.30000305    3.86999989    2.48000002
   12.35694504   91.02809906    3.84999990    2.48000002
   12.36027813  101.14499664    3.82999992    2.48000002
   12.36444473  101.14499664    3.80999994    2.48000002
   12.36861134   97.79019928    3.78999996    2.48000002
   12.37194443  112.46800232    3.80999994    2.48000002
   12.37500000  103.17600250    3.78999996    2.48000002
   12.37833309  103.65799713    3.75000000    2.48000002
   12.38138866  100.98200226    3.76999998    2.50000000
   12.38472176   99.24340057    3.75000000    2.50000000
   12.38805580  108.66799927    3.75000000    2.50000000
   12.39111137  105.52400208    3.70000005    2.50000000
   12.39444447   99.02570343    3.66000009    2.50000000
   12.39888859   99.02570343    3.66000009    2.50000000
   12.40305519  101.65599823    3.64000010    2.51999998
   12.40638828  101.84700012    3.64000010    2.50000000
   12.40944386  103.68900299    3.64000010    2.51999998
   12.41277695   99.16619873    3.64000010    2.51999998
   12.41611099  104.11900330    3.64000010    2.51999998
   12.41916656   99.81400299    3.61999989    2.51999998
   12.42250061  102.20500183    3.64000010    2.51999998
   12.42555618  103.01300049    3.84999990    2.50000000
   12.42888927  114.20600128    4.90999985    2.50000000
   12.43361092  114.20600128    4.90999985    2.50000000
   12.43750000  110.67900085    4.90999985    2.46000004
   12.44083309  108.22100067    4.69999981    2.48000002
   12.44416714  105.52899933    4.90999985    2.51999998
   12.44722271  102.62100220    4.90999985    2.50000000
   12.45055580  101.24199677    4.76000023    2.53999996
   12.45388889  107.31700134    4.90999985    2.51999998
   12.45694447   97.60620117    4.90999985    2.50000000
   12.46027756  160.08799744    3.72000003    2.44000006
   12.46361065  203.30099487    3.91000009    2.42000008
   12.46805477  203.30099487    4.90999985    2.48000002
   12.47222137  163.53799438    4.90999985    2.05999994
   12.47527695   99.70739746    4.90999985    2.36999989
   12.47861099  110.39499664    4.90999985    2.46000004
   12.48194408  107.57499695    4.90999985    2.46000004
   12.48500061   97.87850189    4.73999977    2.50000000
   12.48833370  106.41999817    4.40999985    2.48000002
   12.49138927  113.10299683    4.21999979    2.50000000
   12.49472237  111.83499908    4.05999994    2.48000002
   12.49805546  112.66300201    4.03999996    2.46000004
   12.50249958  112.66300201    4.90999985    2.48000002
   12.50666714  108.99700165    4.90999985    2.50000000
   12.51000023  105.65699768    4.90999985    2.50000000
   12.51305580  102.11299896    4.90999985    2.50000000
   12.51638889  103.15399933    4.90999985    2.50000000
   12.51944447  114.94999695    4.90999985    2.44000006
   12.52305508  103.42600250    4.57999992    2.44000006
   12.52611065  105.64199829    4.61999989    2.46000004
   12.52944374  104.30500031    4.46999979    2.44000006
   12.53277779  105.50800323    3.99000001    2.44000006
   12.53694534  105.50800323    4.26999998    2.46000004
   12.54111195  108.10199738    4.05999994    2.46000004
   12.54444504  108.41899872    4.34999990    2.50000000
   12.54750061  106.78700256    4.90999985    2.50000000
   12.55083370  116.28800201    4.90999985    2.51999998
   12.55416679  109.33999634    4.90999985    2.50000000
   12.55722237  113.62500000    4.90999985    2.50000000
   12.56055546  108.50800323    4.90999985    2.53999996
   12.56388950  107.52500153    4.90999985    2.55999994
   12.56694412  106.05999756    4.90999985    2.53999996
   12.57138920  106.05999756    4.90999985    2.53999996
   12.57555580  106.96800232    4.90999985    2.53999996
   12.57916641  103.65599823    4.38999987    2.53999996
   12.58222198  106.58999634    3.95000005    2.53999996
   12.58555508  102.10800171    3.80999994    2.53999996
   12.58888817   99.49749756    3.45000005    2.51999998
   12.59194374  113.86499786    3.39000010    2.48000002
   12.59527779  107.50299835    3.41000009    2.48000002
   12.59833336  133.00300598    3.43000007    2.44000006
   12.60166740  170.13499451    3.36999989    2.09999990
   12.60611153  170.13499451    3.86999989    2.30999994
   12.61000061  107.44599915    4.01999998    2.19000006
   12.61333370  280.85900879    4.00000000    2.23000002
   12.61666679  122.06099701    4.03999996    2.21000004
   12.61972237  114.58100128    4.34999990    2.51999998
   12.62305546  113.66100311    4.21999979    2.53999996
   12.62638855  108.67500305    3.70000005    2.53999996
   12.62944412  117.08499908    3.51999998    2.53999996
   12.63277817  113.22100067    3.45000005    2.51999998
   12.63583279  108.42500305    3.43000007    2.51999998
   12.64055538  108.42500305    3.45000005    2.51999998
   12.64472198  113.06999969    3.46000004    2.51999998
   12.64777756  108.27899933    3.45000005    2.53999996
   12.65111065  106.56800079    3.45000005    2.53999996
   12.65416622  119.38500214    3.46000004    2.53999996
   12.65749931  105.62599945    3.43000007    2.55999994
   12.66083336  114.92099762    3.48000002    2.55999994
   12.66388893  112.56400299    3.51999998    2.53999996
   12.66722298  109.15499878    3.51999998    2.53999996
   12.67055607  108.17099762    3.50000000    2.55999994
   12.67500019  108.17099762    3.45000005    2.55999994
   12.67916679  106.62799835    3.43000007    2.57999992
   12.68249989  106.05899811    3.41000009    2.57999992
   12.68555546  109.02200317    3.43000007    2.57999992
   12.68888855  109.34100342    3.46000004    2.57999992
   12.69222260  109.62599945    3.50000000    2.59999990
   12.69527817  118.44699860    3.51999998    2.59999990
   12.69861126  109.24700165    3.46000004    2.59999990
   12.70166683  106.64299774    3.45000005    2.59999990
   12.70499992  103.90499878    3.43000007    2.57999992
   12.70944405  103.90499878    3.39000010    2.59999990
   12.71361065  103.41799927    3.32999992    2.59999990
   12.71694374  105.65599823    3.30999994    2.59999990
   12.72027779  104.60299683    3.32999992    2.59999990
   12.72333336  105.31500244    3.28999996    2.59999990
   12.72666645  114.26399994    3.32999992    2.59999990
   12.72972202  107.92600250    3.30999994    2.57999992
   12.73305511  103.12999725    3.34999990    2.59999990
   12.73638916  105.40299988    3.39000010    2.59999990
   12.73944473  113.54799652    3.41000009    2.57999992
   12.74388885  113.54799652    3.43000007    2.57999992
   12.74805546  110.77799988    3.41000009    2.55999994
   12.75138855  115.73600006    3.51999998    2.55999994
   12.75472260  113.51899719    3.73000002    2.51999998
   12.75777817  109.65699768    3.82999992    2.53999996
   12.76111126  113.56300354    3.41000009    2.53999996
   12.76444435  114.81900024    3.32999992    2.51999998
   12.76749992  115.21900177    3.36999989    2.55999994
   12.77083302  138.71600342    3.55999994    2.36999989
   12.77388859  106.51100159    4.21999979    2.32999992
   12.77861118  106.51100159    4.90999985    2.09999990
   12.78277779   -1.00000000    4.90999985    1.34000003
   12.78583336   -1.00000000    4.90999985    1.03999996
   12.78916740  167.33799744    4.90999985    1.36000001
   12.79250050  112.53500366    4.90999985    1.94000006
   12.79555607   -1.00000000    4.90999985    1.50000000
   12.79888916   -1.00000000    4.90999985    0.51999998
   12.80194473   -1.00000000    4.90999985    0.98000002
   12.80527782   -1.00000000    4.90999985    1.21000004
   12.80861092   -1.00000000    4.90999985    0.64999998
   12.81694412   -1.00000000    4.90999985    1.01999998
   12.82027817   -1.00000000    4.90999985    0.63000000
   12.82361126   -1.00000000    4.90999985    0.64999998
   12.82666683   -1.00000000    4.90999985    0.69000000
   12.82999992   -1.00000000    4.90999985    0.38000000
   12.83333302   -1.00000000    4.90999985    0.36000001
   12.83638859   -1.00000000    4.90999985    0.31999999
   12.83972168   77.09310150    4.90999985    1.48000002
   12.84305477  127.67400360    4.90999985    1.96000004
   12.84749985  127.67400360    4.90999985    1.39999998
   12.85166740  103.20400238    4.90999985    1.41999996
   12.85500050  103.54299927    4.90999985    1.25000000
   12.85805607  159.98699951    4.90999985    0.94000000
   12.86138916  192.55099487    4.90999985    0.40000001
   12.86472225   97.12380219    4.90999985    0.64999998
   12.86777782  130.08900452    4.90999985    0.80000001
   12.87111092  120.54699707    4.90999985    0.55000001
   12.87416649  262.61801147    4.90999985    0.47999999
   12.87750053  107.73999786    4.90999985    0.63000000
   12.88194466  107.73999786    4.90999985    0.67000002
   12.88611126  115.54000092    4.90999985    0.63000000
   12.88944435  118.01599884    2.46000004    0.69000000
   12.89277744  110.39099884    2.40000010    0.70999998
   12.89583302  115.35900116    2.30999994    0.73000002
   12.89916611  111.22599792    2.00000000    0.73000002
   12.90222168  113.76200104    1.91999996    0.75000000
   12.90555477  110.98100281    1.89999998    0.76999998
   12.90888882  121.84500122    1.86000001    0.76999998
   12.91194439  104.70600128    1.80999994    0.79000002
   12.91666698  104.70600128    1.75000000    0.76999998
   12.92083359  114.69300079    1.75000000    0.76999998
   12.92388916  115.56900024    1.96000004    0.76999998
   12.92722225  112.55999756    2.73000002    0.76999998
   12.93027782  124.27500153    4.90999985    0.79000002
   12.93361092  187.97999573    4.90999985    0.76999998
   12.93694496  123.46700287    4.90999985    0.76999998
   12.94000053  118.51100159    4.90999985    0.79000002
   12.94333363  112.57099915    4.90999985    0.75000000
   12.94666672  110.35399628    4.90999985    0.75000000
   12.95111084  110.35399628    4.90999985    0.81999999
   12.95527744  112.21600342    4.90999985    0.80000001
   12.95833302  117.37200165    4.90999985    0.79000002
   12.96166611  134.42399597    4.34999990    0.76999998
   12.96500015  147.50900269    4.90999985    0.75000000
   12.96805477  116.73000336    4.90999985    0.70999998
   12.97138882  114.59600067    4.90999985    0.79000002
   12.97444439  119.62799835    4.90999985    0.80000001
   12.97777748  115.60500336    4.90999985    0.79000002
   12.98111057  114.67400360    4.90999985    0.79000002
   12.98555565  114.67400360    4.90999985    0.63000000
   12.98972225  183.99699402    4.17999983    0.76999998
   12.99305534  116.31900024    4.30999994    0.56999999
   12.99611092  106.04100037    4.90999985    0.52999997
   12.99944496   -1.00000000    4.90999985    0.20999999
   13.00277805  102.24500275    4.90999985    0.23000000
   13.00611115   94.18309784    4.90999985    0.52999997
   13.00944424  121.24199677    4.90999985    0.76999998
   13.01249981  124.34799957    4.90999985    0.75000000
   13.01583290  117.94000244    4.90999985    0.73000002
   13.02083302  117.94000244    4.90999985    0.70999998
   13.02499962  118.95099640    4.90999985    0.67000002
   13.02833271  117.25800323    3.64000010    0.64999998
   13.03166676  117.60900116    2.05999994    0.63000000
   13.03472233  121.65599823    1.50000000    0.63000000
   13.03805637  118.14499664    1.38000000    0.61000001
   13.04138947  116.40000153    1.36000001    0.61000001
   13.04444504  121.06500244    1.36000001    0.61000001
   13.04777813  119.38999939    1.48000002    0.61000001
   13.05527782  119.38999939    1.44000006    0.58999997
   13.05944443  116.08000183    1.26999998    0.56999999
   13.06277752  119.18599701    1.07000005    0.56999999
   13.06638908  121.61799622    1.03999996    0.56999999
   13.06972218  116.02799988    1.01999998    0.55000001
   13.07305527  119.62799835    0.98000002    0.55000001
   13.07638836  114.91500092    0.98000002    0.55000001
   13.07972240  113.22599792    0.98000002    0.52999997
   13.08305550  120.98999786    0.98000002    0.55000001
   13.08972168  120.98999786    0.95999998    0.52999997
   13.09416676  116.08599854    0.94000000    0.51999998
   13.09749985  130.52600098    0.92000002    0.51999998
   13.10083389  122.20300293    0.89999998    0.51999998
   13.10416698  125.99099731    0.89999998    0.51999998
   13.10750008  120.82900238    0.88000000    0.50000000
   13.11111164  129.71000671    0.88000000    0.50000000
   13.11444473  126.82900238    0.86000001    0.50000000
   13.11805534  126.23000336    0.88000000    0.50000000
   13.12416649  126.23000336    0.92000002    0.50000000
   13.12861156  132.70899963    0.88000000    0.50000000
   13.13194466  124.67600250    0.88000000    0.50000000
   13.15222168  115.18599701    0.89999998    0.47999999
   13.15888882  115.18599701    0.86000001    0.47999999
   13.16333294  125.54599762    0.83999997    0.47999999
   13.16666698  134.39399719    0.79000002    0.40000001
   13.17000008  113.81099701    0.80000001    0.47999999
   13.17333412  120.77899933    0.83999997    0.47999999
   13.17666721  117.26000214    0.88000000    0.46000001
   13.18000031  124.27799988    0.83999997    0.46000001
   13.18305588  130.33500671    0.80000001    0.46000001
   13.18638897  186.08500671    0.79000002    0.44000000
   13.19305515  186.08500671    0.76999998    0.46000001
   13.19722271  122.69000244    0.76999998    0.44000000
   13.20027733  122.13999939    0.79000002    0.44000000
   13.20361137  130.67799377    0.79000002    0.44000000
   13.20694447  126.48200226    0.75000000    0.41999999
   13.21000004  132.80900574    0.73000002    0.41999999
   13.21333313  147.50399780    0.73000002    0.41999999
   13.21666622  135.75799561    0.70999998    0.41999999
   13.21972179  122.98899841    0.73000002    0.41999999
   13.22305489  131.38099670    0.73000002    0.41999999
   13.22749996  131.38099670    0.70999998    0.40000001
   13.23166656  119.94899750    0.70999998    0.40000001
   13.23472214  122.30500031    0.70999998    0.40000001
   13.23805618  114.07399750    0.70999998    0.38000000
   13.24138927  134.78999329    0.69000000    0.38000000
   13.24444485  125.44999695    0.69000000    0.38000000
   13.24777794  129.49299622    0.69000000    0.38000000
   13.25111103  130.08099365    0.69000000    0.38000000
   13.25416660  123.71399689    0.69000000    0.38000000
   13.25749969  129.05400085    0.69000000    0.36000001
   13.26194477  129.05400085    0.69000000    0.36000001
   13.26611137  129.13000488    0.67000002    0.36000001
   13.26944447  131.17100525    0.67000002    0.34000000
   13.27250004  126.68000031    0.64999998    0.36000001
   13.27583313  141.77400208    0.81999999    0.34000000
   13.27916622  115.80000305    1.23000002    0.34000000
   13.28222179  134.99499512    1.11000001    0.34000000
   13.28555584  121.55300140    0.86000001    0.34000000
   13.28888893  129.27600098    0.69000000    0.34000000
   13.29194450  121.56700134    0.64999998    0.31999999
   13.29638958  121.56700134    0.63000000    0.31999999
   13.30055618  120.40200043    0.63000000    0.31999999
   13.30388927  129.71400452    0.61000001    0.31999999
   13.30722237  124.79199982    0.61000001    0.31999999
   13.31027794  139.37199402    0.61000001    0.30000001
   13.31361103  116.56400299    0.61000001    0.30000001
   13.31666660  127.40399933    0.61000001    0.30000001
   13.31999969  131.90199280    0.58999997    0.30000001
   13.32333374  128.13299561    0.56999999    0.28000000
   13.32638836  130.46499634    0.56999999    0.28000000
   13.33083344  130.46499634    0.56999999    0.28000000
   13.33500004  122.02999878    0.56999999    0.28000000
   13.33833313  123.89700317    0.58999997    0.25999999
   13.34166622  136.31900024    0.83999997    0.25999999
   13.34472179  116.38800049    0.89999998    0.25999999
   13.34805489  126.84899902    0.61000001    0.25999999
   13.35111141  131.65800476    0.52999997    0.25000000
   13.35444450  129.06500244    0.55000001    0.25000000
   13.35777855  126.59300232    0.52999997    0.25000000
   13.36111164  136.17100525    0.52999997    0.25000000
   13.36527824  136.17100525    0.51999998    0.25000000
   13.36944485  136.05700684    0.52999997    0.25000000
   13.37277794  128.99800110    0.51999998    0.23000000
   13.37611103  118.79699707    0.51999998    0.23000000
   13.37916660  122.52600098    0.51999998    0.23000000
   13.38249969  124.80200195    0.51999998    0.23000000
   13.38555527  118.91600037    0.50000000    0.20999999
   13.38888836  119.94200134    0.50000000    0.20999999
   13.39222240  130.28599548    0.50000000    0.20999999
   13.39527798  125.70400238    0.50000000    0.20999999
   13.39999962  125.70400238    0.47999999    0.19000000
   13.40416622  127.89800262    0.47999999    0.20999999
   13.40749931  121.75800323    0.47999999    0.19000000
   13.41055489  129.10000610    0.47999999    0.19000000
   13.41388893  117.14700317    0.47999999    0.19000000
   13.41722298  128.50500488    0.47999999    0.19000000
   13.42027855  118.66400146    0.47999999    0.17000000
   13.42361164  111.90100098    0.47999999    0.17000000
   13.42694473  118.80599976    0.47999999    0.17000000
   13.43000031  113.14199829    0.47999999    0.17000000
   13.43444443  113.14199829    0.47999999    0.17000000
   13.43861103  125.51499939    0.47999999    0.15000001
   13.44194412  122.38700104    0.47999999    0.15000001
   13.44527817  122.48300171    0.47999999    0.15000001
   13.44833374  123.32900238    0.46000001    0.15000001
   13.45166683  114.94999695    0.46000001    0.13000000
   13.45499992  124.79100037    0.47999999    0.15000001
   13.45805550  126.25900269    0.46000001    0.13000000
   13.46138859  121.30899811    0.46000001    0.13000000
   13.46472168  133.55999756    0.46000001    0.11000000
   13.46944427  133.55999756    0.46000001    0.11000000
   13.47361088  114.95800018    0.44000000    0.11000000
   13.47694397  121.63099670    0.44000000    0.11000000
   13.47999954  118.53099823    0.44000000    0.09000000
   13.48333359  118.38099670    0.44000000    0.09000000
   13.48666668  119.45400238    0.41999999    0.09000000
   13.48972225  118.50000000    0.41999999    0.09000000
   13.49305534  112.66400146    0.41999999    0.09000000
   13.49638939  125.97299957    0.44000000    0.09000000
   13.49944496  121.96900177    0.41999999    0.07000000
   13.50416660  121.96900177    0.41999999    0.07000000
   13.50861073  132.05900574    0.41999999    0.09000000
   13.51194477  119.97200012    0.41999999    0.07000000
   13.51500034  115.02400208    0.41999999    0.07000000
   13.51833344  111.93900299    0.41999999    0.07000000
   13.52166653  123.18599701    0.41999999    0.07000000
   13.52472210  124.10800171    0.41999999    0.07000000
   13.52805519  112.99299622    0.41999999    0.07000000
   13.53138828  116.62100220    0.40000001    0.07000000
   13.53805637  116.62100220    0.40000001    0.05000000
   13.54222298  112.00599670    0.40000001    0.05000000
   13.54555607  105.43399811    0.40000001    0.05000000
   13.54861164  126.10500336    0.38000000    0.05000000
   13.55194473  112.37699890    0.38000000    0.05000000
   13.55527782  122.42600250    0.38000000    0.05000000
   13.55833340  122.01699829    0.38000000    0.05000000
   13.56166649  123.22399902    0.38000000    0.05000000
   13.56500053  122.60099792    0.38000000    0.05000000
   13.56805515  120.19599915    0.38000000    0.05000000
   13.57277775  120.19599915    0.38000000    0.03000000
   13.57666683  120.89800262    0.36000001    0.03000000
   13.57999992  118.69100189    0.36000001    0.05000000
   13.58333302  121.59200287    0.36000001    0.03000000
   13.58638859  117.91100311    0.38000000    0.05000000
   13.58972168  109.57700348    0.36000001    0.03000000
   13.59277725  125.68900299    0.36000001    0.03000000
   13.59611034  118.52600098    0.36000001    0.03000000
   13.59944439  113.36000061    0.34000000    0.03000000
   13.60249996  106.61199951    0.34000000    0.03000000
   13.60722256  106.61199951    0.34000000    0.03000000
   13.61138916  113.51100159    0.34000000    0.03000000
   13.61444473  119.76999664    0.34000000    0.03000000
   13.61777782  135.51800537    0.34000000    0.03000000
   13.62083340  121.72299957    0.34000000    0.03000000
   13.62416649  112.88200378    0.34000000    0.03000000
   13.62750053  104.63600159    0.34000000    0.03000000
   13.63055611  120.99700165    0.31999999    0.01000000
   13.63388920  117.74700165    0.34000000    0.01000000
   13.63722229  107.64700317    0.34000000    0.01000000
   13.64166641  107.64700317    0.34000000    0.01000000
   13.64583302  118.16699982    0.34000000    0.01000000
   13.64888859  120.38300323    0.34000000    0.01000000
   13.65222168  114.75399780    0.34000000    0.01000000
   13.65555477  117.61100006    0.34000000    0.01000000
   13.65861034  116.03299713    0.34000000    0.01000000
   13.66194439  121.97899628    0.34000000    0.01000000
   13.66527748  115.43299866    0.34000000    0.01000000
   13.66833401  117.21600342    0.34000000    0.01000000
   13.67166710  108.49400330    0.31999999    0.01000000
   13.67611122  108.49400330    0.31999999    0.01000000
   13.68027782  122.34200287    0.31999999    0.01000000
   13.68361092  118.45500183    0.31999999    0.01000000
   13.68666649  124.24500275    0.31999999    0.01000000
   13.69000053  122.99900055    0.31999999    0.01000000
   13.69333363  123.44400024    0.31999999    0.01000000
   13.69638920  114.69300079    0.31999999    0.01000000
   13.69972229  124.07199860    0.31999999    0.01000000
   13.70277786  111.11100006    0.31999999    0.01000000
   13.70611095  118.87799835    0.31999999    0.01000000
   13.71055508  118.87799835    0.31999999    0.01000000
   13.71472168  107.04599762    0.31999999    0.01000000
   13.71805477  107.51399994    0.31999999    0.01000000
   13.72111034  112.95400238    0.31999999    0.01000000
   13.72444439  108.86599731    0.31999999    0.01000000
   13.72777748  109.24900055    0.31999999    0.01000000
   13.73083305  121.40699768    0.31999999    0.01000000
   13.73416710  112.20099640    0.31999999    0.01000000
   13.73750019  119.06500244    0.31999999    0.01000000
   13.74055576  118.72599792    0.31999999    0.01000000
   13.74527836  118.72599792    0.36000001    0.01000000
   13.74916649  119.11699677    4.90999985    2.84999990
   13.75249958  120.23400116    4.90999985    2.76999998
   13.75583363  117.00800323    4.90999985    2.69000006
   13.75888920  102.95899963    4.90999985    2.71000004
   13.76222229  128.84399414    4.90999985    2.71000004
   13.76555538  113.19300079    4.90999985    2.71000004
   13.76861095  112.22799683    4.90999985    2.71000004
   13.77250004  116.09500122    4.90999985    2.69000006
   13.77583313  112.25399780    4.90999985    2.71000004
   13.77999973  112.25399780    4.90999985    2.69000006
   13.78416729  116.70300293    4.90999985    2.71000004
   13.78722286  119.42199707    4.90999985    2.73000002
   13.79055595  116.82900238    4.90999985    2.71000004
   13.79361153   -1.00000000    4.90999985    2.71000004
   13.79694462   -1.00000000    4.90999985    2.71000004
   13.80027771   -1.00000000    4.90999985    2.71000004
   13.81250000  108.11299896    4.90999985    2.71000004
   13.81583309  115.93000031    4.90999985    2.73000002
   13.81888866  106.54299927    4.90999985    2.71000004
   13.82222176  110.24600220    4.90999985    2.73000002
   13.82527733  119.70899963    4.90999985    2.71000004
   13.82861137  114.69599915    4.90999985    2.71000004
   13.83277798  114.69599915    4.90999985    2.71000004
   13.83694458  111.51799774    4.90999985    2.71000004
   13.84000015  113.56199646    4.90999985    2.69000006
   13.84333324  104.08399963    4.90999985    2.71000004
   13.84583282  112.61299896    4.90999985    2.71000004
   13.84722233  113.33699799    4.90999985    2.71000004
   13.85027790  111.08799744    4.90999985    2.71000004
   13.85361195  124.41100311    4.90999985    2.71000004
   13.85666752  110.89299774    4.90999985    2.71000004
   13.86000061  114.27300262    4.90999985    2.71000004
   13.86333370  118.61799622    4.90999985    2.73000002
   13.86750031  118.61799622    4.90999985    2.73000002
   13.87138939  111.82399750    4.90999985    2.73000002
   13.87472248  111.34899902    4.90999985    2.71000004
   13.87805557  109.15399933    4.90999985    2.73000002
   13.87916660   98.89119720    4.90999985    2.71000004
   13.88166714  114.38899994    4.90999985    2.73000002
   13.88472176  121.41699982    4.90999985    2.75000000
   13.88805580  115.24800110    4.90999985    2.73000002
   13.89138889  110.02999878    4.90999985    2.73000002
   13.89444447  120.64600372    4.90999985    2.73000002
   13.89777756  119.16100311    4.90999985    2.75000000
   13.90194416  119.16100311    4.90999985    2.73000002
   13.90611076  121.75399780    4.90999985    2.73000002
   13.90916634  119.77999878    4.90999985    2.73000002
   13.91249943  126.65799713    4.90999985    2.75000000
   13.91305542  121.50000000    4.90999985    2.73000002
   13.91611099  136.05400085    4.90999985    2.73000002
   13.91944504  119.65899658    4.90999985    2.73000002
   13.92277813  125.21399689    4.90999985    2.75000000
   13.92583370  138.74200439    4.90999985    2.73000002
   13.92916679  123.98799896    4.90999985    2.73000002
   13.93222237  123.87000275    4.90999985    2.75000000
   13.93638897  123.87000275    4.90999985    2.75000000
   13.94055557  118.27799988    4.90999985    2.75000000
   13.94388866  125.85600281    4.90999985    2.73000002
   13.94583321  112.03600311    4.90999985    2.75000000
   13.94750023  111.86499786    4.90999985    2.73000002
   13.95055580  124.23699951    4.90999985    2.75000000
   13.95388889  125.12899780    4.90999985    2.75000000
   13.95722198  110.73500061    4.90999985    2.73000002
   13.96027756  124.70600128    4.90999985    2.75000000
   13.96361065  122.15799713    4.90999985    2.75000000
   13.96694374  117.33300018    4.90999985    2.73000002
   13.97111034  117.33300018    4.90999985    2.75000000
   13.97499943  116.40299988    4.90999985    2.73000002
   13.97833252  115.54499817    4.90999985    2.73000002
   13.97916603  116.28099823    4.90999985    2.73000002
   13.98194408  131.53500366    4.90999985    2.75000000
   13.98500061  118.90000153    4.90999985    2.75000000
   13.98833370  113.38200378    4.90999985    2.75000000
   13.99166679  109.97100067    4.90999985    2.75000000
   13.99472237  111.40299988    4.90999985    2.75000000
   13.99805546  116.29100037    4.90999985    2.73000002
   14.00138855  112.18900299    4.90999985    2.75000000
   14.00555515  112.18900299    4.90999985    2.75000000
   14.00972176  115.57599640    4.90999985    2.75000000
   14.01249981  115.74900055    4.90999985    2.75000000
   14.01333332  111.32399750    4.90999985    2.75000000
   14.01638889  125.36299896    4.90999985    2.75000000
   14.01972198  111.77100372    4.90999985    2.76999998
   14.02305508  117.93800354    4.90999985    2.75000000
   14.02611065  120.89600372    4.90999985    2.76999998
   14.02944374  109.62799835    4.90999985    2.75000000
   14.03249931  116.17600250    4.90999985    2.75000000
   14.03583336  114.40200043    4.90999985    2.75000000
   14.04000092  114.40200043    4.90999985    2.75000000
   14.04416752  120.51699829    4.90999985    2.75000000
   14.04583359  111.24099731    4.90999985    2.75000000
   14.04777813  111.91600037    4.90999985    2.75000000
   14.05083370  111.56700134    4.90999985    2.75000000
   14.05416679  119.43399811    4.90999985    2.75000000
   14.05749989  118.66200256    4.90999985    2.75000000
   14.06055546  110.69799805    4.90999985    2.75000000
   14.06388950  114.43900299    4.90999985    2.73000002
   14.06722260  114.63899994    4.90999985    2.75000000
   14.07027817  126.98999786    4.90999985    2.75000000
   14.07444477  126.98999786    4.90999985    2.75000000
   14.07861137  127.00000000    4.90999985    2.75000000
   14.07916641  112.39600372    4.90999985    2.75000000
   14.08222198  117.56400299    4.90999985    2.75000000
   14.08527756  116.39199829    4.90999985    2.76999998
   14.08861065  116.95800018    4.90999985    2.76999998
   14.09194374  115.31300354    4.90999985    2.75000000
   14.09499931  116.49099731    4.90999985    2.75000000
   14.09833336  125.75399780    4.90999985    2.75000000
   14.10166740  114.22799683    4.90999985    2.75000000
   14.10472298  123.85199738    4.90999985    2.75000000
   14.10888958  123.85199738    4.90999985    2.73000002
   14.11305618  123.65100098    4.90999985    2.73000002
   14.11638927  121.75399780    4.90999985    2.75000000
   14.11972237  119.73400116    4.90999985    2.75000000
   14.12277794  126.56199646    4.90999985    2.75000000
   14.12611103  125.65100098    4.90999985    2.75000000
   14.12916660  126.19000244    4.90999985    2.75000000
   14.13249969  141.71400452    4.90999985    2.75000000
   14.13583279  123.13099670    4.90999985    2.75000000
   14.13888836  129.14700317    4.90999985    2.76999998
   14.14361095  129.14700317    4.90999985    2.76999998
   14.14777756  135.83299255    4.90999985    2.75000000
   14.15083313  127.78299713    4.90999985    2.75000000
   14.15416622  124.65899658    4.90999985    2.76999998
   14.15722179  129.93299866    4.90999985    2.76999998
   14.16055489  127.38500214    4.90999985    2.76999998
   14.16388893  128.63099670    4.90999985    2.76999998
   14.16694450  127.05000305    4.90999985    2.76999998
   14.17027855  121.10500336    4.90999985    2.76999998
   14.17361164  124.79100037    4.90999985    2.76999998
   14.17805576  124.79100037    4.90999985    2.76999998
   14.18222237  127.74700165    4.90999985    2.78999996
   14.18527794  123.18900299    4.90999985    2.76999998
   14.18861103  117.98100281    4.90999985    2.78999996
   14.19194412  126.60399628    4.90999985    2.76999998
   14.19499969  124.72499847    4.90999985    2.76999998
   14.19833374  115.88500214    4.90999985    2.76999998
   14.20166683  112.81099701    4.90999985    2.78999996
   14.20472240  111.99400330    4.90999985    2.76999998
   14.20805550  125.18499756    4.90999985    2.76999998
   14.21249962  125.18499756    4.90999985    2.76999998
   14.21666622  123.26499939    4.90999985    2.75000000
   14.21999931  128.40899658    4.90999985    2.76999998
   14.22333336  122.29699707    4.90999985    2.76999998
   14.22638798  122.36399841    4.90999985    2.75000000
   14.22972202  107.83000183    4.90999985    2.76999998
   14.23277760  115.31500244    4.90999985    2.76999998
   14.23611164  112.03800201    4.90999985    2.76999998
   14.23944473  109.33200073    4.90999985    2.76999998
   14.24250031  109.18199921    4.90999985    2.76999998
   14.24694443  109.18199921    4.90999985    2.75000000
   14.25111103  116.68399811    4.90999985    2.76999998
   14.25444412  119.84300232    4.90999985    2.76999998
   14.25749969  117.14199829    4.90999985    2.76999998
   14.26083374  116.49600220    4.90999985    2.76999998
   14.26416683  115.14199829    4.90999985    2.76999998
   14.26722240  124.37599945    4.90999985    2.76999998
   14.27055550  116.55699921    4.90999985    2.76999998
   14.27388859  118.83399963    4.90999985    2.78999996
   14.27694416  127.47699738    4.90999985    2.76999998
   14.28166676  127.47699738    4.90999985    2.76999998
   14.28555584  119.50000000    4.90999985    2.76999998
   14.28888893  120.22299957    4.90999985    2.76999998
   14.29222298  147.72399902    4.90999985    2.78999996
   14.29527855  117.54699707    4.90999985    2.76999998
   14.29861164  118.60800171    4.90999985    2.76999998
   14.30194473  117.28700256    4.90999985    2.76999998
   14.30500031  118.79599762    4.90999985    2.75000000
   14.30833340  114.67400360    4.90999985    2.75000000
   14.31138897  119.34700012    4.90999985    2.76999998
   14.31611156  119.34700012    4.90999985    2.76999998
   14.32027817  130.83900452    4.90999985    2.78999996
   14.32333374  117.59700012    4.90999985    2.76999998
   14.32666683  135.38499451    4.90999985    2.76999998
   14.32999992  124.47299957    4.90999985    2.75000000
   14.33305550  125.90599823    4.90999985    2.76999998
   14.33638859  135.44299316    4.90999985    2.76999998
   14.33944416  139.18600464    4.90999985    2.76999998
   14.34277725  118.06800079    4.90999985    2.76999998
   14.34611034  128.50100708    4.90999985    2.76999998
   14.35055637  128.50100708    4.90999985    2.76999998
   14.35472298  118.62699890    4.90999985    2.76999998
   14.35805607  118.86100006    4.90999985    2.78999996
   14.36111164  113.99800110    4.90999985    2.75000000
   14.36444473  123.87799835    4.90999985    2.75000000
   14.36750031  138.71400452    4.90999985    2.75000000
   14.37083340  123.71700287    4.90999985    2.76999998
   14.37416649  120.37000275    4.90999985    2.78999996
   14.37722206  124.68499756    4.90999985    2.78999996
   14.38055611  134.37399292    4.90999985    2.76999998
   14.38500023  134.37399292    4.90999985    2.76999998
   14.38916683  127.80699921    4.90999985    2.76999998
   14.39249992  123.17500305    4.90999985    2.76999998
   14.39555550  121.26699829    4.90999985    2.78999996
   14.39888859  122.03099823    4.90999985    2.78999996
   14.40222168  123.53700256    4.90999985    2.76999998
   14.40527725  125.09700012    4.90999985    2.76999998
   14.40861034  126.39299774    4.90999985    2.76999998
   14.41194439  125.38099670    4.90999985    2.76999998
   14.41499996  125.26000214    4.90999985    2.76999998
   14.41972256  125.26000214    4.90999985    2.78999996
   14.42361164  125.81999969    4.90999985    2.78999996
   14.42694473  121.16400146    4.90999985    2.75000000
   14.43027782  125.94599915    4.90999985    2.76999998
   14.43333340  127.12400055    4.90999985    2.78999996
   14.43666649  126.58200073    4.90999985    2.76999998
   14.43972206  112.57099915    4.90999985    2.76999998
   14.44305515  118.75800323    4.90999985    2.78999996
   14.44638920  116.50299835    4.90999985    2.78999996
   14.44944477  119.23799896    4.90999985    2.78999996
   14.45416641  119.23799896    4.90999985    2.76999998
   14.45833302  119.29499817    4.90999985    2.78999996
   14.46138859  105.55899811    4.90999985    2.76999998
   14.46472168  127.98600006    4.90999985    2.78999996
   14.46777725  125.76599884    4.90999985    2.78999996
   14.47111034  134.92999268    4.90999985    2.78999996
   14.47444439  125.35600281    4.90999985    2.78999996
   14.47749996  121.07700348    4.90999985    2.78999996
   14.48083305  126.18099976    4.90999985    2.78999996
   14.48416710  122.88600159    4.90999985    2.78999996
   14.48861122  122.88600159    4.90999985    2.78999996
   14.49277782  119.69799805    4.90999985    2.82999992
   14.49583340  125.44300079    4.90999985    2.80999994
   14.49916649  113.64199829    4.90999985    2.78999996
   14.50249958  128.25199890    4.90999985    2.78999996
   14.50555515  120.64399719    4.90999985    2.80999994
   14.50888920  115.95899963    4.90999985    2.78999996
   14.51222229  118.76000214    4.90999985    2.78999996
   14.51527786  115.47599792    4.90999985    2.76999998
   14.51861095  121.00800323    4.90999985    2.76999998
   14.52305508  121.00800323    4.90999985    2.76999998
   14.52722168  117.36399841    4.90999985    2.76999998
   14.53055573  110.85600281    4.90999985    2.78999996
   14.53361130  114.97899628    4.90999985    2.76999998
   14.53694534  116.34500122    4.90999985    2.78999996
   14.54027843  118.07599640    4.90999985    2.76999998
   14.54333401  123.98999786    4.90999985    2.78999996
   14.54666710  113.85800171    4.90999985    2.76999998
   14.54972267  119.08499908    4.90999985    2.78999996
   14.55305576  117.98100281    4.90999985    2.76999998
   14.55749989  117.98100281    4.90999985    2.78999996
   14.56166649  111.97699738    4.90999985    2.78999996
   14.56500053  114.51499939    4.90999985    2.76999998
   14.56833363  117.25399780    4.90999985    2.76999998
   14.57138920  121.41500092    4.90999985    2.76999998
   14.57472229  121.33399963    4.90999985    2.76999998
   14.57777786  104.16500092    4.90999985    2.78999996
   14.58111095  119.98400116    4.90999985    2.76999998
   14.58444405  114.25800323    4.90999985    2.80999994
   14.58749962  101.81099701    4.90999985    2.76999998
   14.59222221  101.81099701    4.90999985    2.78999996
   14.59611034  110.05200195    4.90999985    2.76999998
   14.59944439  114.78099823    4.90999985    2.78999996
   14.60277843  115.60399628    4.90999985    2.76999998
   14.60583401  115.15599823    4.90999985    2.78999996
   14.60916710  113.05400085    4.90999985    2.78999996
   14.61250019  107.80200195    4.90999985    2.78999996
   14.61555576  110.23699951    4.90999985    2.78999996
   14.61888885  106.81800079    4.90999985    2.76999998
   14.62194443  108.36499786    4.90999985    2.76999998
   14.62666702  108.36499786    4.90999985    2.78999996
   14.63083363  108.77600098    4.90999985    2.78999996
   14.63388920  110.27400208    4.90999985    2.78999996
   14.63722229  110.46700287    4.90999985    2.78999996
   14.64055538  110.36299896    4.90999985    2.78999996
   14.64361095  114.93099976    4.90999985    2.78999996
   14.64694405  112.62200165    4.90999985    2.80999994
   14.65027714  124.84100342    4.90999985    2.78999996
   14.65333271  107.82599640    4.90999985    2.80999994
   14.65666676  111.40000153    4.90999985    2.78999996
   14.66111088  111.40000153    4.90999985    2.80999994
   14.66527748  113.86199951    4.90999985    2.80999994
   14.66861153  110.09799957    4.90999985    2.80999994
   14.67166710  114.37100220    4.90999985    2.78999996
   14.67500019  107.91999817    4.90999985    2.80999994
   14.67805576  109.79000092    4.90999985    2.80999994
   14.68138885  108.86399841    4.90999985    2.80999994
   14.68472195  102.84100342    4.90999985    2.82999992
   14.68777752  107.15100098    4.90999985    2.80999994
   14.69111156  110.03700256    4.90999985    2.80999994
   14.69555569  110.03700256    4.90999985    2.80999994
   14.69972229  110.16699982    4.90999985    2.80999994
   14.70305538  110.27200317    4.90999985    2.80999994
   14.70611095  101.40299988    4.90999985    2.78999996
   14.70944405  106.72899628    4.90999985    2.78999996
   14.71277714  101.38500214    4.90999985    2.80999994
   14.71583271  110.43499756    4.90999985    2.80999994
   14.71916580  106.91999817    4.90999985    2.78999996
   14.72249985  114.81400299    4.90999985    2.80999994
   14.72555542  119.00099945    4.90999985    2.80999994
   14.73027706  119.00099945    4.90999985    2.78999996
   14.73416710  101.09899902    4.90999985    2.80999994
   14.73750019  111.30200195    4.90999985    2.80999994
   14.74083328  119.25800323    4.90999985    2.80999994
   14.74388885  111.89700317    4.90999985    2.78999996
   14.74722290  101.44100189    4.90999985    2.80999994
   14.75055599  117.54599762    4.90999985    2.80999994
   14.75361156  101.20200348    4.90999985    2.78999996
   14.75694466  116.76599884    4.90999985    2.78999996
   14.76000023  108.47899628    4.90999985    2.80999994
   14.76472187  108.47899628    4.90999985    2.80999994
   14.76888847  105.18299866    4.90999985    2.80999994
   14.77194405  128.07600403    4.90999985    2.80999994
   14.77527714  104.93299866    4.90999985    2.80999994
   14.77861118  118.08799744    4.90999985    2.80999994
   14.78166676  105.52600098    4.90999985    2.80999994
   14.78500080   99.40830231    4.90999985    2.80999994
   14.78805637  107.59899902    4.90999985    2.80999994
   14.79138947   98.87390137    4.90999985    2.82999992
   14.79472256  109.59500122    4.90999985    2.82999992
   14.79916668  109.59500122    4.90999985    2.80999994
   14.80333328  105.56099701    4.90999985    2.80999994
   14.80638885  109.84899902    4.90999985    2.82999992
   14.80972195  103.13500214    4.90999985    2.80999994
   14.81305599  100.41999817    4.86999989    2.80999994
   14.83388901  100.41999817    4.76000023    2.80999994
   14.83805561  118.40399933    4.80000019    2.80999994
   14.84111118  100.16999817    4.80999994    2.80999994
   14.84444427  105.76300049    4.82999992    2.82999992
   14.84777737  112.74500275    4.84999990    2.82999992
   14.85083389  108.09600067    4.86999989    2.80999994
   14.85416698  106.50199890    4.88999987    2.80999994
   14.85750008  111.43699646    4.88999987    2.82999992
   14.86055565  106.25000000    4.88999987    2.82999992
   14.86388969  118.62999725    4.82999992    2.82999992
   14.86833382  118.62999725    4.84999990    2.80999994
   14.87250042  106.96199799    4.86999989    2.80999994
   14.87555599  104.36199951    4.80999994    2.80999994
   14.87888908  107.39600372    4.71999979    2.82999992
   14.88222218  107.03500366    4.69999981    2.80999994
   14.88527775  110.12100220    4.55999994    2.80999994
   14.88861084   99.24870300    4.38999987    2.82999992
   14.89166641  105.99299622    4.21999979    2.82999992
   14.89499950   99.37879944    4.11999989    2.84999990
   14.89833355  101.89099884    4.05999994    2.84999990
   14.90277767  101.89099884    4.05999994    2.82999992
   14.90694427  108.20899963    4.13999987    2.82999992
   14.90999985  108.34799957    4.21999979    2.82999992
   14.91333294  102.94000244    4.26000023    2.82999992
   14.91666698  105.76799774    4.32999992    2.82999992
   14.91972256  112.70700073    4.51000023    2.82999992
   14.92305565  103.60800171    4.53999996    2.80999994
   14.92638874  105.20500183    4.51000023    2.82999992
   14.92944431  110.05000305    4.51000023    2.82999992
   14.93277836  111.42800140    4.46999979    2.82999992
   14.93722248  111.42800140    4.53000021    2.82999992
   14.94138908  100.12100220    4.32999992    2.82999992
   14.94472218  102.34899902    4.26999998    2.82999992
   14.94777775  107.89199829    4.26000023    2.82999992
   14.95111084  104.01399994    4.19999981    2.82999992
   14.95444393  102.52700043    4.26999998    2.82999992
   14.95749950  104.74900055    4.26000023    2.82999992
   14.96083355   95.89350128    4.17999983    2.84999990
   14.96388912   99.03029633    3.86999989    2.84999990
   14.96722221   96.65280151    3.76999998    2.84999990
   14.97166634   96.65280151    3.70000005    2.84999990
   14.97583294  114.37400055    3.55999994    2.84999990
   14.97916603  103.81900024    3.57999992    2.84999990
   14.98249912  110.76000214    3.61999989    2.84999990
   14.98555565  111.39600372    3.72000003    2.84999990
   14.98888874  129.47700500    3.75000000    2.84999990
   14.99194431  124.74900055    3.73000002    2.84999990
   14.99527836  118.83300018    3.78999996    2.84999990
   14.99861145  123.56500244    3.78999996    2.86999989
   15.00166702  136.63699341    3.80999994    2.84999990
   15.00638866  136.63699341    3.82999992    2.84999990
   15.01055527  132.64900208    3.86999989    2.84999990
   15.01361084  153.65299988    3.89000010    2.84999990
   15.01694393  153.99800110    3.95000005    2.82999992
   15.01999950  130.25000000    3.97000003    2.82999992
   15.02333355  161.13299561    3.91000009    2.84999990
   15.02666664  102.33499908    4.01999998    2.84999990
   15.02972221  182.71600342    4.11999989    2.82999992
   15.03305531  168.29600525    4.23999977    2.82999992
   15.03638935  169.54499817    4.28999996    2.82999992
   15.04083347  169.54499817    4.28999996    2.82999992
   15.04500008  147.91700745    4.32999992    2.82999992
   15.04805565  174.13900757    4.30999994    2.82999992
   15.05138874  175.08700562    4.28999996    2.82999992
   15.05472279  160.86700439    4.30999994    2.80999994
   15.05777836  145.63600159    4.28999996    2.80999994
   15.06111145  171.93899536    4.30999994    2.82999992
   15.06444454  171.52699280    4.32999992    2.82999992
   15.06750011  174.90299988    4.34999990    2.80999994
   15.07083321  183.08399963    4.34999990    2.82999992
   15.07527733  183.08399963    4.30999994    2.82999992
   15.07944393  257.63800049    4.09999990    2.84999990
   15.08277798  282.25399780    3.99000001    2.82999992
   15.08583260  344.03201294    3.91000009    2.84999990
   15.08805561  338.86898804    3.86999989    2.84999990
   15.08916664  367.02099609    3.84999990    2.84999990
   15.09055519  351.37899780    3.84999990    2.84999990
   15.09194374  367.33801270    3.82999992    2.84999990
   15.09333324  410.47601318    3.82999992    2.84999990
   15.09472179  383.48999023    3.80999994    2.82999992
   15.09611034  367.63198853    3.78999996    2.84999990
   15.09749985  334.92199707    3.76999998    2.82999992
   15.09888840  307.96099854    3.75000000    2.84999990
   15.10027790  335.28500366    3.72000003    2.84999990
   15.10166740  319.03500366    3.68000007    2.84999990
   15.10305595  304.00900269    3.66000009    2.84999990
   15.10444450  309.74600220    3.61999989    2.84999990
   15.10583401  286.68099976    3.57999992    2.84999990
   15.10722256  269.38500977    3.55999994    2.86999989
   15.10861111  264.02301025    3.51999998    2.84999990
   15.11000061  280.40600586    3.51999998    2.84999990
   15.11138916  276.32299805    3.50000000    2.86999989
   15.11277771  271.95700073    3.50000000    2.84999990
   15.11416721  279.11700439    3.51999998    2.84999990
   15.11555576  287.21099854    3.53999996    2.84999990
   15.11694431  251.27600098    3.51999998    2.86999989
   15.11833382  260.24600220    3.50000000    2.84999990
   15.11972237  257.58099365    3.45000005    2.84999990
   15.12111092  246.84199524    3.43000007    2.84999990
   15.12138939  257.63800049    4.09999990    2.84999990
   15.12138939  282.25399780    3.99000001    2.82999992
   15.12138939  344.03201294    3.91000009    2.84999990
   15.12166691  160.86700439    4.30999994    2.80999994
   15.12166691  145.63600159    4.28999996    2.80999994
   15.12166691  171.93899536    4.30999994    2.82999992
   15.12194443  171.52699280    4.32999992    2.82999992
   15.12194443  174.90299988    4.34999990    2.80999994
   15.12194443  183.08399963    4.34999990    2.82999992
   15.12250042  263.19900513    3.39000010    2.84999990
   15.12583351  246.35099792    3.36999989    2.84999990
   15.12916660  230.75100708    3.32999992    2.84999990
   15.13222218  249.46699524    3.30999994    2.84999990
   15.13555527  230.48899841    3.36999989    2.84999990
   15.14194393  230.48899841    3.48000002    2.84999990
   15.14611053  208.96200562    3.51999998    2.84999990
   15.14944458  223.43400574    3.55999994    2.84999990
   15.15249920  231.61500549    3.51999998    2.84999990
   15.15499973  205.61500549    3.48000002    2.84999990
   15.15638828  207.11700439    3.48000002    2.84999990
   15.15944386  220.84399414    3.48000002    2.84999990
   15.16277695  189.15400696    3.50000000    2.84999990
   15.16611099  169.45799255    3.46000004    2.84999990
   15.16916656  200.13600159    3.50000000    2.84999990
   15.17250061  233.65400696    3.53999996    2.84999990
   15.17666721  233.65400696    3.59999990    2.86999989
   15.18083382  227.20899963    3.72000003    2.84999990
   15.18388939  262.46301270    3.72000003    2.84999990
   15.18722248  266.94699097    3.73000002    2.84999990
   15.18833351  267.87100220    3.75000000    2.84999990
   15.19083309  290.77499390    3.80999994    2.84999990
   15.19416714  349.76501465    3.80999994    2.84999990
   15.19611073  346.48498535    3.84999990    2.84999990
   15.19722271  309.82501221    3.86999989    2.84999990
   15.19861126  342.21398926    3.84999990    2.84999990
   15.19999981  339.65301514    3.82999992    2.84999990
   15.20138836  327.79199219    3.78999996    2.84999990
   15.20277786  323.93499756    3.80999994    2.84999990
   15.20416641  311.42300415    3.82999992    2.84999990
   15.20555496  362.07000732    3.91000009    2.84999990
   15.20694447  346.80999756    3.91000009    2.84999990
   15.20833302  341.09600830    3.91000009    2.84999990
   15.20972157  361.19198608    3.91000009    2.86999989
   15.21111107  354.86700439    3.91000009    2.84999990
   15.21249962  369.13000488    3.89000010    2.84999990
   15.21388912  354.60299683    3.91000009    2.86999989
   15.21527767  366.85900879    3.89000010    2.84999990
   15.21666622  409.64801025    3.91000009    2.84999990
   15.21805477  386.02301025    3.91000009    2.84999990
   15.21944427  367.59698486    3.93000007    2.82999992
   15.22083282  391.92999268    3.91000009    2.84999990
   15.22222137  410.58801270    3.89000010    2.84999990
   15.22361088  371.00000000    3.89000010    2.84999990
   15.22499943  345.08999634    3.89000010    2.84999990
   15.22638798  400.83300781    3.86999989    2.84999990
   15.22777748  389.29199219    3.78999996    2.84999990
   15.22916603  410.31500244    3.76999998    2.86999989
   15.23055553  393.47799683    3.75000000    2.84999990
   15.23194408  397.89801025    3.75000000    2.84999990
   15.23333359  346.84799194    3.73000002    2.84999990
   15.23472214  414.69000244    3.70000005    2.84999990
   15.23611164  434.50399780    3.68000007    2.84999990
   15.23750019  407.34201050    3.68000007    2.84999990
   15.23888874  389.85598755    3.72000003    2.84999990
   15.24027824  397.56799316    3.75000000    2.84999990
   15.24166679  398.80700684    3.75000000    2.84999990
   15.24305534  403.08401489    3.75000000    2.84999990
   15.24444485  382.60699463    3.73000002    2.84999990
   15.24583340  387.12899780    3.73000002    2.84999990
   15.24722290  393.96200562    3.73000002    2.84999990
   15.24861145  406.95498657    3.75000000    2.86999989
   15.25000000  384.77301025    3.76999998    2.84999990
   15.25138855  426.97399902    3.76999998    2.84999990
   15.25277805  418.07501221    3.82999992    2.84999990
   15.25416660  353.37899780    3.84999990    2.84999990
   15.25555515  388.21600342    3.86999989    2.84999990
   15.25694466  385.44699097    3.86999989    2.86999989
   15.25833321  394.42401123    3.89000010    2.84999990
   15.25972176  386.29800415    3.89000010    2.84999990
   15.26111126  418.11099243    3.89000010    2.84999990
   15.26249981  414.49700928    3.86999989    2.84999990
   15.26388931  414.67999268    3.86999989    2.86999989
   15.26527786  369.97500610    3.86999989    2.84999990
   15.26666641  348.83099365    3.91000009    2.84999990
   15.26805496  389.76699829    3.91000009    2.84999990
   15.26944447  401.61999512    3.93000007    2.84999990
   15.27083302  388.75601196    3.93000007    2.86999989
   15.27222157  376.91400146    3.93000007    2.84999990
   15.27361107  376.89898682    3.93000007    2.84999990
   15.27499962  389.95700073    3.93000007    2.84999990
   15.27638817  376.19299316    3.91000009    2.84999990
   15.27777767  393.85800171    3.95000005    2.84999990
   15.27916622  347.70498657    3.93000007    2.84999990
   15.28055573  385.32800293    3.93000007    2.84999990
   15.28194427  410.21600342    3.95000005    2.84999990
   15.28333378  365.44299316    3.97000003    2.84999990
   15.28472233  369.76699829    3.99000001    2.84999990
   15.28611183  351.52700806    3.97000003    2.84999990
   15.28750038  332.81698608    3.97000003    2.84999990
   15.28888893  353.04098511    3.97000003    2.84999990
   15.29027843  325.61401367    3.95000005    2.84999990
   15.29166698  256.53399658    3.95000005    2.86999989
   15.29305553  329.01998901    3.95000005    2.84999990
   15.29444504  333.90899658    3.95000005    2.84999990
   15.29583359  320.17199707    3.93000007    2.84999990
   15.29722309  300.91400146    3.91000009    2.84999990
   15.29861164  340.69000244    3.91000009    2.86999989
   15.30000019  329.32901001    3.93000007    2.84999990
   15.30138874  321.61199951    3.93000007    2.84999990
   15.30277824  334.35198975    3.91000009    2.84999990
   15.30416679  332.62399292    3.89000010    2.86999989
   15.30555534  334.10900879    3.80999994    2.84999990
   15.30694485  362.60000610    3.78999996    2.82999992
   15.30833340  327.67700195    3.78999996    2.84999990
   15.30972195  314.89599609    3.80999994    2.84999990
   15.31111145  333.00900269    3.78999996    2.84999990
   15.31250000  321.28500366    3.76999998    2.86999989
   15.31388950  295.43200684    3.72000003    2.86999989
   15.31527805  289.45498657    3.68000007    2.84999990
   15.31666660  355.69900513    3.66000009    2.84999990
   15.31805515  334.14401245    3.61999989    2.86999989
   15.31944466  336.94198608    3.59999990    2.86999989
   15.32083321  294.63900757    3.57999992    2.86999989
   15.32222176  343.63198853    3.57999992    2.86999989
   15.32361126  284.86401367    3.55999994    2.84999990
   15.32499981  286.72198486    3.53999996    2.86999989
   15.32638836  335.56100464    3.50000000    2.86999989
   15.32777786  305.75000000    3.46000004    2.86999989
   15.32944393  297.52301025    3.41000009    2.86999989
   15.33055592  329.62799072    3.39000010    2.86999989
   15.33194447  363.79299927    3.36999989    2.86999989
   15.33333302  351.91500854    3.39000010    2.86999989
   15.33472157  333.91900635    3.39000010    2.86999989
   15.33611107  394.32101440    3.43000007    2.86999989
   15.33749962  330.69400024    3.45000005    2.86999989
   15.33888817  350.71200562    3.50000000    2.86999989
   15.34027767  348.05398560    3.50000000    2.86999989
   15.34166622  316.13000488    3.51999998    2.86999989
   15.34305477  306.48599243    3.53999996    2.86999989
   15.34444427  313.33099365    3.53999996    2.86999989
   15.34583282  281.05899048    3.55999994    2.84999990
   15.34722233  324.58700562    3.57999992    2.84999990
   15.34861088  257.96600342    3.59999990    2.86999989
   15.35000038  282.74798584    3.59999990    2.86999989
   15.35138893  300.28399658    3.59999990    2.86999989
   15.35277843  279.32000732    3.64000010    2.86999989
   15.35416698  285.97399902    3.66000009    2.84999990
   15.35555553  320.04699707    3.68000007    2.86999989
   15.35694504  321.56399536    3.73000002    2.86999989
   15.35833359  319.24899292    3.75000000    2.84999990
   15.35972214  301.33898926    3.76999998    2.86999989
   15.36111164  269.12200928    3.75000000    2.86999989
   15.36250019  309.33300781    3.75000000    2.84999990
   15.36388969  304.22698975    3.70000005    2.84999990
   15.36527824  289.73999023    3.68000007    2.84999990
   15.36666679  294.70901489    3.64000010    2.84999990
   15.36805534  241.44200134    3.61999989    2.84999990
   15.36833382  349.76501465    3.80999994    2.84999990
   15.36833382  189.15400696    3.50000000    2.84999990
   15.36861134  169.45799255    3.46000004    2.84999990
   15.36861134  200.13600159    3.50000000    2.84999990
   15.36861134  233.65400696    3.53999996    2.84999990
   15.36888885  227.20899963    3.72000003    2.84999990
   15.36888885  262.46301270    3.72000003    2.84999990
   15.36888885  266.94699097    3.73000002    2.84999990
   15.36916637  290.77499390    3.80999994    2.84999990
   15.36972237  330.95800781    3.59999990    2.86999989
   15.37166691  267.31500244    3.59999990    2.84999990
   15.37305546  299.45098877    3.59999990    2.84999990
   15.37444496  264.27398682    3.59999990    2.84999990
   15.37583351  300.89401245    3.57999992    2.84999990
   15.37722206  321.93499756    3.53999996    2.86999989
   15.37861156  294.12100220    3.50000000    2.86999989
   15.38000011  302.85000610    3.45000005    2.86999989
   15.38138866  275.63900757    3.43000007    2.84999990
   15.38277817  241.35400391    3.45000005    2.84999990
   15.38277817  330.95800781    3.59999990    2.86999989
   15.38333321  312.68200684    3.46000004    2.84999990
   15.38527775  278.92199707    3.50000000    2.86999989
   15.38666630  265.93399048    3.51999998    2.86999989
   15.38805580  245.22200012    3.55999994    2.86999989
   15.38805580  312.68200684    3.46000004    2.84999990
   15.38861084  300.79199219    3.55999994    2.86999989
   15.39083290  297.72698975    3.55999994    2.86999989
   15.39194393  265.72698975    3.53999996    2.86999989
   15.39333344  299.28698730    3.51999998    2.84999990
   15.39472198  279.26199341    3.50000000    2.86999989
   15.39611053  248.58599854    3.48000002    2.84999990
   15.39638901  300.79199219    3.55999994    2.86999989
   15.39694405  281.47698975    3.48000002    2.86999989
   15.39999962  256.43701172    3.48000002    2.86999989
   15.40333271  203.69000244    3.46000004    2.84999990
   15.40666676  234.17900085    3.53999996    2.86999989
   15.40972137  254.73100281    3.73000002    2.84999990
   15.41305542  228.05999756    3.89000010    2.84999990
   15.41722298  228.05999756    3.93000007    2.82999992
   15.42138958  198.63200378    3.76999998    2.84999990
   15.42444515  230.21899414    3.76999998    2.86999989
   15.42777824  222.92999268    3.91000009    2.84999990
   15.43000031  261.44699097    3.95000005    2.84999990
   15.43138885  248.04800415    3.93000007    2.84999990
   15.43472195  229.34500122    3.86999989    2.84999990
   15.43777752  253.66400146    3.91000009    2.84999990
   15.44111156  232.88000488    3.89000010    2.84999990
   15.44416714  205.28799438    3.84999990    2.84999990
   15.44750023  217.47300720    3.80999994    2.86999989
   15.45166683  217.47300720    4.03999996    2.84999990
   15.45583344  212.75300598    4.11999989    2.84999990
   15.45916653  246.93699646    4.13999987    2.84999990
   15.46222210  208.72700500    4.21999979    2.84999990
   15.46361065  224.96499634    4.21999979    2.82999992
   15.46583271  178.53599548    4.28999996    2.84999990
   15.46916580  210.08200073    4.21999979    2.84999990
   15.47222137  215.91999817    4.19999981    2.84999990
   15.47555542  196.89300537    4.01999998    2.84999990
   15.47888851  225.01300049    3.91000009    2.84999990
   15.48194408  196.19999695    3.91000009    2.84999990
   15.48611164  196.19999695    4.07999992    2.84999990
   15.49027824  203.12699890    4.26999998    2.82999992
   15.49361134  205.55499268    4.44999981    2.82999992
   15.49694443  188.57200623    4.48999977    2.82999992
   15.49722290  202.67999268    4.48999977    2.82999992
   15.50055599  210.23199463    4.51000023    2.82999992
   15.50361156  177.71200562    4.48999977    2.84999990
   15.50694466  175.29299927    4.44999981    2.84999990
   15.51027775  177.08900452    4.36999989    2.82999992
   15.51333332  185.18499756    4.23999977    2.84999990
   15.51666641  195.36099243    4.15999985    2.84999990
   15.52083302  195.36099243    4.15999985    2.84999990
   15.52499962  177.87399292    4.05999994    2.84999990
   15.64916611   -1.00000000   -1.00000000   -1.00000000
   15.84111118   -1.00000000   -1.00000000   -1.00000000
   15.95749950   -1.00000000   -1.00000000   -1.00000000
   16.02222252  122.83399963    4.67999983    2.84999990
   16.02555466   92.34999847    4.76000023    2.84999990
   16.02861023  140.52600098    4.82999992    2.84999990
   16.03194427  127.65899658    4.80000019    2.86999989
   16.03527641  127.92700195    4.73999977    2.84999990
   16.03833199  128.07299805    4.65999985    2.84999990
   16.04249954  128.07299805    4.51000023    2.84999990
   16.04666710  119.49600220    4.38999987    2.84999990
   16.04999924  120.58499908    4.46999979    2.84999990
   16.05305481  120.29900360    4.55999994    2.84999990
   16.05555534  116.26599884    4.53999996    2.84999990
   16.05694389  125.81400299    4.53999996    2.84999990
   16.05999947  126.07299805    4.44999981    2.84999990
   16.06333351  117.63600159    4.34999990    2.84999990
   16.06666756  127.82900238    4.55999994    2.84999990
   16.06972313  104.60099792    4.65999985    2.84999990
   16.07305717  106.36799622    4.65999985    2.84999990
   16.07722282  106.36799622    4.59999990    2.84999990
   16.08139038  121.68299866    4.55999994    2.82999992
   16.08444595  120.07800293    4.51000023    2.84999990
   16.08777809  128.12600708    4.46999979    2.84999990
   16.08889008  118.59799957    4.46999979    2.84999990
   16.09138870  126.21299744    4.44999981    2.84999990
   16.09444427  112.13999939    4.44999981    2.82999992
   16.09777832  111.04299927    4.40999985    2.82999992
   16.10111237  117.96099854    4.32999992    2.84999990
   16.10416794  120.98200226    4.28999996    2.84999990
   16.10750008  113.55300140    4.26000023    2.86999989
   16.11166763  113.55300140    4.38999987    2.84999990
   16.11583328  117.81199646    4.61999989    2.84999990
   16.11888885  124.82800293    4.67999983    2.84999990
   16.12222290  122.67299652    4.76000023    2.84999990
   16.12277794  120.88200378    4.76000023    2.84999990
   16.12583351  130.64999390    4.76000023    2.84999990
   16.12916756  131.86900330    4.67999983    2.84999990
   16.13249969  148.41499329    4.59999990    2.84999990
   16.13555527  167.44099426    4.57999992    2.84999990
   16.13888931  150.21400452    4.55999994    2.86999989
   16.14222145  155.74099731    4.40999985    2.86999989
   16.14611053  155.74099731    4.30999994    2.84999990
   16.15027809  149.38900757    4.19999981    2.84999990
   16.15361023  141.68099976    4.21999979    2.84999990
   16.15555573  142.50900269    4.19999981    2.84999990
   16.15722275  136.92900085    4.19999981    2.84999990
   16.16055489  128.50999451    4.17999983    2.86999989
   16.16361046  138.56500244    4.13999987    2.84999990
   16.16694450  136.66099548    4.11999989    2.84999990
   16.17000008  138.89100647    4.11999989    2.84999990
   16.17333221  124.36599731    4.09999990    2.84999990
   16.17666626  126.78800201    4.09999990    2.86999989
   16.18083191  126.78800201    4.17999983    2.86999989
   16.18499947  122.75399780    4.34999990    2.84999990
   16.18805504  123.13899994    4.32999992    2.84999990
   16.18888855  122.42800140    4.28999996    2.84999990
   16.19166565  125.90499878    4.26000023    2.84999990
   16.19499969  115.35099792    4.19999981    2.84999990
   16.19805527  134.69799805    4.17999983    2.86999989
   16.20138931  126.64600372    4.13999987    2.86999989
   16.20444489  119.78500366    4.13999987    2.84999990
   16.20777893  130.07000732    4.21999979    2.86999989
   16.21111107  119.01499939    4.26000023    2.84999990
   16.21527863  119.01499939    4.26000023    2.86999989
   16.21944427  113.19400024    4.26000023    2.84999990
   16.22222328  110.71600342    4.28999996    2.86999989
   16.22305679  105.60900116    4.28999996    2.86999989
   16.22638893  109.48699951    4.28999996    2.86999989
   16.22944450  119.11000061    4.28999996    2.86999989
   16.23277855  103.71199799    4.32999992    2.86999989
   16.23583412  114.14700317    4.42999983    2.86999989
   16.23916626  118.69200134    4.53000021    2.84999990
   16.24250031  118.93399811    4.59999990    2.84999990
   16.24555588  110.29900360    4.59999990    2.84999990
   16.24972153  110.29900360    4.55999994    2.86999989
   16.25388908  112.00399780    4.53999996    2.86999989
   16.25555611  119.03099823    4.55999994    2.84999990
   16.25749969  121.91300201    4.55999994    2.84999990
   16.26083374  113.23500061    4.57999992    2.86999989
   16.26388931  116.01100159    4.59999990    2.84999990
   16.26722145  116.72599792    4.55999994    2.84999990
   16.27027702  119.07700348    4.53999996    2.84999990
   16.27361107  123.16699982    4.53000021    2.84999990
   16.27694511  126.16200256    4.48999977    2.84999990
   16.28000069  112.46600342    4.46999979    2.84999990
   16.28416634  112.46600342    4.42999983    2.86999989
   16.28833199  111.66699982    4.36999989    2.86999989
   16.28888893  109.83100128    4.36999989    2.86999989
   16.29194450  116.83599854    4.28999996    2.84999990
   16.29527664  111.97599792    4.26000023    2.84999990
   16.29833221  114.22200012    4.15999985    2.86999989
   16.30166626  109.33100128    4.03999996    2.86999989
   16.30472183  112.01599884    3.99000001    2.84999990
   16.30805397  102.31500244    4.03999996    2.84999990
   16.31138802  106.79399872    4.26999998    2.84999990
   16.31444359   94.62709808    4.34999990    2.84999990
   16.31888962   94.62709808    4.42999983    2.86999989
   16.32305717  107.85500336    4.46999979    2.84999990
   16.32611275  110.83000183    4.51000023    2.84999990
   16.32944489   91.20970154    4.53000021    2.84999990
   16.33250046  102.63800049    4.53999996    2.82999992
   16.33583450  110.01499939    4.48999977    2.86999989
   16.33916664  106.13800049    4.48999977    2.84999990
   16.34222221  110.91699982    4.51000023    2.84999990
   16.34555626  111.56999969    4.53999996    2.84999990
   16.34861183  124.41999817    4.59999990    2.84999990
   16.35333443  124.41999817    4.55999994    2.86999989
   16.35750008  118.60500336    4.55999994    2.86999989
   16.36055565  122.01999664    4.61999989    2.84999990
   16.36388969  105.45999908    4.69999981    2.84999990
   16.36694527  110.45500183    4.73999977    2.84999990
   16.37027740   96.96859741    4.82999992    2.84999990
   16.37361145  101.98400116    4.84999990    2.82999992
   16.37666702  106.27300262    4.80999994    2.82999992
   16.38000107  108.15599823    4.67999983    2.84999990
   16.38333321   97.66419983    4.53999996    2.84999990
   16.38777733   97.66419983    4.44999981    2.84999990
   16.39194489  108.91100311    4.36999989    2.86999989
   16.39500046  114.73400116    4.32999992    2.84999990
   16.39833260  116.24400330    4.32999992    2.84999990
   16.40166664   96.28410339    4.30999994    2.84999990
   16.40472221  115.39499664    4.26000023    2.84999990
   16.40805435  119.20700073    4.21999979    2.86999989
   16.41138840  124.11799622    4.15999985    2.84999990
   16.41444397  108.22000122    4.11999989    2.84999990
   16.41777802  101.49900055    4.07999992    2.84999990
   16.42222214  101.49900055    4.09999990    2.86999989
   16.42638779  129.08099365    4.13999987    2.86999989
   16.42972183  102.53700256    4.05999994    2.86999989
   16.43277740   98.25360107    4.05999994    2.86999989
   16.43610954  102.21700287    4.19999981    2.84999990
   16.43944359  118.02400208    4.30999994    2.86999989
   16.44249916  115.33799744    4.51000023    2.86999989
   16.44583321  118.74199677    4.55999994    2.84999990
   16.44916534  119.23799896    4.55999994    2.86999989
   16.45222282   85.74230194    4.46999979    2.84999990
   16.45666695   85.74230194    4.34999990    2.84999990
   16.46083450   94.47689819    4.15999985    2.86999989
   16.46416664  100.98100281    3.89000010    2.86999989
   16.46750069  115.70700073    3.91000009    2.86999989
   16.47055626  108.34100342    3.99000001    2.84999990
   16.47389030   94.87319946    4.15999985    2.84999990
   16.47694588  109.33100128    4.30999994    2.84999990
   16.48027802  103.74199677    4.48999977    2.84999990
   16.48361206  109.39199829    4.53000021    2.84999990
   16.48666763  103.80799866    4.57999992    2.86999989
   16.49138832  103.80799866    4.53000021    2.86999989
   16.49555588  114.04199982    4.53000021    2.84999990
   16.49861145  100.56900024    4.42999983    2.84999990
   16.50194359  102.44699860    4.40999985    2.86999989
   16.50527763  114.76899719    4.34999990    2.84999990
   16.50833321  100.27600098    4.26000023    2.84999990
   16.51166725  105.11399841    4.11999989    2.86999989
   16.51472282  113.13700104    4.01999998    2.86999989
   16.51805496  105.23400116    3.95000005    2.86999989
   16.52138901  108.13400269    3.89000010    2.86999989
   16.52583313  108.13400269    3.80999994    2.89000010
   16.53000069  107.28099823    3.72000003    2.84999990
   16.53333282  113.42600250    3.61999989    2.86999989
   16.53638840   95.96749878    3.55999994    2.86999989
   16.53972244  103.31900024    3.53999996    2.89000010
   16.54277802   96.76480103    3.55999994    2.86999989
   16.54611015   99.17279816    3.55999994    2.86999989
   16.54944420  107.33699799    3.48000002    2.86999989
   16.55249977  110.34100342    3.36999989    2.89000010
   16.55583191  108.71399689    3.30999994    2.86999989
   16.56027794  108.71399689    3.34999990    2.86999989
   16.56444359  103.99099731    3.32999992    2.86999989
   16.56777954  112.72799683    3.34999990    2.89000010
   16.57083511  107.93099976    3.45000005    2.89000010
   16.57416725  113.20899963    3.48000002    2.89000010
   16.57750130  112.26699829    3.39000010    2.89000010
   16.58055687   96.79589844    3.28999996    2.89000010
   16.58388901  110.11799622    3.18000007    2.89000010
   16.58694458  126.59400177    3.16000009    2.86999989
   16.59027863  111.54699707    3.11999989    2.89000010
   16.59472275  111.54699707    3.03999996    2.89000010
   16.59889030  113.42400360    3.05999994    2.89000010
   16.60222244  113.22000122    3.03999996    2.89000010
   16.60527802  111.53299713    3.00000000    2.89000010
   16.60861206  114.97799683    3.01999998    2.89000010
   16.61194420  119.79499817    3.03999996    2.89000010
   16.61499977  116.14399719    3.03999996    2.89000010
   16.61833382  109.75900269    3.05999994    2.86999989
   16.62166595  114.45999908    3.07999992    2.89000010
   16.62472153  119.82099915    3.07999992    2.89000010
   16.62944412  119.82099915    3.03999996    2.89000010
   16.63333321  116.16400146    2.98000002    2.86999989
   16.63666725  120.96399689    2.98000002    2.89000010
   16.63999939  111.53399658    2.94000006    2.89000010
   16.64305496  124.25199890    2.93000007    2.91000009
   16.64638901  131.41200256    2.86999989    2.91000009
   16.64972115  138.83999634    2.82999992    2.89000010
   16.65277672  145.52600098    2.86999989    2.89000010
   16.65611076  135.76300049    2.93000007    2.89000010
   16.65916634  133.07299805    3.05999994    2.86999989
   16.66388893  133.07299805    3.03999996    2.89000010
   16.66805458  111.28600311    3.00000000    2.86999989
   16.67111015  140.67399597    3.01999998    2.89000010
   16.67444420  125.63700104    2.98000002    2.89000010
   16.67777634  151.52799988    2.93000007    2.91000009
   16.68083191  136.72300720    2.80999994    2.91000009
   16.68416595  126.59999847    2.75000000    2.89000010
   16.68722153  120.92700195    2.75000000    2.91000009
   16.69055557  115.73400116    2.82999992    2.91000009
   16.69388771  138.41299438    2.98000002    2.89000010
   16.69833183  138.41299438    3.20000005    2.89000010
   16.70250130  119.69499969    3.21000004    2.89000010
   16.70555687  129.17399597    3.09999990    2.89000010
   16.70888901  140.38800049    3.03999996    2.91000009
   16.71222305  151.75000000    3.03999996    2.91000009
   16.71527863  133.85800171    3.01999998    2.89000010
   16.71861076  151.77900696    3.16000009    2.89000010
   16.72194481  153.81900024    3.41000009    2.86999989
   16.72500038  104.97299957    3.36999989    2.89000010
   16.72833443  142.20799255    3.32999992    2.89000010
   16.73277855  142.20799255    3.34999990    2.89000010
   16.73694420  129.00000000    3.34999990    2.86999989
   16.74027824  111.96399689    3.36999989    2.89000010
   16.74333382  115.08699799    3.36999989    2.89000010
   16.74666786  105.26899719    3.36999989    2.89000010
   16.75000000  125.32399750    3.36999989    2.89000010
   16.75305557  123.87200165    3.48000002    2.86999989
   16.75638962  116.21199799    3.51999998    2.86999989
   16.75944519   99.82980347    3.50000000    2.86999989
   16.76277733  115.39800262    3.46000004    2.86999989
   16.76749992  115.39800262    3.45000005    2.86999989
   16.77138901  131.81900024    3.34999990    2.86999989
   16.77472115  120.78700256    3.30999994    2.89000010
   16.77805519  154.73800659    3.53999996    2.89000010
   16.78111076  143.33000183    3.78999996    2.84999990
   16.78444481  148.36999512    3.89000010    2.86999989
   16.78777695  142.38699341    3.91000009    2.86999989
   16.79083252  143.44599915    3.97000003    2.86999989
   16.79416656  141.99699402    3.95000005    2.86999989
   16.79722214  122.34300232    3.91000009    2.86999989
   16.80194283  122.34300232    3.76999998    2.86999989
   16.80611038  124.68299866    3.70000005    2.86999989
   16.80916595  129.54800415    3.61999989    2.86999989
   16.81250000  129.15600586    3.48000002    2.89000010
   16.81555557  129.02400208    3.30999994    2.89000010
   16.81888962  126.53500366    3.03999996    2.89000010
   16.82222366  116.22699738    2.94000006    2.89000010
   16.82527924  133.97300720    2.96000004    2.91000009
   16.82861137  122.15200043    2.96000004    2.89000010
   16.83194542  130.28500366    3.00000000    2.89000010
   16.83638954  130.28500366    3.00000000    2.89000010
   16.84055710  135.77499390    2.89000010    2.89000010
   16.84361267  132.21699524    2.84999990    2.89000010
   16.84694481  140.98599243    2.86999989    2.89000010
   16.85027885  113.26100159    2.89000010    2.89000010
   16.85333443  127.31900024    2.94000006    2.89000010
   16.85666656  108.18099976    3.03999996    2.91000009
   16.86000061  120.44799805    3.18000007    2.89000010
   16.86305618  123.26300049    3.43000007    2.89000010
   16.86638832  141.91400146    3.68000007    2.86999989
   16.87083435  141.91400146    3.91000009    2.86999989
   16.87500000  118.40499878    3.91000009    2.86999989
   16.87833405  128.00100708    3.93000007    2.86999989
   16.88138962  128.33200073    3.86999989    2.86999989
   16.88472176  127.68099976    3.78999996    2.86999989
   16.88805580  107.59400177    3.70000005    2.86999989
   16.89111137  115.78700256    3.61999989    2.86999989
   16.89444351  120.95700073    3.53999996    2.86999989
   16.89749908   98.28160095    3.43000007    2.86999989
   16.90083313  117.19000244    3.39000010    2.89000010
   16.90527725  117.19000244    3.50000000    2.86999989
   16.90944481  127.28700256    3.59999990    2.86999989
   16.91277695  119.11900330    3.66000009    2.86999989
   16.91611099  129.50000000    3.68000007    2.86999989
   16.91916656  126.23300171    3.72000003    2.86999989
   16.92249870  108.80599976    3.70000005    2.86999989
   16.92555428  115.01300049    3.66000009    2.86999989
   16.92888832  120.05400085    3.57999992    2.86999989
   16.93222237  115.38400269    3.48000002    2.86999989
   16.93527603  119.49900055    3.39000010    2.89000010
   16.93999863  119.49900055    3.28999996    2.89000010
   16.94416618  129.96699524    3.28999996    2.89000010
   16.94722176  122.17400360    3.30999994    2.89000010
   16.95055580  124.14099884    3.39000010    2.89000010
   16.95361137  127.84300232    3.39000010    2.86999989
   16.95722389  117.50599670    3.34999990    2.89000010
   16.96027946  123.42700195    3.41000009    2.89000010
   16.96361160  124.06099701    3.50000000    2.89000010
   16.96666718  118.29000092    3.55999994    2.89000010
   16.97000122  119.90399933    3.55999994    2.86999989
   16.97444534  119.90399933    3.55999994    2.89000010
   16.97861099  129.83700562    3.59999990    2.89000010
   16.98166656  131.79800415    3.61999989    2.89000010
   16.98500061  133.39799500    3.64000010    2.89000010
   16.98833275  123.48200226    3.59999990    2.86999989
   16.99138832  127.68499756    3.61999989    2.89000010
   16.99472237  127.75599670    3.66000009    2.86999989
   16.99805641  132.73399353    3.70000005    2.89000010
   17.00111198  119.81400299    3.72000003    2.89000010
   17.00444412  119.02400208    3.73000002    2.89000010
   17.00888824  119.02400208    3.86999989    2.89000010
   17.01305580  132.59399414    3.95000005    2.89000010
   17.01638794  124.20999908    3.95000005    2.86999989
   17.01944351  109.02899933    3.97000003    2.86999989
   17.02277756  118.69799805    4.00000000    2.86999989
   17.04361153  118.69799805    3.91000009    2.86999989
   17.04777718  111.69300079    3.91000009    2.86999989
   17.05111122  117.18499756    3.84999990    2.86999989
   17.05416679  125.20200348    3.78999996    2.89000010
   17.05749893  108.28600311    3.75000000    2.86999989
   17.06083298  124.51300049    3.72000003    2.89000010
   17.06388855   99.69259644    3.78999996    2.89000010
   17.06722260   87.41539764    3.97000003    2.89000010
   17.07027817  106.71399689    4.17999983    2.89000010
   17.07361221  124.81300354    4.44999981    2.89000010
   17.07805634  124.81300354    4.90999985    2.91000009
   17.08222389  109.12500000    4.90999985    2.91000009
   17.08527756  113.63899994    4.90999985    2.91000009
   17.08861160  109.02100372    4.90999985    2.91000009
   17.09194565  119.81600189    4.90999985    2.91000009
   17.09500122  110.70600128    4.90999985    2.91000009
   17.09833336  101.18299866    4.90999985    2.93000007
   17.10166740  108.39600372    4.90999985    2.91000009
   17.10472298   98.98159790    4.90999985    2.91000009
   17.10805511  101.18199921    4.90999985    2.91000009
   17.11250114  101.18199921    4.90999985    2.91000009
   17.11666679   92.32219696    4.90999985    2.91000009
   17.12000084  100.81700134    4.90999985    2.93000007
   17.12305641   98.83599854    4.90999985    2.91000009
   17.12638855  113.85099792    4.90999985    2.91000009
   17.12944412  104.17400360    4.90999985    2.93000007
   17.13277817  100.19400024    4.90999985    2.93000007
   17.13611031  105.16000366    4.90999985    2.93000007
   17.13916588   98.27480316    4.90999985    2.93000007
   17.14249992   96.52780151    4.90999985    2.94000006
   17.14694405   96.52780151    4.90999985    2.96000004
   17.15111160  101.80300140    4.90999985    2.96000004
   17.15444374  104.15200043    4.90999985    2.98000002
   17.15777779   87.12380219    4.90999985    2.98000002
   17.16083336  106.08100128    4.90999985    2.98000002
   17.16416550  114.86599731    4.90999985    2.98000002
   17.16749954  115.00499725    4.90999985    2.98000002
   17.17055511  101.06600189    4.90999985    2.98000002
   17.17388916  117.46399689    4.90999985    2.98000002
   17.17694473  118.04100037    4.90999985    2.96000004
   17.18166542  118.04100037    4.90999985    2.96000004
   17.18583298  116.11100006    4.90999985    2.94000006
   17.18888855  127.13600159    4.90999985    2.93000007
   17.19222069  109.79699707    4.90999985    2.93000007
   17.19527626   92.09970093    4.90999985    2.91000009
   17.19861031  111.86399841    4.90999985    2.91000009
   17.20194435  108.48799896    4.90999985    2.89000010
   17.20499992   98.90519714    4.90999985    2.89000010
   17.20833397  110.50199890    4.90999985    2.89000010
   17.21138954  112.56199646    4.90999985    2.91000009
   17.21611214  112.56199646    4.90999985    2.91000009
   17.22027779  106.94599915    4.90999985    2.93000007
   17.22333336  106.93000031    4.90999985    2.94000006
   17.22666740   92.77999878    4.90999985    2.94000006
   17.23000145   95.12650299    4.90999985    2.96000004
   17.23305511  102.29900360    4.90999985    2.98000002
   17.23638916  103.58200073    4.90999985    2.98000002
   17.23972321  101.81700134    4.90999985    2.98000002
   17.24277878  118.22100067    4.90999985    2.98000002
   17.24611092  110.00299835    4.90999985    3.00000000
   17.25055504  110.00299835    4.90999985    2.98000002
   17.25472260  160.06799316    4.90999985    3.00000000
   17.25805473  154.74600220    4.90999985    2.98000002
   17.26111031  149.07099915    4.90999985    2.98000002
   17.26444435  153.41499329    4.86999989    2.98000002
   17.26749992  164.19299316    4.11999989    2.98000002
   17.27083397  172.82800293    3.59999990    2.98000002
   17.27416611  173.15899658    3.18000007    2.98000002
   17.27722168  167.31100464    2.89000010    2.98000002
   17.28055573  147.28100586    2.64000010    2.98000002
   17.28499985  147.28100586    2.48000002    2.98000002
   17.28916550  137.92399597    2.40000010    2.98000002
   17.29249954  163.11599731    2.36999989    2.96000004
   17.29555511  149.01899719    2.30999994    2.96000004
   17.29888916  141.19799805    2.28999996    2.96000004
   17.30222130  123.78900146    2.25000000    2.98000002
   17.30527687  153.43600464    2.21000004    2.94000006
   17.30861092  116.75399780    2.17000008    2.94000006
   17.31194305  129.61099243    2.13000011    2.93000007
   17.31499863  137.71699524    2.09999990    2.91000009
   17.31972313  137.71699524    2.03999996    2.82999992
   17.32361221  122.91100311    1.88000000    2.61999989
   17.32694626  114.48899841    1.86000001    2.55999994
   17.33027840  141.65400696    1.80999994    2.34999990
   17.33333397  121.39299774    1.78999996    2.26999998
   17.33666801  132.19299316    1.76999998    2.21000004
   17.33972359  102.60399628    1.73000002    2.13000011
   17.34305573  121.61000061    1.60000002    1.75000000
   17.34638977  126.05799866    1.58000004    1.61000001
   17.34944534  145.76800537    1.48000002    1.36000001
   17.35416794  145.76800537    1.41999996    1.14999998
   17.35833359  102.65499878    1.38000000    1.05999994
   17.36138916  127.83300018    1.30999994    0.86000001
   17.36472321  114.10099792    1.28999996    0.83999997
   17.36777878  112.72699738    1.14999998    0.73000002
   17.37111092  100.21600342    1.09000003    0.70999998
   17.37444496  110.38999939    1.03999996    0.69000000
   17.37750053  121.50700378    1.00000000    0.70999998
   17.38083267  117.92500305    0.94000000    0.73000002
   17.38416672  106.40799713    0.89999998    0.76999998
   17.38861084  106.40799713    0.88000000    0.80000001
   17.39277840  135.28199768    0.86000001    0.81999999
   17.39583397  122.34700012    0.86000001    0.83999997
   17.39916611  118.43000031    0.86000001    0.83999997
   17.40250015  114.20700073    0.86000001    0.86000001
   17.40555573  151.65800476    0.86000001    0.86000001
   17.40888786  136.90100098    0.83999997    0.86000001
   17.41222191  123.30899811    0.83999997    0.86000001
   17.41527748  145.84300232    0.81999999    0.86000001
   17.41860962  126.57499695    0.81999999    0.86000001
   17.42305565  126.57499695    0.83999997    0.83999997
   17.42722130  127.29900360    0.81999999    0.83999997
   17.43055534  132.40600586    0.81999999    0.81999999
   17.43361092  109.55300140    0.80000001    0.81999999
   17.43694305  108.29100037    0.81999999    0.81999999
   17.44027710  106.94999695    0.81999999    0.81999999
   17.44333267   99.65840149    0.81999999    0.80000001
   17.44666672  126.36199951    0.81999999    0.80000001
   17.44972038  129.87899780    0.86000001    0.80000001
   17.45305634  123.96099854    0.88000000    0.80000001
   17.45750046  123.96099854    0.89999998    0.80000001
   17.46166801  112.18000031    0.92000002    0.79000002
   17.46500015  111.95500183    0.89999998    0.79000002
   17.46833420  121.08899689    0.88000000    0.79000002
   17.47138977  103.61100006    0.88000000    0.79000002
   17.47472191  100.83399963    0.88000000    0.76999998
   17.47805595  115.97100067    0.83999997    0.76999998
   17.48111153  100.10299683    0.81999999    0.79000002
   17.48444557  101.91200256    0.81999999    0.76999998
   17.48750114  119.14600372    0.81999999    0.76999998
   17.49222183  119.14600372    0.80000001    0.75000000
   17.49638939  100.88999939    0.80000001    0.75000000
   17.49944496  121.94999695    0.80000001    0.73000002
   17.50277710  108.71299744    0.79000002    0.73000002
   17.50583267  110.79499817    0.79000002    0.70999998
   17.50916672  117.42900085    0.76999998    0.70999998
   17.51250076  112.50499725    0.76999998    0.70999998
   17.51555634  114.47200012    0.73000002    0.69000000
   17.51888847  114.09600067    0.73000002    0.69000000
   17.52222252   97.36779785    0.70999998    0.67000002
   17.52666664   97.36779785    0.70999998    0.67000002
   17.53083229  120.17099762    0.69000000    0.67000002
   17.53388786  110.19300079    0.67000002    0.64999998
   17.53722191  111.30000305    0.64999998    0.64999998
   17.54055595  118.85500336    0.63000000    0.63000000
   17.54361153  112.88500214    0.63000000    0.63000000
   17.54694366  100.03900146    0.63000000    0.63000000
   17.54999924  100.80999756    0.56999999    0.61000001
   17.55333328   88.98549652    0.52999997    0.61000001
   17.55666542  117.88700104    0.51999998    0.58999997
   17.56110954  117.88700104    0.51999998    0.58999997
   17.56527710  117.29199982    0.50000000    0.56999999
   17.56861115  116.05400085    0.50000000    0.56999999
   17.57166672  116.61100006    0.47999999    0.56999999
   17.57500076  117.64800262    0.47999999    0.56999999
   17.57805634  117.68299866    0.47999999    0.55000001
   17.58139038  128.23899841    0.46000001    0.55000001
   17.58472252  110.40399933    0.46000001    0.55000001
   17.58777809  100.09899902    0.46000001    0.52999997
   17.59111214  115.96700287    0.46000001    0.55000001
   17.59555626  115.96700287    0.44000000    0.52999997
   17.59972191  112.92800140    0.41999999    0.52999997
   17.60305595  113.26699829    0.41999999    0.52999997
   17.60611153  132.75900269    0.40000001    0.52999997
   17.60944557  113.86499786    0.40000001    0.52999997
   17.61277771  116.76499939    0.38000000    0.51999998
   17.61583328  135.27000427    0.36000001    0.52999997
   17.61916733  111.66400146    0.38000000    0.52999997
   17.62249947  109.20600128    0.36000001    0.51999998
   17.62555504  123.65399933    0.36000001    0.52999997
   17.63027763  123.65399933    0.36000001    0.52999997
   17.63416672  122.22000122    0.36000001    0.51999998
   17.63750076  128.00999451    0.36000001    0.51999998
   17.64083290  115.19400024    0.34000000    0.51999998
   17.64388847  124.76300049    0.34000000    0.51999998
   17.64722252  132.50000000    0.34000000    0.51999998
   17.65055466  119.65699768    0.34000000    0.51999998
   17.65361023  121.61199951    0.31999999    0.50000000
   17.65694427  113.65599823    0.34000000    0.50000000
   17.66027832  121.92199707    0.31999999    0.50000000
   17.66472244  121.92199707    0.31999999    0.50000000
   17.66888809  112.69200134    0.31999999    0.50000000
   17.67194366  111.58100128    0.31999999    0.50000000
   17.67527771  111.11100006    0.31999999    0.47999999
   17.67860985  108.41100311    0.31999999    0.47999999
   17.68166542  114.35399628    0.31999999    0.47999999
   17.68499947  130.89900208    0.31999999    0.47999999
   17.68805504  131.68200684    0.31999999    0.46000001
   17.69138718  140.17500305    0.31999999    0.46000001
   17.69472122  133.37100220    0.31999999    0.46000001
   17.69916534  133.37100220    0.31999999    0.46000001
   17.70333481  134.13299561    0.31999999    0.46000001
   17.70639038  137.41400146    0.31999999    0.46000001
   17.70972252  146.59700012    0.30000001    0.44000000
   17.71305656  113.66799927    0.30000001    0.44000000
   17.71611214  123.82199860    0.30000001    0.44000000
   17.71944427  125.63700104    0.30000001    0.44000000
   17.72277832  134.21600342    0.28000000    0.41999999
   17.72583389  125.79100037    0.28000000    0.41999999
   17.72916794  126.65100098    0.28000000    0.41999999
   17.73361206  126.65100098    0.25999999    0.41999999
   17.73777771  131.06399536    0.25999999    0.41999999
   17.74111176  127.87899780    0.25999999    0.40000001
   17.74416733  131.88499451    0.25000000    0.40000001
   17.74749947  110.43000031    0.25000000    0.40000001
   17.75083351  135.38699341    0.25000000    0.40000001
   17.75388908  131.11599731    0.25999999    0.38000000
   17.75722313  126.22399902    0.25000000    0.38000000
   17.76027870  124.99099731    0.25000000    0.38000000
   17.76361084  125.55400085    0.25999999    0.38000000
   17.76805496  125.55400085    0.25000000    0.38000000
   17.77222252  121.22499847    0.25999999    0.36000001
   17.77555466  127.94899750    0.25000000    0.36000001
   17.77888870  122.04000092    0.25999999    0.36000001
   17.78194427  139.20399475    0.25000000    0.36000001
   17.78527641  134.38299561    0.25000000    0.34000000
   17.78833199  129.26600647    0.25000000    0.34000000
   17.79166603  130.99200439    0.25000000    0.34000000
   17.79500008  130.73100281    0.25000000    0.34000000
   17.79805565  130.25599670    0.25000000    0.31999999
   17.80277634  130.25599670    0.25000000    0.31999999
   17.80694389  121.31600189    0.25000000    0.31999999
   17.80999947  129.15699768    0.25000000    0.31999999
   17.81333351  136.32000732    0.23000000    0.31999999
   17.81638718  129.13299561    0.25000000    0.30000001
   17.81972313  134.60400391    0.23000000    0.30000001
   17.82305717  130.07299805    0.23000000    0.30000001
   17.82611275  134.47599792    0.23000000    0.28000000
   17.82944489  129.94999695    0.23000000    0.28000000
   17.83277893  128.65400696    0.23000000    0.28000000
   17.83722305  128.65400696    0.23000000    0.25999999
   17.84138870  130.68299866    0.20999999    0.28000000
   17.84444427  131.89799500    0.23000000    0.25999999
   17.84777832  109.54199982    0.23000000    0.25999999
   17.85111237  133.77000427    0.23000000    0.25999999
   17.85416794  115.14900208    0.23000000    0.25000000
   17.85750008  115.77300262    0.23000000    0.25000000
   17.86083412  115.74700165    0.25000000    0.25000000
   17.86388969  105.87999725    0.25000000    0.25000000
   17.86722183  118.28399658    0.25000000    0.23000000
   17.87166595  118.28399658    0.25000000    0.23000000
   17.87583351  115.03399658    0.25000000    0.23000000
   17.87916756  126.14299774    0.25000000    0.23000000
   17.88222313  122.53900146    0.25000000    0.23000000
   17.88555527  118.78299713    0.25000000    0.23000000
   17.88861084  122.23100281    0.25000000    0.20999999
   17.89194489  116.39499664    0.25000000    0.20999999
   17.89527702  128.33500671    0.23000000    0.20999999
   17.89833260  114.41200256    0.25000000    0.20999999
   17.90166664  121.57900238    0.23000000    0.19000000
   17.90611076  121.57900238    0.23000000    0.19000000
   17.91027832  125.03800201    0.20999999    0.19000000
   17.91361046  117.91100311    0.20999999    0.19000000
   17.91666603  112.66600037    0.20999999    0.19000000
   17.92000008  119.27899933    0.20999999    0.17000000
   17.92333221  111.71600342    0.20999999    0.17000000
   17.92638779  113.05100250    0.20999999    0.17000000
   17.92972183  111.48500061    0.20999999    0.17000000
   17.93305397  111.30100250    0.20999999    0.15000001
   17.93610954  115.48500061    0.20999999    0.15000001
   17.94083214  115.48500061    0.20999999    0.15000001
   17.94472122  118.70099640    0.19000000    0.15000001
   17.94805527  117.93199921    0.19000000    0.13000000
   17.95138931  108.92299652    0.19000000    0.13000000
   17.95444489  106.18699646    0.19000000    0.13000000
   17.95777893  122.68699646    0.19000000    0.13000000
   17.96111107  120.30799866    0.19000000    0.11000000
   17.96416664  123.39900208    0.19000000    0.11000000
   17.96750069  117.84600067    0.19000000    0.11000000
   17.97055626  135.02499390    0.19000000    0.11000000
   17.97527885  135.02499390    0.17000000    0.09000000
   17.97944450  129.60600281    0.17000000    0.09000000
   17.98250008  127.38400269    0.19000000    0.09000000
   17.98583412  129.81900024    0.17000000    0.09000000
   17.98916626  118.44300079    0.17000000    0.09000000
   17.99222183  104.95400238    0.17000000    0.09000000
   17.99555588  123.49099731    0.17000000    0.07000000
   17.99888992  104.05799866    0.17000000    0.09000000
   18.00194359  108.33499908    0.17000000    0.07000000
   18.00527763  114.55699921    0.17000000    0.07000000
   18.00972176  114.55699921    0.15000001    0.07000000
   18.01388931  106.35900116    0.17000000    0.07000000
   18.01722145  114.51599884    0.17000000    0.07000000
   18.02027702  113.69100189    0.15000001    0.07000000
   18.02361107  113.90299988    0.15000001    0.07000000
   18.02666664  106.37899780    0.15000001    0.07000000
   18.03000069  118.65699768    0.15000001    0.07000000
   18.03333282  129.40800476    0.15000001    0.05000000
   18.03638840  140.56700134    0.15000001    0.05000000
   18.03972244  126.40100098    0.15000001    0.05000000
   18.06027794  126.40100098    0.13000000    0.05000000
   18.06444359  114.14600372    0.13000000    0.05000000
   18.06777954  121.35800171    0.13000000    0.05000000
   18.07083511  114.17500305    0.13000000    0.03000000
   18.07416725  117.21800232    0.13000000    0.03000000
   18.07750130  117.29399872    0.13000000    0.03000000
   18.08055687  112.82599640    0.13000000    0.03000000
   18.08388901  101.32299805    0.13000000    0.03000000
   18.08694458   95.64679718    0.13000000    0.03000000
   18.09027863  108.37799835    0.13000000    0.03000000
   18.09472275  108.37799835    0.11000000    0.03000000
   18.09889030  118.81999969    0.13000000    0.03000000
   18.10222244  110.57800293    0.11000000    0.03000000
   18.10527802  117.72799683    0.11000000    0.03000000
   18.10861206  116.66699982    0.11000000    0.03000000
   18.11166763  105.41200256    0.11000000    0.03000000
   18.11499977  104.62799835    0.11000000    0.03000000
   18.11833382  116.81300354    0.11000000    0.03000000
   18.12138939  109.53199768    0.13000000    0.01000000
   18.12472153  110.97399902    0.13000000    0.01000000
   18.12916756  110.97399902    0.13000000    0.01000000
   18.13333321  105.04100037    0.13000000    0.01000000
   18.13666725  106.68199921    0.13000000    0.01000000
   18.13972282  111.12500000    0.13000000    0.01000000
   18.14305496  123.51200104    0.13000000    0.01000000
   18.14638901  114.71800232    0.13000000    0.01000000
   18.14944458  110.23899841    0.13000000    0.01000000
   18.15277672  112.49400330    0.13000000    0.01000000
   18.15611076  114.97899628    0.13000000    0.01000000
   18.15916634  118.33899689    0.13000000    0.01000000
   18.16388893  118.33899689    0.13000000    0.01000000
   18.16777802  120.13500214    0.13000000    0.01000000
   18.17111015  116.38700104    0.11000000    0.01000000
   18.17444420  111.78500366    0.11000000    0.01000000
   18.17749977  114.78099823    0.13000000    0.01000000
   18.18083191  112.61599731    0.13000000    0.01000000
   18.18416595  108.67800140    0.11000000    0.01000000
   18.18722153  114.26200104    0.11000000    0.01000000
   18.19055557  109.67700195    0.11000000    0.01000000
   18.19361115  125.77100372    0.13000000    0.01000000
   18.19833183  125.77100372    0.13000000    0.01000000
   18.20250130  115.92299652    0.11000000    0.01000000
   18.20555687  118.23799896    0.11000000    0.01000000
   18.20888901  104.25900269    0.11000000    0.01000000
   18.21194458  110.02700043    0.11000000    0.01000000
   18.21527863  126.84300232    0.11000000    0.01000000
   18.21861076  113.55599976    0.11000000    0.01000000
   18.22166634  136.45500183    0.11000000    0.01000000
   18.22500038  139.21400452    0.11000000    0.01000000
   18.22833443  156.84199524    0.11000000    0.01000000
   18.23277855  156.84199524    0.11000000    0.01000000
   18.23694420  140.22399902    0.11000000    0.01000000
   18.23999977  146.23100281    0.11000000    0.01000000
   18.24333382  144.05099487    0.09000000    0.01000000
   18.24666786  140.33399963    0.11000000    0.01000000
   18.24972153  135.12600708    0.11000000    0.01000000
   18.25305557  142.71000671    0.11000000    0.01000000
   18.25638962  134.23300171    0.11000000    0.01000000
   18.25944519  150.54200745    0.11000000    0.01000000
   18.26277733  153.81199646    0.11000000    0.01000000
   18.26722145  153.81199646    0.11000000    0.01000000
   18.27138901  131.72399902    0.11000000    0.01000000
   18.27472115  153.20799255    0.11000000    0.01000000
   18.27777672  133.56700134    0.11000000    0.01000000
   18.28111076  143.53799438    0.11000000    0.01000000
   18.28444481  160.32600403    0.11000000    0.01000000
   18.28750038  159.21499634    0.11000000    0.01000000
   18.29083252  151.71200562    0.11000000    0.01000000
   18.29388809  138.61700439    0.11000000    0.01000000
   18.29722214  139.13299561    0.11000000    0.01000000
   18.30166626  139.13299561    0.11000000    0.01000000
   18.30583191  102.25099945    0.11000000    0.01000000
   18.30916595  109.30899811    0.11000000    0.01000000
   18.31250000  119.76699829    0.11000000    0.01000000
   18.31555557  128.07899475    0.11000000    0.01000000
   18.31888962  111.10900116    0.11000000    0.01000000
   18.32194519  139.66999817    0.11000000    0.01000000
   18.32527924  122.23699951    0.11000000    0.01000000
   18.32861137  129.47999573    0.11000000    0.01000000
   18.33166695  115.67099762    0.11000000    0.01000000
   18.33638954  115.67099762    0.11000000    0.01000000
   18.34055710  127.64399719    0.11000000    0.01000000
   18.34361267  131.50900269    0.11000000    0.01000000
   18.34694481  141.38200378    0.11000000    0.01000000
   18.35027885  135.44500732    0.11000000    0.01000000
   18.35333443  160.45399475    0.11000000    0.01000000
   18.35666656  137.44700623    0.11000000    0.01000000
   18.36000061  133.60400391    0.11000000    0.01000000
   18.36305618  121.47000122    0.11000000    0.01000000
   18.36638832  123.96800232    0.11000000    0.01000000
   18.37083435  123.96800232    0.11000000    0.01000000
   18.37500000  111.10600281    0.11000000    0.01000000
   18.37805557  113.41500092    0.11000000    0.01000000
   18.38138962  115.35700226    0.11000000    0.01000000
   18.38472176  105.45600128    0.11000000    0.01000000
   18.38777733  109.87300110    0.11000000    0.01000000
   18.39111137  105.17600250    0.11000000    0.01000000
   18.39416695  111.89399719    0.11000000    0.01000000
   18.39749908  103.91400146    0.11000000    0.01000000
   18.40083313  102.72399902    0.11000000    0.01000000
   18.40527725  102.72399902    0.11000000    0.01000000
   18.40944481  110.73500061    0.11000000    0.01000000
   18.41277695  114.06700134    0.11000000    0.01000000
   18.41583252  124.05899811    0.11000000    0.01000000
   18.41916656  116.28700256    0.11000000    0.01000000
   18.42222214  107.00299835    0.11000000    0.01000000
   18.42555428  116.87500000    0.11000000    0.01000000
   18.42888832  121.58599854    0.11000000    0.01000000
   18.43194389  129.40400696    0.11000000    0.01000000
   18.43527603  131.58099365    0.11000000    0.01000000
   18.43972206  131.58099365    0.11000000    0.01000000
   18.44388771  105.04100037    0.11000000    0.01000000
   18.44722176  102.83599854    0.11000000    0.01000000
   18.45027924   99.77909851    0.11000000    0.01000000
   18.45361137  102.54599762    0.11000000    0.01000000
   18.45694542   98.01950073    0.11000000    0.01000000
   18.46000099  107.80500031    0.11000000    0.01000000
   18.46333504   94.60079956    0.11000000    0.01000000
   18.46666718  101.37400055    0.11000000    0.01000000
   18.46972275  109.00000000    0.11000000    0.01000000
   18.47444534  109.00000000    0.11000000    0.01000000
   18.47833443  113.00499725    0.11000000    0.01000000
   18.48166656  108.39600372    0.11000000    0.01000000
   18.48500061  109.92700195    0.11000000    0.01000000
   18.48805618  130.98699951    0.11000000    0.01000000
   18.49138832  121.90200043    0.11000000    0.01000000
   18.49472237  107.55999756    0.11000000    0.01000000
   18.49777794  108.55599976    0.11000000    0.01000000
   18.50111198  116.68599701    0.11000000    0.01000000
   18.50416756  108.36199951    0.11000000    0.01000000
   18.50888824  108.36199951    0.11000000    0.01000000
   18.51305580  105.41899872    0.11000000    0.01000000
   18.51611137   99.65689850    0.11000000    0.01000000
   18.51944351   94.38140106    0.11000000    0.01000000
   18.52277756  101.64399719    0.11000000    0.01000000
   18.52583313  102.22100067    0.11000000    0.01000000
   18.52916718  106.70700073    0.11000000    0.01000000
   18.53222275  102.01599884    0.11000000    0.01000000
   18.53555489   91.59500122    0.11000000    0.01000000
   18.53888893  108.26899719    0.11000000    0.01000000
   18.54333305  108.26899719    0.11000000    0.01000000
   18.54749870  102.60500336    0.11000000    0.01000000
   18.55055428  102.11599731    0.11000000    0.01000000
   18.55388832  109.67800140    0.11000000    0.01000000
   18.55722237  112.41899872    0.11000000    0.01000000
   18.56027794  111.65499878    0.11000000    0.01000000
   18.56361008  141.84899902    0.11000000    0.01000000
   18.56694603  152.02799988    0.11000000    0.01000000
   18.57000160  113.22799683    0.11000000    0.01000000
   18.57333374  124.08699799    0.11000000    0.01000000
   18.57777786  124.08699799    0.11000000    0.01000000
   18.58194542  109.36900330    0.11000000    0.01000000
   18.58527756  113.03800201    0.11000000    0.01000000
   18.58833313  115.72599792    0.11000000    0.01000000
   18.59166718  130.29899597    0.11000000    0.01000000
   18.59500122  115.50399780    0.11000000    0.01000000
   18.59805679  117.50399780    0.11000000    0.01000000
   18.60138893  139.62300110    0.11000000    0.01000000
   18.60472298  114.05999756    0.11000000    0.01000000
   18.60777855  136.32800293    0.11000000    0.01000000
   18.61222267  136.32800293    0.11000000    0.01000000
   18.61638832  143.87800598    0.11000000    0.01000000
   18.61972237  140.71499634    0.11000000    0.01000000
   18.62305641  135.88600159    0.11000000    0.01000000
   18.62611198  132.47399902    0.11000000    0.01000000
   18.62944412  137.51400757    0.11000000    0.01000000
   18.63249969  140.16700745    0.11000000    0.01000000
   18.63583374  138.01199341    0.11000000    0.01000000
   18.63916588  150.71899414    0.11000000    0.01000000
   18.64222145  150.80400085    0.11000000    0.01000000
   18.64694405  150.80400085    0.11000000    0.01000000
   18.65111160  157.42500305    0.11000000    0.01000000
   18.65416718  136.49800110    0.11000000    0.01000000
   18.65749931  132.92199707    0.11000000    0.01000000
   18.66055489  137.70899963    0.11000000    0.01000000
   18.66388893  125.12200165    0.11000000    0.01000000
   18.66722107  134.61300659    0.11000000    0.01000000
   18.67027664  130.69799805    0.11000000    0.01000000
   18.67361069  140.99699402    0.11000000    0.01000000
   18.67694473  132.36599731    0.11000000    0.01000000
   18.68138885  132.36599731    0.11000000    0.01000000
   18.68555450  120.70999908    0.11000000    0.01000000
   18.68861008  117.44699860    0.11000000    0.01000000
   18.69194412  122.58499908    0.11000000    0.01000000
   18.69527626  119.39900208    0.11000000    0.01000000
   18.69833183  127.30500031    0.11000000    0.01000000
   18.70166779  128.11099243    0.11000000    0.01000000
   18.70499992  120.99800110    0.11000000    0.01000000
   18.70805550  121.75399780    0.11000000    0.01000000
   18.71138954  122.29499817    0.11000000    0.01000000
   18.71583366  122.29499817    0.11000000    0.01000000
   18.72000122  138.13200378    0.11000000    0.01000000
   18.72333336  136.28199768    0.11000000    0.01000000
   18.72638893  129.96499634    0.11000000    0.01000000
   18.72972298  154.12699890    0.11000000    0.01000000
   18.73305511  128.47700500    0.11000000    0.01000000
   18.73611069  146.12600708    0.11000000    0.01000000
   18.73944473  148.73699951    0.11000000    0.01000000
   18.74250031  143.99499512    0.11000000    0.01000000
   18.74583435  130.40199280    0.11000000    0.01000000
   18.75027847  130.40199280    0.11000000    0.01000000
   18.75444412  121.48100281    0.11000000    0.01000000
   18.75777817  145.58900452    0.11000000    0.01000000
   18.76083374  135.69900513    0.11000000    0.01000000
   18.76416588  143.47099304    0.11000000    0.01000000
   18.76749992  127.39800262    0.11000000    0.01000000
   18.77055550  139.78100586    0.11000000    0.01000000
   18.77388954  124.78500366    0.11000000    0.01000000
   18.77722168  132.15400696    0.11000000    0.01000000
   18.78027725  133.73800659    0.11000000    0.01000000
   18.78499985  133.73800659    0.11000000    0.01000000
   18.78888893  142.91700745    0.11000000    0.01000000
   18.79222107  149.31799316    0.11000000    0.01000000
   18.79555511  130.61199951    0.11000000    0.01000000
   18.79861069  129.37199402    0.11000000    0.01000000
   18.80194283  138.34300232    0.11000000    0.01000000
   18.80527687  129.71899414    0.11000000    0.01000000
   18.80833244  131.62500000    0.11000000    0.01000000
   18.81166649  129.56399536    0.11000000    0.01000000
   18.81472206  129.78399658    0.11000000    0.01000000
   18.81944466  129.78399658    0.11000000    0.01000000
   18.82361221  123.51100159    0.11000000    0.01000000
   18.82666779  140.94999695    0.11000000    0.01000000
   18.83000183  126.04599762    0.11000000    0.01000000
   18.83333397  107.82900238    0.11000000    0.01000000
   18.83638954  110.92800140    0.11000000    0.01000000
   18.83972359  132.34399414    0.11000000    0.01000000
   18.84277916  123.22100067    0.11000000    0.01000000
   18.84611130  125.92199707    0.11000000    0.01000000
   18.84944534  119.67900085    0.11000000    0.01000000
   18.85388947  119.67900085    0.11000000    0.01000000
   18.85805511  113.76300049    0.11000000    0.01000000
   18.86138916  118.89299774    0.11000000    0.01000000
   18.86444473  122.79799652    0.11000000    0.01000000
   18.86777878  118.37400055    0.11000000    0.01000000
   18.87083435  118.89099884    0.11000000    0.01000000
   18.87416649  105.11000061    0.11000000    0.01000000
   18.87750053  119.37799835    0.11000000    0.01000000
   18.88055611  123.91799927    0.11000000    0.01000000
   18.88388824  122.19499969    0.11000000    0.01000000
   18.88833237  122.19499969    0.11000000    0.01000000
   18.89249992  122.39099884    0.11000000    0.01000000
   18.89583397  114.78299713    0.11000000    0.01000000
   18.89888954  115.09400177    0.11000000    0.01000000
   18.90222168  116.83000183    0.11000000    0.01000000
   18.90555573  127.20800018    0.11000000    0.01000000
   18.90861130  118.68199921    0.11000000    0.01000000
   18.91194344  107.91000366    0.11000000    0.01000000
   18.91527748  127.90699768    0.11000000    0.01000000
   18.91833305  137.44700623    0.11000000    0.01000000
   18.92277718  137.44700623    0.11000000    0.01000000
   18.92694473  133.21800232    0.11000000    0.01000000
   18.93027687  143.07200623    0.11000000    0.01000000
   18.93361092  123.32299805    0.11000000    0.01000000
   18.93666649  130.14900208    0.11000000    0.01000000
   18.93999863  129.64700317    0.11000000    0.01000000
   18.94333267  136.43800354    0.11000000    0.01000000
   18.94638824  141.20899963    0.11000000    0.01000000
   18.94972038  162.79100037    0.11000000    0.01000000
   18.95277786  182.84100342    0.11000000    0.01000000
   18.95750046  182.84100342    0.11000000    0.01000000
   18.96166801  126.05599976    0.11000000    0.01000000
   18.96472359  114.39600372    0.11000000    0.01000000
   18.96805573  129.49200439    0.11000000    0.01000000
   18.97111130  124.30200195    0.11000000    0.01000000
   18.97444534  131.83900452    0.11000000    0.01000000
   18.97777748  128.63800049    0.11000000    0.01000000
   18.98083305  103.17800140    0.11000000    0.01000000
   18.98416710  134.52200317    0.11000000    0.01000000
   18.98750114  102.92700195    0.11000000    0.01000000
   18.99194527  102.92700195    0.11000000    0.01000000
   18.99611092  130.42799377    0.11000000    0.01000000
   18.99916649  122.09300232    0.11000000    0.01000000
   19.00250053  132.19900513    0.11000000    0.01000000
   19.00583267  118.58599854    0.11000000    0.01000000
   19.00888824  132.00799561    0.11000000    0.01000000
   19.01222229  116.05899811    0.11000000    0.01000000
   19.01555634  124.64399719    0.11000000    0.01000000
   19.01861000  117.41300201    0.11000000    0.01000000
   19.02194405  125.51000214    0.11000000    0.01000000
   19.02638817  125.51000214    0.11000000    0.01000000
   19.03055573  123.97000122    0.11000000    0.01000000
   19.03388786  130.53599548    0.11000000    0.01000000
   19.03694344  121.17800140    0.11000000    0.01000000
   19.04027748  135.15600586    0.11000000    0.01000000
   19.04361153  121.98300171    0.11000000    0.01000000
   19.04666710  129.64399719    0.11000000    0.01000000
   19.04999924  127.79199982    0.11000000    0.01000000
   19.05305481  112.67900085    0.11000000    0.01000000
   19.05638885  119.60299683    0.11000000    0.01000000
   19.07694626  119.60299683    0.11000000    0.01000000
   19.08111191  123.79000092    0.11000000    0.01000000
   19.08444595  130.01800537    0.11000000    0.01000000
   19.08750153  119.88300323    0.11000000    0.01000000
   19.09083366  119.83000183    0.11000000    0.01000000
   19.09416771  122.89399719    0.11000000    0.01000000
   19.09722328  142.34399414    0.11000000    0.01000000
   19.10055542  136.45300293    0.11000000    0.01000000
   19.10388947  127.10800171    0.11000000    0.01000000
   19.10694504  114.33300018    0.11000000    0.01000000
   19.11138916  114.33300018    0.11000000    0.01000000
   19.11555672  132.20599365    0.11000000    0.01000000
   19.11888885  135.31199646    0.11000000    0.01000000
   19.12194443  142.20899963    0.11000000    0.01000000
   19.12527847  132.49899292    0.11000000    0.01000000
   19.12861061  131.26499939    0.11000000    0.01000000
   19.13166618  128.77900696    0.11000000    0.01000000
   19.13500023  135.41099548    0.11000000    0.01000000
   19.13805580  144.40600586    0.11000000    0.01000000
   19.14138794  133.08599854    0.11000000    0.01000000
   19.14583397  133.08599854    0.11000000    0.01000000
   19.14999962  123.35399628    0.11000000    0.01000000
   19.15333366  121.43800354    0.11000000    0.01000000
   19.15666580  122.19300079    0.11000000    0.01000000
   19.15972137  124.41000366    0.11000000    0.01000000
   19.16305542  132.80000305    0.11000000    0.01000000
   19.16611099  119.42700195    0.11000000    0.01000000
   19.16944313  118.71099854    0.11000000    0.01000000
   19.17277718  128.32099915    0.11000000    0.01000000
   19.17583275  125.55300140    0.11000000    0.01000000
   19.18055534  125.55300140    0.11000000    0.01000000
   19.18472099  125.89700317    0.11000000    0.01000000
   19.18777657  124.19200134    0.11000000    0.01000000
   19.19111061  139.44599915    0.11000000    0.01000000
   19.19416618  111.27300262    0.11000000    0.01000000
   19.19749832  122.56999969    0.11000000    0.01000000
   19.20083427  129.41499329    0.11000000    0.01000000
   19.20388985  120.21900177    0.11000000    0.01000000
   19.20722389  137.76699829    0.11000000    0.01000000
   19.21055603  100.45200348    0.11000000    0.01000000
   19.21500015  100.45200348    0.11000000    0.01000000
   19.21916771  135.99899292    0.11000000    0.01000000
   19.22222328  125.96700287    0.11000000    0.01000000
   19.22555542  126.48100281    0.11000000    0.01000000
   19.22888947  123.73300171    0.11000000    0.01000000
   19.23194504  143.47300720    0.11000000    0.01000000
   19.23527718  126.66100311    0.11000000    0.01000000
   19.23833275  148.27499390    0.11000000    0.01000000
   19.24166679  117.98600006    0.11000000    0.01000000
   19.24500084  135.23800659    0.11000000    0.01000000
   19.24944496  135.23800659    0.11000000    0.01000000
   19.25361061  114.48400116    0.11000000    0.01000000
   19.25694466  119.11399841    0.11000000    0.01000000
   19.26000023  127.83499908    0.11000000    0.01000000
   19.26333427  130.13400269    0.11000000    0.01000000
   19.26638794  103.49099731    0.11000000    0.01000000
   19.26972198  114.56800079    0.11000000    0.01000000
   19.27305603  128.55799866    0.11000000    0.01000000
   19.27611160  125.83999634    0.11000000    0.01000000
   19.27944374  122.08000183    0.11000000    0.01000000
   19.28388786  122.08000183    0.11000000    0.01000000
   19.28805542  122.18499756    0.11000000    0.01000000
   19.29138756  121.55500031    0.11000000    0.01000000
   19.29444313  111.72699738    0.11000000    0.01000000
   19.29777718  108.67099762    0.11000000    0.01000000
   19.30111122  108.34400177    0.11000000    0.01000000
   19.30416679  111.69599915    0.11000000    0.01000000
   19.30749893  100.49199677    0.11000000    0.01000000
   19.31083298  108.14700317    0.11000000    0.01000000
   19.31388855  112.21399689    0.11000000    0.01000000
   19.31861115  112.21399689    0.11000000    0.01000000
   19.32250023  122.67199707    0.11000000    0.01000000
   19.32583427  110.83200073    0.11000000    0.01000000
   19.32916832  120.42700195    0.11000000    0.01000000
   19.33222389  119.73100281    0.11000000    0.01000000
   19.33555603  120.86799622    0.11000000    0.01000000
   19.33889008  119.12000275    0.11000000    0.01000000
   19.34194565  136.30599976    0.11000000    0.01000000
   19.34527779  117.01300049    0.11000000    0.01000000
   19.34833336  116.62200165    0.11000000    0.01000000
   19.35305595  116.62200165    0.11000000    0.01000000
   19.35722351  126.68099976    0.11000000    0.01000000
   19.36027908  128.88000488    0.11000000    0.01000000
   19.36361122  109.94899750    0.11000000    0.01000000
   19.36694527  115.47599792    0.11000000    0.01000000
   19.37000084  125.18000031    0.11000000    0.01000000
   19.37333298  115.04199982    0.11000000    0.01000000
   19.37666702  124.10700226    0.11000000    0.01000000
   19.37972260  121.40499878    0.11000000    0.01000000
   19.38305473  122.42299652    0.11000000    0.01000000
   19.38750076  122.42299652    0.11000000    0.01000000
   19.39166641  108.19300079    0.11000000    0.01000000
   19.39472198  113.63500214    0.11000000    0.01000000
   19.39805603  114.12300110    0.11000000    0.01000000
   19.40138817  104.16600037    0.11000000    0.01000000
   19.40444374  101.84899902    0.11000000    0.01000000
   19.40777779  119.11299896    0.11000000    0.01000000
   19.41110992  123.52300262    0.11000000    0.01000000
   19.41416550  107.16799927    0.11000000    0.01000000
   19.41749954  105.91600037    0.11000000    0.01000000
   19.42194366  105.91600037    0.11000000    0.01000000
   19.42611122  121.06900024    0.11000000    0.01000000
   19.42944336  112.46800232    0.11000000    0.01000000
   19.43249893  112.02500153    0.11000000    0.01000000
   19.43583298  120.76899719    0.11000000    0.01000000
   19.43916512  114.90100098    0.11000000    0.01000000
   19.44222069  128.70300293    0.11000000    0.01000000
   19.44555473  132.24200439    0.11000000    0.01000000
   19.44861031  125.45899963    0.11000000    0.01000000
   19.45194435  125.05100250    0.11000000    0.01000000
   19.45639038  125.05100250    0.11000000    0.01000000
   19.46055603  132.65600586    0.11000000    0.01000000
   19.46389008  128.20500183    0.11000000    0.01000000
   19.46722221  128.04499817    0.11000000    0.01000000
   19.47027779  117.55999756    0.11000000    0.01000000
   19.47361183  135.61300659    0.11000000    0.01000000
   19.47666740  126.37799835    0.11000000    0.01000000
   19.48000145  132.82499695    0.11000000    0.01000000
   19.48333359  126.41200256    0.11000000    0.01000000
   19.48638916  127.57399750    0.11000000    0.01000000
   19.49111176  127.57399750    0.11000000    0.01000000
   19.49527740  134.50500488    0.11000000    0.01000000
   19.49833298  145.85899353    0.11000000    0.01000000
   19.50166702  132.54100037    0.11000000    0.01000000
   19.50472260  136.73699951    0.11000000    0.01000000
   19.50805473  130.47599792    0.11000000    0.01000000
   19.51138878  124.57700348    0.11000000    0.01000000
   19.51444435  132.30000305    0.11000000    0.01000000
   19.51777840  125.59300232    0.11000000    0.01000000
   19.52111053  111.86299896    0.11000000    0.01000000
   19.52555466  111.86299896    0.11000000    0.01000000
   19.52972221  111.19799805    0.11000000    0.01000000
   19.53277779  120.89399719    0.11000000    0.01000000
   19.53610992  114.75099945    0.11000000    0.01000000
   19.53944397  131.95399475    0.11000000    0.01000000
   19.54249954  128.27900696    0.11000000    0.01000000
   19.54583359  124.44499969    0.11000000    0.01000000
   19.54916573  114.29799652    0.11000000    0.01000000
   19.55222130  132.30299377    0.11000000    0.01000000
   19.55555534  128.13400269    0.11000000    0.01000000
   19.55999947  128.13400269    0.11000000    0.01000000
   19.56416512  158.34199524    0.11000000    0.01000000
   19.56750107  130.92599487    0.11000000    0.01000000
   19.57055664  148.66499329    0.11000000    0.01000000
   19.57389069  130.75000000    0.11000000    0.01000000
   19.57722282  149.61300659    0.11000000    0.01000000
   19.58027840  159.70700073    0.11000000    0.01000000
   19.58361244  163.02499390    0.11000000    0.01000000
   19.58666801  160.70100403    0.11000000    0.01000000
   19.59000015  149.36599731    0.11000000    0.01000000
   19.59444427  149.36599731    0.11000000    0.01000000
   19.59861183  151.29699707    0.11000000    0.01000000
   19.60194397  151.57899475    0.11000000    0.01000000
   19.60499954  151.32400513    0.11000000    0.01000000
   19.60833359  134.57800293    0.11000000    0.01000000
   19.61166763  155.27099609    0.11000000    0.01000000
   19.61472321  135.99499512    0.11000000    0.01000000
   19.61805534  139.49099731    0.11000000    0.01000000
   19.62138939  137.72500610    0.11000000    0.01000000
   19.62444496  139.13999939    0.11000000    0.01000000
   19.62916756  139.13999939    0.11000000    0.01000000
   19.63305473  133.70599365    0.11000000    0.01000000
   19.63638878  145.84100342    0.11000000    0.01000000
   19.63972282  135.46200562    0.11000000    0.01000000
   19.64277840  149.00100708    0.11000000    0.01000000
   19.64611053  144.18899536    0.11000000    0.01000000
   19.64944458  135.76199341    0.11000000    0.01000000
   19.65250015  136.61399841    0.11000000    0.01000000
   19.65583229  128.49800110    0.11000000    0.01000000
   19.65888786  136.85299683    0.11000000    0.01000000
   19.66361046  136.85299683    0.11000000    0.01000000
   19.66777802  136.79699707    0.11000000    0.01000000
   19.67083359  136.46800232    0.11000000    0.01000000
   19.67416573  122.08100128    0.11000000    0.01000000
   19.67749977  140.85600281    0.11000000    0.01000000
   19.68055534  142.64100647    0.11000000    0.01000000
   19.68388748  140.53199768    0.11000000    0.01000000
   19.68694305  131.84100342    0.11000000    0.01000000
   19.69027710  139.79600525    0.11000000    0.01000000
   19.69361115  135.64599609    0.11000000    0.01000000
   19.69805527  135.64599609    0.11000000    0.01000000
   19.70222282  131.71400452    0.11000000    0.01000000
   19.70555687  127.71299744    0.11000000    0.01000000
   19.70861244  131.02600098    0.11000000    0.01000000
   19.71194458  123.44400024    0.11000000    0.01000000
   19.71500015  138.24000549    0.11000000    0.01000000
   19.71833420  127.30400085    0.11000000    0.01000000
   19.72166634  127.32700348    0.11000000    0.01000000
   19.72472191  147.05999756    0.11000000    0.01000000
   19.72805595  146.12800598    0.11000000    0.01000000
   19.73250008  146.12800598    0.11000000    0.01000000
   19.73666763  146.53199768    0.11000000    0.01000000
   19.73999977  146.14700317    0.11000000    0.01000000
   19.74305534  148.94299316    0.11000000    0.01000000
   19.74638939  145.51400757    0.11000000    0.01000000
   19.74972153  153.44900513    0.11000000    0.01000000
   19.75277710  143.01899719    0.11000000    0.01000000
   19.75611115  125.01999664    0.11000000    0.01000000
   19.75944519  148.27600098    0.11000000    0.01000000
   19.76250076  151.65199280    0.11000000    0.01000000
   19.76694489  151.65199280    0.11000000    0.01000000
   19.77111053  153.42599487    0.11000000    0.01000000
   19.77444458  144.00100708    0.11000000    0.01000000
   19.77777672  132.68600464    0.11000000    0.01000000
   19.78083229  151.20100403    0.11000000    0.01000000
   19.78416634  148.77600098    0.11000000    0.01000000
   19.78722191  137.83299255    0.11000000    0.01000000
   19.79055595  137.57299805    0.11000000    0.01000000
   19.79388809  126.97899628    0.11000000    0.01000000
   19.79694366  122.33799744    0.11000000    0.01000000
   19.80166626  122.33799744    0.11000000    0.01000000
   19.80583191  152.26800537    0.11000000    0.01000000
   19.80888748  140.27600098    0.11000000    0.01000000
   19.81222153  141.64100647    0.11000000    0.01000000
   19.81527710  117.05000305    0.11000000    0.01000000
   19.81861115  138.44400024    0.11000000    0.01000000
   19.82194519  127.58100128    0.11000000    0.01000000
   19.82500076  145.02799988    0.11000000    0.01000000
   19.82833481  124.03299713    0.11000000    0.01000000
   19.83166695  122.12200165    0.11000000    0.01000000
   19.83611107  122.12200165    0.11000000    0.01000000
   19.84027863  147.38800049    0.11000000    0.01000000
   19.84333420  130.83000183    0.11000000    0.01000000
   19.84666824  126.02700043    0.11000000    0.01000000
   19.85000038  121.92400360    0.11000000    0.01000000
   19.85305595  135.65800476    0.11000000    0.01000000
   19.85639000  147.67199707    0.11000000    0.01000000
   19.85972214  150.96899414    0.11000000    0.01000000
   19.86277771  147.10699463    0.11000000    0.01000000
   19.86611176  130.74600220    0.11000000    0.01000000
   19.87055588  130.74600220    0.11000000    0.01000000
   19.87472153  137.80499268    0.11000000    0.01000000
   19.87805557  147.02400208    0.11000000    0.01000000
   19.88111115  130.33900452    0.11000000    0.01000000
   19.88444519  131.87600708    0.11000000    0.01000000
   19.88777733  150.60699463    0.11000000    0.01000000
   19.89083290  120.30100250    0.11000000    0.01000000
   19.89416695  133.19099426    0.11000000    0.01000000
   19.89749908  120.64399719    0.11000000    0.01000000
   19.90055466  112.67400360    0.11000000    0.01000000
   19.90499878  112.67400360    0.11000000    0.01000000
   19.90916634  234.14599609    0.11000000    0.01000000
   19.91250038  125.39299774    0.11000000    0.01000000
   19.91583252  128.50100708    0.11000000    0.01000000
   19.91888809  130.54200745    0.11000000    0.01000000
   19.92222214  125.66000366    0.11000000    0.01000000
   19.92527771  122.83399963    0.11000000    0.01000000
   19.92860985  138.30000305    0.11000000    0.01000000
   19.93194389  122.12699890    0.11000000    0.01000000
   19.93499947  122.62599945    0.11000000    0.01000000
   19.93972206  122.62599945    0.11000000    0.01000000
   19.94361115  120.89700317    0.11000000    0.01000000
   19.94694328  121.30200195    0.11000000    0.01000000
   19.95027924  132.33000183    0.11000000    0.01000000
   19.95333481  131.73399353    0.11000000    0.01000000
   19.95666695  131.54499817    0.11000000    0.01000000
   19.96000099  131.24499512    0.11000000    0.01000000
   19.96305656  125.74600220    0.11000000    0.01000000
   19.96638870  133.88900757    0.11000000    0.01000000
   19.96944427  127.84500122    0.11000000    0.01000000
   19.97416687  127.84500122    0.11000000    0.01000000
   19.97833443  125.77899933    0.11000000    0.01000000
   19.98139000  129.61700439    0.11000000    0.01000000
   19.98472214  137.24699402    0.11000000    0.01000000
   19.98805618  112.50900269    0.11000000    0.01000000
   19.99111176  124.87999725    0.11000000    0.01000000
   19.99444389  133.08900452    0.11000000    0.01000000
   19.99749947  128.03900146    0.11000000    0.01000000
   20.00083351  130.27000427    0.11000000    0.01000000
   20.00416756  125.40499878    0.11000000    0.01000000
   20.00861168  125.40499878    0.11000000    0.01000000
   20.01277733  123.81600189    0.11000000    0.01000000
   20.01611137  125.41799927    0.11000000    0.01000000
   20.01916695  123.23300171    0.11000000    0.01000000
   20.02249908  128.92199707    0.11000000    0.01000000
   20.02555466  111.14800262    0.11000000    0.01000000
   20.02888870  132.07499695    0.11000000    0.01000000
   20.03222275  129.85800171    0.11000000    0.01000000
   20.03527641  126.71700287    0.11000000    0.01000000
   20.03861046  124.16000366    0.11000000    0.01000000
   20.04305458  124.16000366    0.11000000    0.01000000
   20.04722214  134.51699829    0.11000000    0.01000000
   20.05055428  127.56400299    0.11000000    0.01000000
   20.05360985  131.84599304    0.11000000    0.01000000
   20.05694389  146.03300476    0.11000000    0.01000000
   20.06027794  128.08200073    0.11000000    0.01000000
   20.06333351  135.92199707    0.11000000    0.01000000
   20.06666756  121.91000366    0.11000000    0.01000000
   20.07000160  126.42199707    0.11000000    0.01000000
   20.07305717  136.09899902    0.11000000    0.01000000
   20.09388924  136.09899902    0.11000000    0.01000000
   20.09777832  148.51100159    0.11000000    0.01000000
   20.10111237  149.48699951    0.11000000    0.01000000
   20.10444450  133.80099487    0.11000000    0.01000000
   20.10750008  177.55400085    0.11000000    0.01000000
   20.11083412  144.24400330    0.11000000    0.01000000
   20.11416626  143.78500366    0.11000000    0.01000000
   20.11722183  127.39499664    0.11000000    0.01000000
   20.12055588  134.27000427    0.11000000    0.01000000
   20.12361145  125.38300323    0.11000000    0.01000000
   20.12805557  125.38300323    0.11000000    0.01000000
   20.13222313  133.15299988    0.11000000    0.01000000
   20.13555527  152.65100098    0.11000000    0.01000000
   20.13888931  152.22099304    0.11000000    0.01000000
   20.14194489  138.13000488    0.11000000    0.01000000
   20.14527702  155.61700439    0.11000000    0.01000000
   20.14833260  129.63499451    0.11000000    0.01000000
   20.15166664  151.98300171    0.11000000    0.01000000
   20.15499878  142.74899292    0.11000000    0.01000000
   20.15805435  158.03599548    0.11000000    0.01000000
   20.16277695  158.03599548    0.11000000    0.01000000
   20.16694450  155.31199646    0.11000000    0.01000000
   20.17000008  138.80900574    0.11000000    0.01000000
   20.17333221  134.69200134    0.11000000    0.01000000
   20.17638779  147.31399536    0.11000000    0.01000000
   20.17972183  135.11700439    0.11000000    0.01000000
   20.18305397  116.78099823    0.11000000    0.01000000
   20.18610954  142.96899414    0.11000000    0.01000000
   20.18944359  154.47799683    0.11000000    0.01000000
   20.19277763  141.01899719    0.11000000    0.01000000
   20.19722176  141.01899719    0.11000000    0.01000000
   20.20138931  162.90899658    0.11000000    0.01000000
   20.20444489  140.77900696    0.11000000    0.01000000
   20.20777893  167.51499939    0.11000000    0.01000000
   20.21111107  159.13999939    0.11000000    0.01000000
   20.21416664  158.24600220    0.11000000    0.01000000
   20.21750069  176.56199646    0.11000000    0.01000000
   20.22083473  160.81900024    0.11000000    0.01000000
   20.22389030  151.66499329    0.11000000    0.01000000
   20.22722244  166.39799500    0.11000000    0.01000000
   20.23166656  166.39799500    0.11000000    0.01000000
   20.23583412  170.34300232    0.11000000    0.01000000
   20.23916626  172.70399475    0.11000000    0.01000000
   20.24222183  158.36599731    0.11000000    0.01000000
   20.24555588  153.59700012    0.11000000    0.01000000
   20.24861145  154.22399902    0.11000000    0.01000000
   20.25194359  153.43099976    0.11000000    0.01000000
   20.25527763  183.34100342    0.11000000    0.01000000
   20.25833321  179.21200562    0.11000000    0.01000000
   20.26166725  165.32600403    0.11000000    0.01000000
   20.26611137  165.32600403    0.11000000    0.01000000
   20.27027702  151.67999268    0.11000000    0.01000000
   20.27361107  156.10099792    0.11000000    0.01000000
   20.27666664  161.40699768    0.11000000    0.01000000
   20.28000069  151.43800354    0.11000000    0.01000000
   20.28333282  174.13099670    0.11000000    0.01000000
   20.28638840  145.46699524    0.11000000    0.01000000
   20.28972244  178.75999451    0.11000000    0.01000000
   20.29305458  155.37399292    0.11000000    0.01000000
   20.29611015  164.90100098    0.11000000    0.01000000
   20.30083275  164.90100098    0.11000000    0.01000000
   20.30472183  161.55099487    0.11000000    0.01000000
   20.30805397  164.79200745    0.11000000    0.01000000
   20.31138802  153.82000732    0.11000000    0.01000000
   20.31444359  147.56599426    0.11000000    0.01000000
   20.31777954  162.82699585    0.11000000    0.01000000
   20.32111168  181.82400513    0.11000000    0.01000000
   20.32416725  152.61599731    0.11000000    0.01000000
   20.32750130  165.68099976    0.11000000    0.01000000
   20.33055687  187.83200073    0.11000000    0.01000000
   20.33527756  187.83200073    0.11000000    0.01000000
   20.33944511  138.48800659    0.11000000    0.01000000
   20.34250069  155.42599487    0.11000000    0.01000000
   20.34583473  170.97700500    0.11000000    0.01000000
   20.34916687  139.99499512    0.11000000    0.01000000
   20.35222244  152.08200073    0.11000000    0.01000000
   20.35555649  143.21699524    0.11000000    0.01000000
   20.35861206  140.86700439    0.11000000    0.01000000
   20.36194420  153.75000000    0.11000000    0.01000000
   20.36527824  148.83000183    0.11000000    0.01000000
   20.36972237  148.83000183    0.11000000    0.01000000
   20.37388992  118.24299622    0.11000000    0.01000000
   20.37722206  138.27299500    0.11000000    0.01000000
   20.38027763  140.54499817    0.11000000    0.01000000
   20.38361168  151.36799622    0.11000000    0.01000000
   20.38666725  148.39700317    0.11000000    0.01000000
   20.38999939  152.50100708    0.11000000    0.01000000
   20.39333344  137.31399536    0.11000000    0.01000000
   20.39638901  148.77499390    0.11000000    0.01000000
   20.39972115  148.46800232    0.11000000    0.01000000
   20.40416718  148.46800232    0.11000000    0.01000000
   20.40833282  147.50300598    0.11000000    0.01000000
   20.41166687  138.30299377    0.11000000    0.01000000
   20.41472244  158.39999390    0.11000000    0.01000000
   20.41805458  153.16900635    0.11000000    0.01000000
   20.42138863  160.26800537    0.11000000    0.01000000
   20.42444420  159.06199646    0.11000000    0.01000000
   20.42777634  156.81599426    0.11000000    0.01000000
   20.43083191  168.14799500    0.11000000    0.01000000
   20.43416595  156.59300232    0.11000000    0.01000000
   20.43861008  156.59300232    0.11000000    0.01000000
   20.44277763  144.11999512    0.11000000    0.01000000
   20.44610977  155.65100098    0.11000000    0.01000000
   20.44944382  154.92199707    0.11000000    0.01000000
   20.45250130  161.41900635    0.11000000    0.01000000
   20.45583344  150.37699890    0.11000000    0.01000000
   20.45888901  162.54100037    0.11000000    0.01000000
   20.46222305  144.03500366    0.11000000    0.01000000
   20.46555710  148.42300415    0.11000000    0.01000000
   20.46861076  169.83399963    0.11000000    0.01000000
   20.47333336  169.83399963    0.11000000    0.01000000
   20.47750092  153.51600647    0.11000000    0.01000000
   20.48055649  139.39300537    0.11000000    0.01000000
   20.48388863  144.14199829    0.11000000    0.01000000
   20.48694420  142.04400635    0.11000000    0.01000000
   20.49027824  148.00799561    0.11000000    0.01000000
   20.49361229  133.55999756    0.11000000    0.01000000
   20.49666786  142.91999817    0.11000000    0.01000000
   20.50000000  151.14599609    0.11000000    0.01000000
   20.50333405  143.11500549    0.11000000    0.01000000
   20.50777817  143.11500549    0.11000000    0.01000000
   20.51194382  156.62199402    0.11000000    0.01000000
   20.51499939  150.17199707    0.11000000    0.01000000
   20.51833344  129.86399841    0.11000000    0.01000000
   20.52166557  155.69599915    0.11000000    0.01000000
   20.52472115  147.15100098    0.11000000    0.01000000
   20.52805519  136.22399902    0.11000000    0.01000000
   20.53138924  152.49299622    0.11000000    0.01000000
   20.53444481  145.86300659    0.11000000    0.01000000
   20.53777695  160.29100037    0.11000000    0.01000000
   20.54222107  160.29100037    0.11000000    0.01000000
   20.54638863  153.70899963    0.11000000    0.01000000
   20.54972076  152.98300171    0.11000000    0.01000000
   20.55277634  183.05799866    0.11000000    0.01000000
   20.55611038  180.59899902    0.11000000    0.01000000
   20.55944443  159.13999939    0.11000000    0.01000000
   20.56250000  188.28700256    0.11000000    0.01000000
   20.56583214  157.69400024    0.11000000    0.01000000
   20.56888962  161.16600037    0.11000000    0.01000000
   20.57222366  180.37699890    0.11000000    0.01000000
   20.57666779  180.37699890    0.11000000    0.01000000
   20.58083344  204.24899292    0.11000000    0.01000000
   20.58416748  189.83700562    0.11000000    0.01000000
   20.58750153  184.82099915    0.11000000    0.01000000
   20.59055710  192.84100342    0.11000000    0.01000000
   20.59388924  185.37500000    0.11000000    0.01000000
   20.59694481  181.98699951    0.11000000    0.01000000
   20.60027885  187.41099548    0.11000000    0.01000000
   20.60361099  172.86700439    0.11000000    0.01000000
   20.60666656  174.04499817    0.11000000    0.01000000
   20.61138916  174.04499817    0.11000000    0.01000000
   20.61527824  148.96899414    0.11000000    0.01000000
   20.61861038  166.93299866    0.11000000    0.01000000
   20.62194443  174.18800354    0.11000000    0.01000000
   20.62500000  154.58299255    0.11000000    0.01000000
   20.62833405  163.42100525    0.11000000    0.01000000
   20.63166618  142.49200439    0.11000000    0.01000000
   20.63472176  161.88699341    0.11000000    0.01000000
   20.63805580  142.77299500    0.11000000    0.01000000
   20.64111137  153.82499695    0.11000000    0.01000000
   20.64583397  153.82499695    0.11000000    0.01000000
   20.64999962  153.27200317    0.11000000    0.01000000
   20.65305519  152.35600281    0.11000000    0.01000000
   20.65638924  150.13200378    0.11000000    0.01000000
   20.65972137  149.67799377    0.11000000    0.01000000
   20.66277695  142.61999512    0.11000000    0.01000000
   20.66611099  136.39700317    0.11000000    0.01000000
   20.66944313  162.64199829    0.11000000    0.01000000
   20.67249870  161.51899719    0.11000000    0.01000000
   20.67583275  182.54100037    0.11000000    0.01000000
   20.68027687  182.54100037    0.11000000    0.01000000
   20.68444443  178.38299561    0.11000000    0.01000000
   20.68777657  150.77099609    0.11000000    0.01000000
   20.69083214  161.11999512    0.11000000    0.01000000
   20.69416618  171.76400757    0.11000000    0.01000000
   20.69722176  176.05099487    0.11000000    0.01000000
   20.70055580  169.86599731    0.11000000    0.01000000
   20.70388985  183.65600586    0.11000000    0.01000000
   20.70694542  169.63200378    0.11000000    0.01000000
   20.71027946  163.72300720    0.11000000    0.01000000
   20.71472359  163.72300720    0.11000000    0.01000000
   20.71888924  144.31500244    0.11000000    0.01000000
   20.72222328  142.06900024    0.11000000    0.01000000
   20.72527885  148.85000610    0.11000000    0.01000000
   20.72861099  168.32899475    0.11000000    0.01000000
   20.73194504  161.46800232    0.11000000    0.01000000
   20.73500061  177.46800232    0.11000000    0.01000000
   20.73833275  177.68400574    0.11000000    0.01000000
   20.74166679  189.77900696    0.11000000    0.01000000
   20.74472237  185.15499878    0.11000000    0.01000000
   20.74916649  185.15499878    0.11000000    0.01000000
   20.75333405  143.07499695    0.11000000    0.01000000
   20.75666618  172.03300476    0.11000000    0.01000000
   20.76000023  161.40400696    0.11000000    0.01000000
   20.76305580  157.62699890    0.11000000    0.01000000
   20.76638794  154.77200317    0.11000000    0.01000000
   20.76944351  175.41799927    0.11000000    0.01000000
   20.77277756  137.25599670    0.11000000    0.01000000
   20.77611160  190.71299744    0.11000000    0.01000000
   20.77916718  175.24899292    0.11000000    0.01000000
   20.78388786  175.24899292    0.11000000    0.01000000
   20.78805542  153.85899353    0.11000000    0.01000000
   20.79111099  177.47399902    0.11000000    0.01000000
   20.79444313  157.76699829    0.11000000    0.01000000
   20.79749870  166.72200012    0.11000000    0.01000000
   20.80083275  175.60099792    0.11000000    0.01000000
   20.80416679  194.36300659    0.11000000    0.01000000
   20.80722237  162.75300598    0.11000000    0.01000000
   20.81055450  161.22000122    0.11000000    0.01000000
   20.81388855  164.29899597    0.11000000    0.01000000
   20.81833458  164.29899597    0.11000000    0.01000000
   20.82250023  154.73300171    0.11000000    0.01000000
   20.82555580  175.43800354    0.11000000    0.01000000
   20.82888985  143.03100586    0.11000000    0.01000000
   20.83222389  165.94999695    0.11000000    0.01000000
   20.83527756  168.90100098    0.11000000    0.01000000
   20.83861160  173.81799316    0.11000000    0.01000000
   20.84194565  170.20700073    0.11000000    0.01000000
   20.84500122  131.05700684    0.11000000    0.01000000
   20.84833336  166.78399658    0.11000000    0.01000000
   20.85277748  166.78399658    0.11000000    0.01000000
   20.85694504  152.37500000    0.11000000    0.01000000
   20.86027908  170.69500732    0.11000000    0.01000000
   20.86333466  179.71600342    0.11000000    0.01000000
   20.86666679  172.22599792    0.11000000    0.01000000
   20.86972237  176.24000549    0.11000000    0.01000000
   20.87305641  157.99099731    0.11000000    0.01000000
   20.87638855  155.48500061    0.11000000    0.01000000
   20.87944412  143.60000610    0.11000000    0.01000000
   20.88277817  160.99299622    0.11000000    0.01000000
   20.88722229  160.99299622    0.11000000    0.01000000
   20.89138794  196.66999817    0.11000000    0.01000000
   20.89472198  189.80099487    0.11000000    0.01000000
   20.89777756  188.08500671    0.11000000    0.01000000
   20.90111160  205.91900635    0.11000000    0.01000000
   20.90444374  198.78500366    0.11000000    0.01000000
   20.90749931  196.50500488    0.11000000    0.01000000
   20.91083336  219.47799683    0.11000000    0.01000000
   20.91416550  202.77400208    0.11000000    0.01000000
   20.91722107  247.00199890    0.11000000    0.01000000
   20.92194366  247.00199890    0.11000000    0.01000000
   20.92611122  283.43399048    0.11000000    0.01000000
   20.92916679  263.36700439    0.11000000    0.01000000
   20.93249893  204.97200012    0.11000000    0.01000000
   20.93555450  234.13099670    0.11000000    0.01000000
   20.93888855  228.80700684    0.11000000    0.01000000
   20.94222069  179.47099304    0.11000000    0.01000000
   20.94527626  214.02400208    0.11000000    0.01000000
   20.94861031  188.63999939    0.11000000    0.01000000
   20.95194435  191.83399963    0.11000000    0.01000000
   20.95639038  191.83399963    0.11000000    0.01000000
   20.96055603  200.44299316    0.11000000    0.01000000
   20.96361160  221.93200684    0.11000000    0.01000000
   20.96694565  228.88299561    0.11000000    0.01000000
   20.97027779  179.89999390    0.11000000    0.01000000
   20.97333336  233.07699585    0.11000000    0.01000000
   20.97666740  196.54100037    0.11000000    0.01000000
   20.97972298  160.25900269    0.11000000    0.01000000
   20.98305511  173.49899292    0.11000000    0.01000000
   20.98638916  179.80299377    0.11000000    0.01000000
   20.99083328  179.80299377    0.11000000    0.01000000
   20.99500084  205.50900269    0.11000000    0.01000000
   20.99805641  225.72200012    0.11000000    0.01000000
   21.00138855  190.10099792    0.11000000    0.01000000
   21.00472260  221.07000732    0.11000000    0.01000000
   21.00777817  215.62199402    0.11000000    0.01000000
   21.01111031  197.74899292    0.11000000    0.01000000
   21.01444435  201.84599304    0.11000000    0.01000000
   21.01749992  197.51100159    0.11000000    0.01000000
   21.02083397  178.64199829    0.11000000    0.01000000
   21.02527809  178.64199829    0.11000000    0.01000000
   21.02944374  213.43800354    0.11000000    0.01000000
   21.03277779  258.55599976    0.11000000    0.01000000
   21.03583336  202.41400146    0.11000000    0.01000000
   21.03916550  213.41200256    0.11000000    0.01000000
   21.04249954  216.27799988    0.11000000    0.01000000
   21.04555511  218.65499878    0.11000000    0.01000000
   21.04888916  208.69000244    0.11000000    0.01000000
   21.05194283  235.24099731    0.11000000    0.01000000
   21.05527687  229.81300354    0.11000000    0.01000000
   21.05972099  229.81300354    0.11000000    0.01000000
   21.06388855  257.27899170    0.11000000    0.01000000
   21.06722260  219.03100586    0.11000000    0.01000000
   21.07055664  181.94500732    0.11000000    0.01000000
   21.07361221  246.37600708    0.11000000    0.01000000
   21.07694626  211.64300537    0.11000000    0.01000000
   21.08000183  180.63999939    0.11000000    0.01000000
   21.08333397  198.71600342    0.11000000    0.01000000
   21.08666801  189.09599304    0.11000000    0.01000000
   21.08972359  178.70399475    0.11000000    0.01000000
   21.11055565  178.70399475    0.11000000    0.01000000
   21.11472321  189.22300720    0.11000000    0.01000000
   21.11777878  218.07699585    0.11000000    0.01000000
   21.12111092  192.07000732    0.11000000    0.01000000
   21.12444496  186.63999939    0.11000000    0.01000000
   21.12750053  203.62300110    0.11000000    0.01000000
   21.13083267  168.65400696    0.11000000    0.01000000
   21.13388824  196.32099915    0.11000000    0.01000000
   21.13722229  168.60000610    0.11000000    0.01000000
   21.14055634  154.27600098    0.11000000    0.01000000
   21.14500046  154.27600098    0.11000000    0.01000000
   21.14916611  222.07800293    0.11000000    0.01000000
   21.15222168  216.57299805    0.11000000    0.01000000
   21.15555573  182.04100037    0.11000000    0.01000000
   21.15861130  146.96200562    0.11000000    0.01000000
   21.16194344  169.36500549    0.11000000    0.01000000
   21.16527748  187.13600159    0.11000000    0.01000000
   21.16833305  190.25199890    0.11000000    0.01000000
   21.17166519  177.36500549    0.11000000    0.01000000
   21.17499924  189.73699951    0.11000000    0.01000000
   21.17944336  189.73699951    0.11000000    0.01000000
   21.18361092  161.64399719    0.11000000    0.01000000
   21.18666649  179.23199463    0.11000000    0.01000000
   21.18999863  197.00700378    0.11000000    0.01000000
   21.19333267  143.08399963    0.11000000    0.01000000
   21.19666672  185.18299866    0.11000000    0.01000000
   21.19972038  170.19200134    0.11000000    0.01000000
   21.20305634  179.09399414    0.11000000    0.01000000
   21.20611191  172.03500366    0.11000000    0.01000000
   21.20944595  162.59300232    0.11000000    0.01000000
   21.21389008  162.59300232    0.11000000    0.01000000
   21.21805573  167.72599792    0.11000000    0.01000000
   21.22138977  154.40400696    0.11000000    0.01000000
   21.22444534  168.28999329    0.11000000    0.01000000
   21.22777748  174.04600525    0.11000000    0.01000000
   21.23083305  160.34700012    0.11000000    0.01000000
   21.23416710  173.50399780    0.11000000    0.01000000
   21.23750114  154.53199768    0.11000000    0.01000000
   21.24055672  152.88000488    0.11000000    0.01000000
   21.24388885  156.68299866    0.11000000    0.01000000
   21.24833298  156.68299866    0.11000000    0.01000000
   21.25250053  156.76699829    0.11000000    0.01000000
   21.25583267  162.00700378    0.11000000    0.01000000
   21.25888824  164.54299927    0.11000000    0.01000000
   21.26222229  151.67199707    0.11000000    0.01000000
   21.26555634  154.85400391    0.11000000    0.01000000
   21.26861000  148.99800110    0.11000000    0.01000000
   21.27194405  168.99699402    0.11000000    0.01000000
   21.27527809  166.85299683    0.11000000    0.01000000
   21.27833366  162.60699463    0.11000000    0.01000000
   21.28305435  162.60699463    0.11000000    0.01000000
   21.28694344  155.48800659    0.11000000    0.01000000
   21.29027748  171.54299927    0.11000000    0.01000000
   21.29361153  177.88000488    0.11000000    0.01000000
   21.29666710  180.14599609    0.11000000    0.01000000
   21.29999924  217.30499268    0.11000000    0.01000000
   21.30333328  168.83999634    0.11000000    0.01000000
   21.30638885  169.63099670    0.11000000    0.01000000
   21.30972099  169.08099365    0.11000000    0.01000000
   21.31277657  171.63299561    0.11000000    0.01000000
   21.31750107  171.63299561    0.11000000    0.01000000
   21.32166672  172.85200500    0.11000000    0.01000000
   21.32472229  178.60800171    0.11000000    0.01000000
   21.32805634  147.66299438    0.11000000    0.01000000
   21.33139038  167.61900330    0.11000000    0.01000000
   21.33444595  165.30599976    0.11000000    0.01000000
   21.33777809  172.33099365    0.11000000    0.01000000
   21.34083366  178.83500671    0.11000000    0.01000000
   21.34416771  180.09899902    0.11000000    0.01000000
   21.34749985  151.45399475    0.11000000    0.01000000
   21.35194397  151.45399475    0.11000000    0.01000000
   21.35611153  159.54100037    0.11000000    0.01000000
   21.35944557  164.27900696    0.11000000    0.01000000
   21.36250114  170.24099731    0.11000000    0.01000000
   21.36583328  162.24499512    0.11000000    0.01000000
   21.36888885  177.94000244    0.11000000    0.01000000
   21.37222290  171.76199341    0.11000000    0.01000000
   21.37555504  155.91400146    0.11000000    0.01000000
   21.37861061  165.89300537    0.11000000    0.01000000
   21.38194466  177.59300232    0.11000000    0.01000000
   21.38638878  177.59300232    0.11000000    0.01000000
   21.39055634  173.37300110    0.11000000    0.01000000
   21.39388847  189.20199585    0.11000000    0.01000000
   21.39694405  188.91799927    0.11000000    0.01000000
   21.40027809  173.91099548    0.11000000    0.01000000
   21.40361023  177.52299500    0.11000000    0.01000000
   21.40666580  192.69400024    0.11000000    0.01000000
   21.40999985  174.01899719    0.11000000    0.01000000
   21.41333389  175.56399536    0.11000000    0.01000000
   21.41638756  200.93400574    0.11000000    0.01000000
   21.42111015  200.93400574    0.11000000    0.01000000
   21.42499924  177.07099915    0.11000000    0.01000000
   21.42833328  202.08599854    0.11000000    0.01000000
   21.43166542  183.57600403    0.11000000    0.01000000
   21.43472099  175.46400452    0.11000000    0.01000000
   21.43805504  187.16200256    0.11000000    0.01000000
   21.44111061  182.09399414    0.11000000    0.01000000
   21.44444275  190.54400635    0.11000000    0.01000000
   21.44777679  194.74699402    0.11000000    0.01000000
   21.45083427  178.99400330    0.11000000    0.01000000
   21.45555687  178.99400330    0.11000000    0.01000000
   21.45972252  174.41200256    0.11000000    0.01000000
   21.46277809  193.35299683    0.11000000    0.01000000
   21.46611214  179.35099792    0.11000000    0.01000000
   21.46916771  204.78799438    0.11000000    0.01000000
   21.47249985  208.69900513    0.11000000    0.01000000
   21.47583389  211.02200317    0.11000000    0.01000000
   21.47888947  192.30299377    0.11000000    0.01000000
   21.48222351  201.14900208    0.11000000    0.01000000
   21.48555565  216.94599915    0.11000000    0.01000000
   21.48999977  216.94599915    0.11000000    0.01000000
   21.49416733  197.27699280    0.11000000    0.01000000
   21.49722290  221.79800415    0.11000000    0.01000000
   21.50055504  219.17399597    0.11000000    0.01000000
   21.50388908  202.22300720    0.11000000    0.01000000
   21.50694466  221.83200073    0.11000000    0.01000000
   21.51027870  200.18099976    0.11000000    0.01000000
   21.51361084  208.61000061    0.11000000    0.01000000
   21.51666641  195.45799255    0.11000000    0.01000000
   21.52000046  184.97700500    0.11000000    0.01000000
   21.52444458  184.97700500    0.11000000    0.01000000
   21.52861023  160.34500122    0.11000000    0.01000000
   21.53194427  186.35299683    0.11000000    0.01000000
   21.53499985  179.15499878    0.11000000    0.01000000
   21.53833199  230.73300171    0.11000000    0.01000000
   21.54166603  179.13900757    0.11000000    0.01000000
   21.54472160  194.03900146    0.11000000    0.01000000
   21.54805565  225.35600281    0.11000000    0.01000000
   21.55111122  194.16799927    0.11000000    0.01000000
   21.55444336  191.39900208    0.11000000    0.01000000
   21.55888748  191.39900208    0.11000000    0.01000000
   21.56305504  200.45300293    0.11000000    0.01000000
   21.56638718  191.71099854    0.11000000    0.01000000
   21.56944466  163.20199585    0.11000000    0.01000000
   21.57277870  176.72700500    0.11000000    0.01000000
   21.57611275  204.42700195    0.11000000    0.01000000
   21.57916832  198.14100647    0.11000000    0.01000000
   21.58250046  205.58399963    0.11000000    0.01000000
   21.58583450  180.37100220    0.11000000    0.01000000
   21.58889008  207.43499756    0.11000000    0.01000000
   21.59361267  207.43499756    0.11000000    0.01000000
   21.59749985  201.51199341    0.11000000    0.01000000
   21.60083389  183.39999390    0.11000000    0.01000000
   21.60416794  163.49000549    0.11000000    0.01000000
   21.60722351  222.77400208    0.11000000    0.01000000
   21.61055565  171.98199463    0.11000000    0.01000000
   21.61388969  168.76800537    0.11000000    0.01000000
   21.61694527  175.31799316    0.11000000    0.01000000
   21.62027740  202.02600098    0.11000000    0.01000000
   21.62361145  181.87100220    0.11000000    0.01000000
   21.62805557  181.87100220    0.11000000    0.01000000
   21.63222313  159.82299805    0.11000000    0.01000000
   21.63527679  163.05000305    0.11000000    0.01000000
   21.63861084  147.60200500    0.11000000    0.01000000
   21.64194489  176.55200195    0.11000000    0.01000000
   21.64500046  173.08500671    0.11000000    0.01000000
   21.64833260  180.69099426    0.11000000    0.01000000
   21.65138817  168.26600647    0.11000000    0.01000000
   21.65472221  153.70899963    0.11000000    0.01000000
   21.65805435  176.59100342    0.11000000    0.01000000
   21.66250038  176.59100342    0.11000000    0.01000000
   21.66666603  146.08299255    0.11000000    0.01000000
   21.67000008  141.08599854    0.11000000    0.01000000
   21.67305565  180.91900635    0.11000000    0.01000000
   21.67638779  159.70399475    0.11000000    0.01000000
   21.67944336  145.21200562    0.11000000    0.01000000
   21.68277740  174.29400635    0.11000000    0.01000000
   21.68610954  186.27600098    0.11000000    0.01000000
   21.68916512  145.77099609    0.11000000    0.01000000
   21.69249916  148.05000305    0.11000000    0.01000000
   21.69694328  148.05000305    0.11000000    0.01000000
   21.70111275  159.69000244    0.11000000    0.01000000
   21.70444489  160.86799622    0.11000000    0.01000000
   21.70750046  171.38499451    0.11000000    0.01000000
   21.71083450  164.29600525    0.11000000    0.01000000
   21.71416664  151.40400696    0.11000000    0.01000000
   21.71722221  141.93099976    0.11000000    0.01000000
   21.72055626  173.73100281    0.11000000    0.01000000
   21.72389030  175.91499329    0.11000000    0.01000000
   21.72694588  166.33700562    0.11000000    0.01000000
   21.73166656  166.33700562    0.11000000    0.01000000
   21.73555565  160.21299744    0.11000000    0.01000000
   21.73888969  156.83399963    0.11000000    0.01000000
   21.74222183  187.89799500    0.11000000    0.01000000
   21.74527740  187.61000061    0.11000000    0.01000000
   21.74861145  174.63200378    0.11000000    0.01000000
   21.75166702  143.41000366    0.11000000    0.01000000
   21.75499916  170.50500488    0.11000000    0.01000000
   21.75833321  181.40499878    0.11000000    0.01000000
   21.76138878  152.50300598    0.11000000    0.01000000
   21.76611137  152.50300598    0.11000000    0.01000000
   21.77027702  162.07499695    0.11000000    0.01000000
   21.77333260  161.61399841    0.11000000    0.01000000
   21.77666664  162.64100647    0.11000000    0.01000000
   21.77972221  164.42999268    0.11000000    0.01000000
   21.78305435  166.51899719    0.11000000    0.01000000
   21.78638840  188.97099304    0.11000000    0.01000000
   21.78944397  150.13699341    0.11000000    0.01000000
   21.79277802  171.77200317    0.11000000    0.01000000
   21.79611015  178.42599487    0.11000000    0.01000000
   21.80055428  178.42599487    0.11000000    0.01000000
   21.80472183  170.01499939    0.11000000    0.01000000
   21.80777740  174.24400330    0.11000000    0.01000000
   21.81110954  168.65199280    0.11000000    0.01000000
   21.81444359  169.14300537    0.11000000    0.01000000
   21.81750107  206.17599487    0.11000000    0.01000000
   21.82083511  169.50599670    0.11000000    0.01000000
   21.82416725  169.57000732    0.11000000    0.01000000
   21.82722282  157.17700195    0.11000000    0.01000000
   21.83055687  168.59199524    0.11000000    0.01000000
   21.83500099  168.59199524    0.11000000    0.01000000
   21.83916664  164.92300415    0.11000000    0.01000000
   21.84250069  164.52099609    0.11000000    0.01000000
   21.84555626  164.96400452    0.11000000    0.01000000
   21.84889030  129.85800171    0.11000000    0.01000000
   21.85222244  189.15100098    0.11000000    0.01000000
   21.85527802  168.94200134    0.11000000    0.01000000
   21.85861206  154.83599854    0.11000000    0.01000000
   21.86166763  170.67500305    0.11000000    0.01000000
   21.86499977  187.13499451    0.11000000    0.01000000
   21.86944389  187.13499451    0.11000000    0.01000000
   21.87361145  187.12100220    0.11000000    0.01000000
   21.87694550  171.55099487    0.11000000    0.01000000
   21.88027763  167.33799744    0.11000000    0.01000000
   21.88333321  181.10299683    0.11000000    0.01000000
   21.88666725  197.28199768    0.11000000    0.01000000
   21.88972282  186.36300659    0.11000000    0.01000000
   21.89305496  169.11300659    0.11000000    0.01000000
   21.89638901  189.93200684    0.11000000    0.01000000
   21.89944458  177.44799805    0.11000000    0.01000000
   21.90416718  177.44799805    0.11000000    0.01000000
   21.90833282  195.66000366    0.11000000    0.01000000
   21.91138840  183.03799438    0.11000000    0.01000000
   21.91472244  165.70399475    0.11000000    0.01000000
   21.91777802  222.08399963    0.11000000    0.01000000
   21.92111015  170.09500122    0.11000000    0.01000000
   21.92444420  209.19599915    0.11000000    0.01000000
   21.92749977  182.27600098    0.11000000    0.01000000
   21.93083191  207.28300476    0.11000000    0.01000000
   21.93416595  222.04299927    0.11000000    0.01000000
   21.93861008  222.04299927    0.11000000    0.01000000
   21.94277763  197.45100403    0.11000000    0.01000000
   21.94583321  199.43899536    0.11000000    0.01000000
   21.94916534  181.80700684    0.11000000    0.01000000
   21.95250130  212.38800049    0.11000000    0.01000000
   21.95555687  223.09700012    0.11000000    0.01000000
   21.95888901  222.45500183    0.11000000    0.01000000
   21.96222305  189.60400391    0.11000000    0.01000000
   21.96527863  251.20599365    0.11000000    0.01000000
   21.96861076  217.65600586    0.11000000    0.01000000
   21.97305679  217.65600586    0.11000000    0.01000000
   21.97722244  220.01800537    0.11000000    0.01000000
   21.98055649  223.19599915    0.11000000    0.01000000
   21.98361206  188.49800110    0.11000000    0.01000000
   21.98694420  202.95799255    0.11000000    0.01000000
   21.98999977  249.22700500    0.11000000    0.01000000
   21.99333382  245.50999451    0.11000000    0.01000000
   21.99666786  192.36799622    0.11000000    0.01000000
   21.99972153  247.55900574    0.11000000    0.01000000
   22.00305557  253.83299255    0.11000000    0.01000000
   22.00749969  253.83299255    0.11000000    0.01000000
   22.01166725  249.99099731    0.11000000    0.01000000
   22.01499939  239.72700500    0.11000000    0.01000000
   22.01805496  260.28799438    0.11000000    0.01000000
   22.02138901  351.07800293    0.11000000    0.01000000
   22.02333260  461.91299438    0.11000000    0.01000000
   22.02472115  480.10198975    0.11000000    0.01000000
   22.02611160  511.40200806    0.11000000    0.01000000
   22.02750015  320.39498901    0.11000000    0.01000000
   22.02888870  176.60899353    0.11000000    0.01000000
   22.02888870  249.99099731    0.11000000    0.01000000
   22.02916718  239.72700500    0.11000000    0.01000000
   22.02916718  260.28799438    0.11000000    0.01000000
   22.02916718  351.07800293    0.11000000    0.01000000
   22.02944374  249.22700500    0.11000000    0.01000000
   22.02944374  245.50999451    0.11000000    0.01000000
   22.02944374  192.36799622    0.11000000    0.01000000
   22.02972221  247.55900574    0.11000000    0.01000000
   22.02972221  253.83299255    0.11000000    0.01000000
   22.03027725  138.51400757    0.11000000    0.01000000
   22.03361130  123.11499786    0.11000000    0.01000000
   22.03666687   82.49259949    0.11000000    0.01000000
   22.03999901   -1.00000000    0.11000000    0.01000000
   22.04333305   -1.00000000    0.11000000    0.01000000
   22.05388832   -1.00000000    0.11000000    0.01000000
   22.05694389   -1.00000000    0.11000000    0.01000000
   22.06027794   -1.00000000    0.11000000    0.01000000
   22.06361008   -1.00000000    0.11000000    0.01000000
   22.06694603   -1.00000000    0.11000000    0.01000000
   22.07000160   -1.00000000    0.11000000    0.01000000
   22.07333374   -1.00000000    0.11000000    0.01000000
   22.07666779   -1.00000000    0.11000000    0.01000000
   22.07972336   -1.00000000    0.11000000    0.01000000
   22.08833313   -1.00000000    0.11000000    0.01000000
   22.09138870   -1.00000000    0.11000000    0.01000000
   22.09472275   -1.00000000    0.11000000    0.01000000
   22.09833336   -1.00000000    0.11000000    0.01000000
   22.10166740   -1.00000000    0.11000000    0.01000000
   22.10472298   -1.00000000    0.11000000    0.01000000
   22.13111115   -1.00000000    0.11000000    0.01000000
   22.13444519   -1.00000000    0.11000000    0.01000000
   22.13777733   -1.00000000    0.11000000    0.01000000
   22.14083290   -1.00000000    0.11000000    0.01000000
   22.14416695   -1.00000000    0.11000000    0.01000000
   22.14722252   -1.00000000    0.11000000    0.01000000
   22.15055466   -1.00000000    0.11000000    0.01000000
   22.15388870   -1.00000000    0.11000000    0.01000000
   22.15694427   -1.00000000    0.11000000    0.01000000
   22.16555595   -1.00000000    0.11000000    0.01000000
   22.16888809   -1.00000000    0.11000000    0.01000000
   22.17194366   -1.00000000    0.11000000    0.01000000
   22.17527771   -1.00000000    0.11000000    0.01000000
   22.17860985   -1.00000000    0.11000000    0.01000000
   22.18166542   -1.00000000    0.11000000    0.01000000
   22.18499947   -1.00000000    0.11000000    0.01000000
   22.18833160   -1.00000000    0.11000000    0.01000000
   22.19138718   -1.00000000    0.11000000    0.01000000
   22.20000076   -1.00000000    0.11000000    0.01000000
   22.20333481   -1.00000000    0.11000000    0.01000000
   22.20666695   -1.00000000    0.11000000    0.01000000
   22.20972252   -1.00000000    0.11000000    0.01000000
   22.21305656   -1.00000000    0.11000000    0.01000000
   22.21611214   -1.00000000    0.11000000    0.01000000
   22.21944427   -1.00000000    0.11000000    0.01000000
   22.22277832   -1.00000000    0.11000000    0.01000000
   22.22583389   -1.00000000    0.11000000    0.01000000
