    HOUR (UT)   FLARE FACTOR    SKY TESTER    SUN TESTER
   10.24333382   -1.00000000   -1.00000000   -1.00000000
   10.27861118  127.23100281    4.11999989    1.58000004
   10.28277779  133.97200012    4.13999987    1.58000004
   10.28722286  127.02200317    4.13999987    1.58000004
   10.29027843  167.45700073    4.13999987    1.58000004
   10.29361153  127.02700043    4.13999987    1.60000002
   10.29694462  158.66900635    4.17999983    1.60000002
   10.30000019  140.87100220    4.17999983    1.60000002
   10.30333328  150.97900391    4.17999983    1.60000002
   10.30638885  174.92799377    4.19999981    1.60000002
   10.30972195  174.19000244    4.19999981    1.61000001
   10.31166649  213.99800110    4.21999979    1.61000001
   10.31333351  165.77600098    4.21999979    1.61000001
   10.31666660  174.36000061    4.21999979    1.63000000
   10.31972218  211.32600403    4.21999979    1.63000000
   10.32305527  191.92599487    4.23999977    1.63000000
   10.32638836  235.64799500    4.21999979    1.63000000
   10.32944393  260.50399780    4.23999977    1.63000000
   10.33277798  282.60699463    4.23999977    1.63000000
   10.33611107  282.85101318    4.23999977    1.63000000
   10.33916664  295.53201294    4.23999977    1.64999998
   10.34249973  339.99099731    4.26000023    1.64999998
   10.34444427  313.22299194    4.23999977    1.64999998
   10.34583282  377.93099976    4.23999977    1.64999998
   10.34722233  337.06900024    4.23999977    1.66999996
   10.34861088  380.78201294    4.23999977    1.66999996
   10.35000038  364.37500000    4.23999977    1.64999998
   10.35138893  343.36999512    4.23999977    1.66999996
   10.35277843  413.85598755    4.21999979    1.66999996
   10.35416698  438.64801025    4.21999979    1.66999996
   10.35555553  376.83700562    4.21999979    1.66999996
   10.35694504  437.69299316    4.21999979    1.66999996
   10.35833359  387.57299805    4.23999977    1.66999996
   10.35972214  493.22299194    4.21999979    1.66999996
   10.36111164  434.00799561    4.23999977    1.66999996
   10.36250019  477.72100830    4.21999979    1.69000006
   10.36388969  394.01901245    4.21999979    1.69000006
   10.36527824  385.77801514    4.21999979    1.69000006
   10.36666679  459.32299805    4.21999979    1.69000006
   10.36805534  471.74398804    4.19999981    1.69000006
   10.36944485  438.60198975    4.19999981    1.69000006
   10.37083340  518.90997314    4.19999981    1.69000006
   10.37222195  407.20800781    4.19999981    1.69000006
   10.37361145  410.51098633    4.19999981    1.71000004
   10.37500000  494.23199463    4.19999981    1.71000004
   10.37638855  437.56298828    4.19999981    1.71000004
   10.37777805  446.44900513    4.19999981    1.71000004
   10.37916660  466.45700073    4.19999981    1.71000004
   10.38055611  462.07800293    4.17999983    1.71000004
   10.38194466  498.40899658    4.19999981    1.71000004
   10.38333321  472.14700317    4.17999983    1.71000004
   10.38472176  496.51199341    4.19999981    1.71000004
   10.38611126  509.65499878    4.17999983    1.71000004
   10.38749981  473.77499390    4.17999983    1.71000004
   10.38888836  487.65499878    4.19999981    1.71000004
   10.39027786  462.07199097    4.21999979    1.73000002
   10.39166641  471.85800171    4.23999977    1.73000002
   10.39305496  453.67300415    4.17999983    1.73000002
   10.39444447  479.15399170    4.17999983    1.73000002
   10.39583302  460.48901367    4.19999981    1.73000002
   10.39722252  450.05200195    4.17999983    1.73000002
   10.39861107  524.18298340    4.19999981    1.75000000
   10.39999962  508.67401123    4.19999981    1.75000000
   10.40138817  438.28100586    4.19999981    1.75000000
   10.40277767  481.66699219    4.19999981    1.75000000
   10.40416622  503.60198975    4.17999983    1.75000000
   10.40555477  473.76199341    4.17999983    1.75000000
   10.40694427  486.45001221    4.17999983    1.75000000
   10.40833282  415.37298584    4.17999983    1.75000000
   10.40972137  421.98199463    4.15999985    1.75000000
   10.41111088  449.10198975    4.17999983    1.75000000
   10.41249943  424.72698975    4.17999983    1.75000000
   10.41388893  452.98699951    4.17999983    1.75000000
   10.41527748  458.10400391    4.15999985    1.75000000
   10.41666698  481.08801270    4.17999983    1.75000000
   10.41805553  413.24798584    4.15999985    1.76999998
   10.41944504  428.40399170    4.15999985    1.76999998
   10.42083359  446.41400146    4.15999985    1.76999998
   10.42222214  431.67898560    4.17999983    1.76999998
   10.42361164  436.64700317    4.17999983    1.76999998
   10.42500019  433.33801270    4.17999983    1.76999998
   10.42638874  437.12100220    4.17999983    1.76999998
   10.42777824  425.46200562    4.19999981    1.76999998
   10.42916679  420.17098999    4.15999985    1.76999998
   10.43055630  444.28601074    4.17999983    1.78999996
   10.43194485  494.62899780    4.17999983    1.78999996
   10.43333340  500.39599609    4.17999983    1.78999996
   10.43472195  424.31600952    4.15999985    1.78999996
   10.43611145  397.03900146    4.15999985    1.78999996
   10.43750000  449.27700806    4.17999983    1.78999996
   10.43888855  431.62200928    4.15999985    1.78999996
   10.44027805  414.11700439    4.15999985    1.78999996
   10.44166660  499.35598755    4.15999985    1.78999996
   10.44305515  450.41400146    4.15999985    1.78999996
   10.44444466  413.61999512    4.17999983    1.78999996
   10.44583321  451.05099487    4.15999985    1.78999996
   10.44722271  456.45999146    4.17999983    1.78999996
   10.44861126  466.51000977    4.15999985    1.78999996
   10.44999981  443.23498535    4.17999983    1.80999994
   10.45138836  407.04000854    4.17999983    1.80999994
   10.45277786  395.18600464    4.17999983    1.80999994
   10.45416641  416.15399170    4.17999983    1.80999994
   10.45555496  428.00201416    4.17999983    1.83000004
   10.45694447  442.01400757    4.17999983    1.83000004
   10.45833302  421.36099243    4.17999983    1.80999994
   10.45972157  412.10400391    4.15999985    1.83000004
   10.46111107  394.02499390    4.15999985    1.83000004
   10.46249962  387.30200195    4.15999985    1.83000004
   10.46388912  450.39898682    4.15999985    1.83000004
   10.46527767  344.61700439    4.15999985    1.83000004
   10.46666622  401.23001099    4.15999985    1.83000004
   10.46805477  363.68099976    4.13999987    1.83000004
   10.46944427  382.73001099    4.13999987    1.83000004
   10.47083282  367.00100708    4.13999987    1.83000004
   10.47222137  444.70498657    4.15999985    1.83000004
   10.47361088  369.71301270    4.13999987    1.83000004
   10.47499943  392.02801514    4.13999987    1.83000004
   10.47638798  382.93899536    4.13999987    1.83000004
   10.47777748  399.78601074    4.11999989    1.83000004
   10.47916603  374.70001221    4.15999985    1.83000004
   10.48055553  432.86801147    4.15999985    1.85000002
   10.48194408  348.52700806    4.13999987    1.83000004
   10.48333359  364.53100586    4.15999985    1.85000002
   10.48472214  436.65499878    4.17999983    1.85000002
   10.48611164  485.24200439    4.15999985    1.85000002
   10.48750019  403.68701172    4.17999983    1.85000002
   10.48888874  410.77801514    4.15999985    1.85000002
   10.49027824  343.96600342    4.15999985    1.85000002
   10.49166679  348.37399292    4.13999987    1.85000002
   10.49305534  356.81399536    4.13999987    1.85000002
   10.49444485  347.19000244    4.15999985    1.86000001
   10.49583340  344.07000732    4.15999985    1.86000001
   10.49722290  352.32101440    4.15999985    1.86000001
   10.49861145  368.12600708    4.17999983    1.86000001
   10.50000000  327.48199463    4.15999985    1.86000001
   10.50138855  356.72698975    4.15999985    1.86000001
   10.50277805  355.33599854    4.13999987    1.86000001
   10.50416660  374.07299805    4.15999985    1.86000001
   10.50555515  370.43301392    4.15999985    1.86000001
   10.50694466  349.64498901    4.15999985    1.86000001
   10.50833321  391.02499390    4.13999987    1.86000001
   10.50972176  364.66598511    4.19999981    1.86000001
   10.51111126  329.65499878    4.15999985    1.86000001
   10.51249981  365.79598999    4.15999985    1.86000001
   10.51388931  357.27899170    4.17999983    1.86000001
   10.51527786  386.39801025    4.13999987    1.86000001
   10.51666641  355.75100708    4.15999985    1.86000001
   10.51805496  364.37799072    4.13999987    1.86000001
   10.51944447  315.62399292    4.13999987    1.86000001
   10.52083302  335.71301270    4.13999987    1.88000000
   10.52222157  358.58898926    4.13999987    1.88000000
   10.52361107  342.06399536    4.15999985    1.88000000
   10.52499962  370.06399536    4.13999987    1.88000000
   10.52638817  337.35400391    4.13999987    1.88000000
   10.52777767  325.94500732    4.15999985    1.88000000
   10.52916622  369.84100342    4.13999987    1.89999998
   10.53055573  336.76998901    4.15999985    1.89999998
   10.53194427  399.23498535    4.13999987    1.88000000
   10.53333378  330.45999146    4.15999985    1.89999998
   10.53472233  346.15600586    4.15999985    1.89999998
   10.53611183  329.82800293    4.17999983    1.89999998
   10.53750038  353.73699951    4.13999987    1.89999998
   10.53888893  381.54000854    4.17999983    1.89999998
   10.54027843  347.19601440    4.17999983    1.89999998
   10.54166698  343.58401489    4.17999983    1.89999998
   10.54305553  379.10900879    4.15999985    1.89999998
   10.54472256  335.67898560    4.17999983    1.89999998
   10.54583359  345.95599365    4.17999983    1.89999998
   10.54722309  310.07800293    4.17999983    1.89999998
   10.54861164  336.97198486    4.17999983    1.89999998
   10.55000019  358.48498535    4.19999981    1.89999998
   10.55138874  317.76998901    4.17999983    1.89999998
   10.55277824  315.96200562    4.19999981    1.89999998
   10.55416679  298.73999023    4.19999981    1.89999998
   10.55555534  319.88198853    4.21999979    1.91999996
   10.55694485  301.24499512    4.19999981    1.89999998
   10.55833340  312.80398560    4.19999981    1.89999998
   10.55972195  311.46499634    4.21999979    1.91999996
   10.56111145  321.65499878    4.19999981    1.91999996
   10.56250000  299.96200562    4.21999979    1.91999996
   10.56388950  321.65701294    4.19999981    1.91999996
   10.56527805  323.05700684    4.19999981    1.91999996
   10.56666660  301.03201294    4.19999981    1.91999996
   10.56805515  313.89401245    4.21999979    1.91999996
   10.56944466  305.25299072    4.23999977    1.91999996
   10.57083321  324.74200439    4.26000023    1.94000006
   10.57222176  306.80899048    4.23999977    1.94000006
   10.57361126  305.31298828    4.21999979    1.94000006
   10.57499981  302.10699463    4.19999981    1.94000006
   10.57638836  356.42300415    4.21999979    1.94000006
   10.57777786  316.06201172    4.19999981    1.94000006
   10.57916641  313.70498657    4.19999981    1.94000006
   10.58055592  307.80200195    4.19999981    1.94000006
   10.58194447  334.47500610    4.19999981    1.94000006
   10.58333302  288.65600586    4.19999981    1.94000006
   10.58472157  326.93701172    4.19999981    1.94000006
   10.58611107  311.77099609    4.17999983    1.94000006
   10.58749962  312.77700806    4.19999981    1.94000006
   10.58888817  324.12298584    4.17999983    1.94000006
   10.59027767  302.10101318    4.19999981    1.94000006
   10.59166622  291.03500366    4.21999979    1.94000006
   10.59305477  300.32501221    4.19999981    1.94000006
   10.59444427  300.24398804    4.19999981    1.94000006
   10.59583282  298.26699829    4.21999979    1.96000004
   10.59722233  306.30999756    4.19999981    1.96000004
   10.59861088  303.70001221    4.17999983    1.96000004
   10.60000038  294.04501343    4.19999981    1.96000004
   10.60138893  280.14300537    4.19999981    1.96000004
   10.60277843  295.97299194    4.19999981    1.96000004
   10.60416698  295.82299805    4.19999981    1.96000004
   10.60555553  329.69799805    4.19999981    1.98000002
   10.60694504  276.21899414    4.17999983    1.96000004
   10.60833359  321.89401245    4.19999981    1.96000004
   10.60972214  299.62799072    4.19999981    1.96000004
   10.61111164  298.58599854    4.19999981    1.96000004
   10.61250019  269.88299561    4.17999983    1.96000004
   10.61388969  278.47601318    4.17999983    1.96000004
   10.61527824  309.78500366    4.19999981    1.98000002
   10.61666679  307.05700684    4.19999981    1.98000002
   10.61805534  280.28698730    4.19999981    1.98000002
   10.61944485  297.55398560    4.19999981    1.98000002
   10.62083340  275.87298584    4.19999981    1.98000002
   10.62222195  319.77398682    4.19999981    1.98000002
   10.62361145  266.12899780    4.23999977    1.98000002
   10.62500000  291.05700684    4.21999979    1.98000002
   10.62638855  298.35998535    4.21999979    1.98000002
   10.62777805  288.99099731    4.23999977    1.98000002
   10.62916660  279.07299805    4.21999979    1.98000002
   10.63055611  285.03900146    4.23999977    1.98000002
   10.63194466  304.07800293    4.23999977    1.98000002
   10.63333321  293.15701294    4.19999981    1.98000002
   10.63472176  283.19198608    4.21999979    2.00000000
   10.63611126  312.31399536    4.21999979    1.98000002
   10.63749981  282.41799927    4.23999977    2.00000000
   10.63888836  304.77200317    4.23999977    2.00000000
   10.64027786  262.76699829    4.23999977    2.00000000
   10.64166641  289.35998535    4.21999979    1.98000002
   10.64305496  267.09600830    4.21999979    1.98000002
   10.64444447  262.64498901    4.23999977    2.00000000
   10.64583302  263.64801025    4.23999977    2.00000000
   10.64722252  300.40701294    4.21999979    2.00000000
   10.64861107  278.81399536    4.23999977    2.00000000
   10.64999962  278.58898926    4.23999977    2.00000000
   10.65138817  271.93499756    4.23999977    2.00000000
   10.65277767  265.39401245    4.26000023    2.00000000
   10.65416622  300.64898682    4.26000023    2.01999998
   10.65555477  276.97399902    4.26999998    2.01999998
   10.65694427  273.17700195    4.26999998    2.01999998
   10.65833282  277.75399780    4.26999998    2.01999998
   10.65972137  269.98901367    4.26000023    2.01999998
   10.66111088  266.95800781    4.26000023    2.01999998
   10.66249943  281.60900879    4.26999998    2.01999998
   10.66388893  274.23800659    4.23999977    2.01999998
   10.66527748  270.52099609    4.26000023    2.01999998
   10.66666698  277.08599854    4.26999998    2.01999998
   10.66805553  274.50399780    4.26000023    2.01999998
   10.66944504  274.47399902    4.26999998    2.01999998
   10.67083359  265.89199829    4.26000023    2.01999998
   10.67222214  312.30700684    4.26999998    2.01999998
   10.67361164  264.79598999    4.26000023    2.01999998
   10.67500019  279.23098755    4.26000023    2.03999996
   10.67638874  294.56399536    4.23999977    2.03999996
   10.67777824  305.85000610    4.26000023    2.03999996
   10.67916679  288.73498535    4.26000023    2.03999996
   10.68055630  268.00601196    4.26000023    2.01999998
   10.68194485  279.48999023    4.26000023    2.01999998
   10.68333340  265.23400879    4.26000023    2.03999996
   10.68472195  266.07101440    4.26000023    2.03999996
   10.68611145  279.99798584    4.26000023    2.01999998
   10.68750000  256.94100952    4.26999998    2.03999996
   10.68888855  274.76199341    4.26000023    2.03999996
   10.69027805  263.22500610    4.23999977    2.03999996
   10.69166660  263.14999390    4.28999996    2.03999996
   10.69305515  245.72599792    4.23999977    2.03999996
   10.69305515  339.99099731    4.26000023    1.64999998
   10.69333363  174.36000061    4.21999979    1.63000000
   10.69333363  211.32600403    4.21999979    1.63000000
   10.69333363  191.92599487    4.23999977    1.63000000
   10.69361115  235.64799500    4.21999979    1.63000000
   10.69361115  260.50399780    4.23999977    1.63000000
   10.69388866  282.60699463    4.23999977    1.63000000
   10.69388866  282.85101318    4.23999977    1.63000000
   10.69388866  295.53201294    4.23999977    1.64999998
   10.69444466  258.90301514    4.23999977    2.03999996
   10.69777775  268.57299805    4.21999979    2.03999996
   10.70111084  252.31399536    4.21999979    2.05999994
   10.70416641  258.89999390    4.23999977    2.05999994
   10.70749950  258.00900269    4.23999977    2.05999994
   10.71388912  258.00900269    4.23999977    2.05999994
   10.71805477  259.47000122    4.26999998    2.05999994
   10.72138882  240.19400024    4.26999998    2.05999994
   10.72444439  240.17900085    4.26000023    2.05999994
   10.72694397  269.78900146    4.26999998    2.07999992
   10.72833252  256.48300171    4.28999996    2.07999992
   10.73138809  245.39399719    4.28999996    2.07999992
   10.73472214  233.75700378    4.30999994    2.07999992
   10.73805618  239.94200134    4.28999996    2.07999992
   10.74111176  249.88600159    4.28999996    2.07999992
   10.74444485  262.60699463    4.28999996    2.07999992
   10.74750042  254.78399658    4.30999994    2.09999990
   10.75083351  237.85299683    4.30999994    2.09999990
   10.75666714  237.85299683    4.28999996    2.09999990
   10.76083374  226.58799744    4.26000023    2.09999990
   10.76416683  236.54400635    4.26999998    2.09999990
   10.76722240  236.13099670    4.28999996    2.09999990
   10.77055550  244.08099365    4.26000023    2.09999990
   10.77388859  235.06100464    4.30999994    2.09999990
   10.77722168  257.98599243    4.28999996    2.11999989
   10.78055573  252.37100220    4.26999998    2.11999989
   10.78388977  241.16499329    4.26999998    2.11999989
   10.78694534  243.43899536    4.32999992    2.11999989
   10.79027843  262.73098755    4.30999994    2.09999990
   10.79361153  247.65800476    4.30999994    2.13000011
   10.79388905  270.20001221    4.30999994    2.13000011
   10.79944515  270.20001221    4.28999996    2.13000011
   10.80361176  271.74899292    4.36999989    2.13000011
   10.80694485  272.21200562    4.32999992    2.13000011
   10.81027794  282.53201294    4.30999994    2.13000011
   10.81333351  254.57800293    4.32999992    2.13000011
   10.81666660  239.64999390    4.34999990    2.13000011
   10.81999969  242.16700745    4.34999990    2.15000010
   10.82305527  232.02600098    4.34999990    2.15000010
   10.82638836  235.83000183    4.40999985    2.13000011
   10.82750034  223.60499573    4.36999989    2.13000011
   10.82999992  226.84700012    4.34999990    2.13000011
   10.83333302  252.78500366    4.34999990    2.13000011
   10.83638859  239.12800598    4.38999987    2.13000011
   10.84249973  239.12800598    4.40999985    2.13000011
   10.84666634  281.42098999    4.42999983    2.15000010
   10.84972191  325.39700317    4.42999983    2.15000010
   10.85194492  364.35000610    4.40999985    2.15000010
   10.85305595  389.11599731    4.38999987    2.15000010
   10.85444450  426.85400391    4.40999985    2.17000008
   10.85583401  352.49301147    4.40999985    2.17000008
   10.85722256  341.70401001    4.38999987    2.17000008
   10.85861111  350.97198486    4.40999985    2.17000008
   10.86000061  263.05899048    4.42999983    2.17000008
   10.86138916  252.49899292    4.38999987    2.17000008
   10.86277771  267.45498657    4.42999983    2.17000008
   10.86416721  259.53900146    4.40999985    2.17000008
   10.86555576  262.14498901    4.36999989    2.15000010
   10.86694431  233.37600708    4.44999981    2.17000008
   10.86722279  252.78500366    4.34999990    2.13000011
   10.86722279  239.12800598    4.38999987    2.13000011
   10.86722279  281.42098999    4.42999983    2.15000010
   10.86750031  325.39700317    4.42999983    2.15000010
   10.86750031  239.64999390    4.34999990    2.13000011
   10.86750031  242.16700745    4.34999990    2.15000010
   10.86777782  232.02600098    4.34999990    2.15000010
   10.86777782  235.83000183    4.40999985    2.13000011
   10.86777782  226.84700012    4.34999990    2.13000011
   10.86861134  227.15899658    4.38999987    2.17000008
   10.87166691  218.01199341    4.40999985    2.17000008
   10.87500000  241.40100098    4.38999987    2.17000008
   10.87805557  230.18400574    4.42999983    2.17000008
   10.88138866  219.93899536    4.36999989    2.17000008
   10.88777733  219.93899536    4.40999985    2.19000006
   10.89194393  226.44000244    4.36999989    2.19000006
   10.89527798  220.44099426    4.40999985    2.19000006
   10.89833355  221.23100281    4.42999983    2.17000008
   10.90083313  214.40699768    4.42999983    2.17000008
   10.90222168  214.13299561    4.42999983    2.19000006
   10.90555477  219.41700745    4.46999979    2.19000006
   10.90861034  221.61799622    4.46999979    2.21000004
   10.91194439  217.76699829    4.46999979    2.19000006
   10.91499996  222.09199524    4.44999981    2.21000004
   10.91833401  222.40499878    4.46999979    2.21000004
   10.92166710  218.02799988    4.44999981    2.21000004
   10.92472267  272.24301147    4.44999981    2.21000004
   10.93055630  272.24301147    4.44999981    2.21000004
   10.93472195  218.19999695    4.51000023    2.21000004
   10.93805599  218.00799561    4.48999977    2.21000004
   10.94138908  219.88800049    4.51000023    2.21000004
   10.94444466  207.32899475    4.48999977    2.21000004
   10.94777775  223.39799500    4.48999977    2.21000004
   10.95111084  217.48500061    4.44999981    2.21000004
   10.95416641  224.26300049    4.48999977    2.23000002
   10.95749950  220.25700378    4.48999977    2.23000002
   10.96055508  203.01899719    4.48999977    2.23000002
   10.96388912  233.31700134    4.53000021    2.23000002
   10.96722221  227.78700256    4.46999979    2.23000002
   10.96777725  243.87300110    4.53000021    2.23000002
   10.97361088  243.87300110    4.53999996    2.23000002
   10.97777748  232.44999695    4.53000021    2.25000000
   10.98111057  249.36599731    4.53999996    2.25000000
   10.98444462  247.66700745    4.53999996    2.25000000
   10.98777771  237.45700073    4.55999994    2.25000000
   10.99083328  211.70300293    4.53999996    2.25000000
   10.99416733  229.05099487    4.55999994    2.25000000
   10.99750042  223.32499695    4.53999996    2.26999998
   11.00055599  220.39900208    4.57999992    2.25000000
   11.00111103  214.03599548    4.57999992    2.25000000
   11.00416660  220.77200317    4.63999987    2.25000000
   11.00722218  207.04899597    4.57999992    2.25000000
   11.01055527  212.72300720    4.63999987    2.25000000
   11.01638889  212.72300720    4.63999987    2.25000000
   11.02055550  208.42500305    4.63999987    2.26999998
   11.02388859  220.93400574    4.61999989    2.26999998
   11.02694416  222.98800659    4.65999985    2.26999998
   11.03027725  214.39700317    4.76000023    2.26999998
   11.03361130  190.99800110    4.67999983    2.26999998
   11.03444481  193.55799866    4.63999987    2.26999998
   11.03722286  207.54899597    4.63999987    2.26999998
   11.04027843  199.32299805    4.73999977    2.28999996
   11.04361153  200.20199585    4.67999983    2.28999996
   11.04694462  192.40600586    4.67999983    2.28999996
   11.05000019  206.66999817    4.71999979    2.28999996
   11.05333328  201.24200439    4.73999977    2.28999996
   11.05916691  201.24200439    4.69999981    2.28999996
   11.06333351  199.12199402    4.78000021    2.28999996
   11.06666660  190.47799683    4.78000021    2.28999996
   11.06777763  199.96000671    4.76000023    2.28999996
   11.07027817  206.46899414    4.76000023    2.30999994
   11.07361126  195.69900513    4.80999994    2.28999996
   11.07666683  210.72500610    4.82999992    2.28999996
   11.07999992  221.99899292    4.82999992    2.28999996
   11.08305550  224.76600647    4.82999992    2.28999996
   11.08638859  202.03500366    4.80000019    2.28999996
   11.08972168  197.30200195    4.84999990    2.30999994
   11.09277725  180.13099670    4.88999987    2.30999994
   11.09611034  207.25500488    4.82999992    2.30999994
   11.10194492  207.25500488    4.82999992    2.30999994
   11.10611153  203.03799438    4.82999992    2.30999994
   11.10944462  215.98300171    4.80000019    2.30999994
   11.11277771  197.66999817    4.84999990    2.32999992
   11.11583328  205.58799744    4.86999989    2.32999992
   11.11916637  190.67399597    4.84999990    2.32999992
   11.12222195  203.53999329    4.86999989    2.32999992
   11.12555599  202.95500183    4.84999990    2.32999992
   11.12888908  205.90899658    4.82999992    2.32999992
   11.13194466  190.29100037    4.84999990    2.32999992
   11.13444424  203.05799866    4.82999992    2.32999992
   11.13583279  197.96600342    4.80999994    2.34999990
   11.13916683  210.95199585    4.90999985    2.32999992
   11.14499950  210.95199585    4.88999987    2.34999990
   11.14916611  207.40400696    4.86999989    2.32999992
   11.15222168  191.77699280    4.90999985    2.32999992
   11.15555477  194.00599670    4.90999985    2.32999992
   11.15888882  177.21400452    4.90999985    2.32999992
   11.16194439  201.41099548    4.90999985    2.32999992
   11.16527748  193.76899719    4.90999985    2.34999990
   11.16777802  194.32800293    4.90999985    2.34999990
   11.16888905  192.41700745    4.90999985    2.34999990
   11.17194462  190.51300049    4.90999985    2.34999990
   11.17527771  190.21699524    4.90999985    2.34999990
   11.17861176  193.43400574    4.90999985    2.34999990
   11.18166733  193.51699829    4.90999985    2.34999990
   11.18777752  193.51699829    4.90999985    2.34999990
   11.19194412  184.84500122    4.90999985    2.36999989
   11.19499969  198.87899780    4.90999985    2.34999990
   11.19833374  189.67399597    4.90999985    2.36999989
   11.20111084  184.23399353    4.90999985    2.36999989
   11.20194435  184.69200134    4.90999985    2.36999989
   11.20499992  178.40100098    4.90999985    2.36999989
   11.20833302  176.52600098    4.90999985    2.36999989
   11.21166611  169.13400269    4.90999985    2.36999989
   11.21472168  173.94700623    4.90999985    2.36999989
   11.21805477  178.83900452    4.90999985    2.36999989
   11.22138882  188.33099365    4.90999985    2.36999989
   11.22444439  181.41000366    4.90999985    2.36999989
   11.23055553  181.41000366    4.90999985    2.36999989
   11.23472214  181.16200256    4.90999985    2.39000010
   11.23805618  182.78900146    4.90999985    2.36999989
   11.24111176  185.09100342    4.90999985    2.36999989
   11.24444485  185.18099976    4.90999985    2.39000010
   11.24750042  188.77000427    4.90999985    2.36999989
   11.25083351  187.72700500    4.90999985    2.39000010
   11.25416660  178.23899841    4.90999985    2.39000010
   11.25722218  198.94400024    4.90999985    2.39000010
   11.26055527  180.93299866    4.90999985    2.39000010
   11.26388931  173.87500000    4.90999985    2.39000010
   11.26694393  178.24699402    4.90999985    2.39000010
   11.26777744  177.60800171    4.90999985    2.39000010
   11.27333355  177.60800171    4.90999985    2.39000010
   11.27750015  171.00100708    4.90999985    2.40000010
   11.29722309  188.50599670    4.90999985    2.39000010
   11.30027771  181.06399536    4.90999985    2.40000010
   11.30111122  179.15899658    4.90999985    2.40000010
   11.30388927  177.57400513    4.90999985    2.40000010
   11.30722237  188.56300354    4.90999985    2.40000010
   11.31027794  181.14199829    4.90999985    2.40000010
   11.31638908  181.14199829    4.90999985    2.40000010
   11.32055569  186.39700317    4.90999985    2.40000010
   11.32388878  183.40400696    4.90999985    2.40000010
   11.32722187  183.46699524    4.90999985    2.40000010
   11.33027744  189.31599426    4.90999985    2.40000010
   11.33361053  189.87399292    4.90999985    2.40000010
   11.33444405  193.35200500    4.90999985    2.42000008
   11.33722210  199.13400269    4.90999985    2.40000010
   11.34055519  210.25199890    4.90999985    2.40000010
   11.34361076  232.81700134    4.90999985    2.42000008
   11.34694386  212.23100281    4.90999985    2.42000008
   11.35027790  230.66400146    4.90999985    2.42000008
   11.35333347  193.27900696    4.90999985    2.42000008
   11.35944462  193.27900696    4.90999985    2.42000008
   11.36361122  192.70899963    4.90999985    2.42000008
   11.36666679  202.76300049    4.90999985    2.42000008
   11.36777782  194.04200745    4.90999985    2.42000008
   11.37027836  181.70700073    4.90999985    2.42000008
   11.37361145  189.41000366    4.90999985    2.44000006
   11.37666702  185.59899902    4.90999985    2.42000008
   11.38000011  190.81300354    4.90999985    2.44000006
   11.38333321  184.80400085    4.90999985    2.44000006
   11.38638878  192.34800720    4.90999985    2.44000006
   11.38972187  191.01699829    4.90999985    2.42000008
   11.39305496  172.84199524    4.90999985    2.44000006
   11.39611053  182.53999329    4.90999985    2.44000006
   11.40222168  182.53999329    4.90999985    2.44000006
   11.40638828  194.36000061    4.90999985    2.44000006
   11.40944386  235.05700684    4.90999985    2.44000006
   11.41277695  189.88099670    4.90999985    2.44000006
   11.41611099  196.80099487    4.90999985    2.42000008
   11.41916656  199.03599548    4.90999985    2.40000010
   11.42250061  185.13499451    4.90999985    2.44000006
   11.42555618  207.32299805    4.90999985    2.44000006
   11.42888927  169.22200012    4.90999985    2.40000010
   11.43222237  209.55700684    4.90999985    2.36999989
   11.43444443  189.31199646    4.90999985    2.34999990
   11.43583298  198.44999695    4.90999985    2.36999989
   11.43916702  188.58299255    4.90999985    2.44000006
   11.44499969  188.58299255    4.90999985    2.28999996
   11.44916630  227.17100525    4.90999985    2.36999989
   11.45249939  184.67300415    4.90999985    2.34999990
   11.45555496  188.93099976    4.90999985    2.44000006
   11.45888901  203.25000000    4.90999985    2.44000006
   11.46194458  199.99400330    4.90999985    2.40000010
   11.46527767  194.88400269    4.90999985    2.42000008
   11.46777725  202.65499878    4.90999985    2.44000006
   11.46888828  204.24699402    4.90999985    2.46000004
   11.47222137  199.92300415    4.90999985    2.42000008
   11.47527695  234.00300598    4.90999985    2.39000010
   11.47861099  219.28500366    4.90999985    2.32999992
   11.48194408  196.77299500    4.90999985    2.44000006
   11.48777771  196.77299500    4.90999985    2.40000010
   11.49194431  206.17199707    4.90999985    2.44000006
   11.49527836  208.36799622    4.90999985    2.46000004
   11.49833393  210.77999878    4.90999985    2.36999989
   11.50138855  215.31399536    4.90999985    2.36999989
   11.50222206  228.44999695    4.90999985    2.36999989
   11.50555515  205.33900452    4.90999985    2.36999989
   11.50861073  214.79299927    4.90999985    2.44000006
   11.51194477  224.38699341    4.90999985    2.40000010
   11.51527786  201.73300171    4.90999985    2.39000010
   11.51833344  231.80200195    4.90999985    2.46000004
   11.52166653  225.45199585    4.90999985    2.40000010
   11.52472210  205.21400452    4.90999985    2.42000008
   11.53083324  205.21400452    4.90999985    2.42000008
   11.53472233  304.56100464    4.90999985    2.40000010
   11.53694534  434.52398682    4.90999985    2.44000006
   11.53805637  380.18899536    4.90999985    2.46000004
   11.53944492  474.03201294    4.90999985    2.44000006
   11.54083347  402.17098999    4.90999985    2.44000006
   11.54222298  409.56900024    4.90999985    2.42000008
   11.54361153  417.28100586    4.90999985    2.46000004
   11.54500008  417.15301514    4.90999985    2.48000002
   11.54638958  315.98001099    4.90999985    2.48000002
   11.54777813  354.74099731    4.90999985    2.48000002
   11.54916668  374.58200073    4.90999985    2.48000002
   11.55055618  325.96301270    4.90999985    2.48000002
   11.55194473  302.02899170    4.90999985    2.48000002
   11.55333328  358.91900635    4.90999985    2.48000002
   11.55472279  333.64700317    4.90999985    2.48000002
   11.55611134  344.78500366    4.90999985    2.48000002
   11.55749989  350.41400146    4.90999985    2.48000002
   11.55888939  312.48498535    4.90999985    2.48000002
   11.56027794  292.71499634    4.90999985    2.48000002
   11.56166649  353.12500000    4.90999985    2.48000002
   11.56305599  275.28698730    4.90999985    2.48000002
   11.56444454  312.01199341    4.90999985    2.48000002
   11.56583309  281.78799438    4.90999985    2.48000002
   11.56722260  291.49798584    4.90999985    2.48000002
   11.56861115  268.62200928    4.90999985    2.48000002
   11.56999969  264.80599976    4.90999985    2.48000002
   11.57138920  288.27899170    4.90999985    2.48000002
   11.57277775  272.25900269    4.90999985    2.48000002
   11.57416630  284.11099243    4.90999985    2.50000000
   11.57583332  291.93200684    4.90999985    2.50000000
   11.57694435  277.86599731    4.90999985    2.48000002
   11.57833290  256.58599854    4.90999985    2.48000002
   11.57972240  256.37298584    4.90999985    2.48000002
   11.58111095  243.91099548    4.90999985    2.48000002
   11.58138847  231.80200195    4.90999985    2.46000004
   11.58138847  225.45199585    4.90999985    2.40000010
   11.58166695  205.21400452    4.90999985    2.42000008
   11.58166695  304.56100464    4.90999985    2.40000010
   11.58166695  228.44999695    4.90999985    2.36999989
   11.58194447  205.33900452    4.90999985    2.36999989
   11.58194447  214.79299927    4.90999985    2.44000006
   11.58194447  224.38699341    4.90999985    2.40000010
   11.58222198  201.73300171    4.90999985    2.39000010
   11.58277798  288.63699341    4.90999985    2.48000002
   11.58583260  259.49798584    4.90999985    2.48000002
   11.58916664  206.31500244    4.90999985    2.48000002
   11.59249973  233.81900024    4.90999985    2.50000000
   11.59555531  226.94900513    4.90999985    2.50000000
   11.60194492  226.94900513    4.90999985    2.48000002
   11.60611153  202.53399658    4.90999985    2.50000000
   11.60944462  197.68699646    4.90999985    2.50000000
   11.61277771  206.80099487    4.90999985    2.50000000
   11.61500072  182.67399597    4.90999985    2.50000000
   11.61638927  193.61900330    4.90999985    2.50000000
   11.61972237  198.71200562    4.90999985    2.50000000
   11.62277794  181.20599365    4.90999985    2.51999998
   11.62611103  200.46000671    4.90999985    2.51999998
   11.62944412  191.13999939    4.90999985    2.50000000
   11.63249969  200.71299744    4.90999985    2.51999998
   11.63583279  186.01199341    4.90999985    2.51999998
   11.63888836  192.50900269    4.90999985    2.51999998
   11.64499950  192.50900269    4.90999985    2.51999998
   11.64916611  204.76400757    4.90999985    2.51999998
   11.65222168  202.72799683    4.90999985    2.50000000
   11.65555477  212.85400391    4.90999985    2.51999998
   11.65861034  223.52099609    4.90999985    2.51999998
   11.66194439  230.15299988    4.90999985    2.51999998
   11.66527748  224.55099487    4.90999985    2.51999998
   11.66833401  215.59599304    4.90999985    2.51999998
   11.67166710  221.92900085    4.90999985    2.51999998
   11.67500019  209.46499634    4.90999985    2.51999998
   11.67805576  200.11900330    4.90999985    2.51999998
   11.68138885  247.97799683    4.90999985    2.55999994
   11.68194485  233.95599365    4.90999985    2.53999996
   11.68777752  233.95599365    4.90999985    2.15000010
   11.69194412  234.55900574    4.90999985    2.25000000
   11.69499969  209.32200623    4.90999985    2.50000000
   11.69833374  209.75799561    4.90999985    2.53999996
   11.70166683  190.28300476    4.90999985    2.53999996
   11.70472240  197.87699890    4.90999985    2.53999996
   11.70805550  206.00599670    4.90999985    2.53999996
   11.71138859  190.95199585    4.90999985    2.53999996
   11.71444416  198.83399963    4.90999985    2.51999998
   11.71527767  196.94299316    4.90999985    2.51999998
   11.71805477  204.21699524    4.90999985    2.53999996
   11.72138882  190.93499756    4.90999985    2.53999996
   11.72472191  222.47399902    4.90999985    2.53999996
   11.73055553  222.47399902    4.90999985    2.53999996
   11.73472214  200.13200378    4.90999985    2.53999996
   11.73805618  219.35099792    4.90999985    2.53999996
   11.74111176  198.39399719    4.90999985    2.53999996
   11.74444485  205.65499878    4.90999985    2.53999996
   11.74777794  217.74800110    4.90999985    2.51999998
   11.74861145  202.28999329    4.90999985    2.48000002
   11.75111103  197.35099792    4.90999985    2.51999998
   11.75444412  198.47200012    4.90999985    2.53999996
   11.75777817  198.34800720    4.90999985    2.53999996
   11.76083374  203.63699341    4.90999985    2.44000006
   11.76416683  191.31199646    4.90999985    2.46000004
   11.76749992  199.34899902    4.90999985    2.55999994
   11.77333355  199.34899902    4.90999985    2.51999998
   11.77750015  201.70199585    4.90999985    2.51999998
   11.78083324  177.51100159    4.90999985    2.55999994
   11.78194427  193.40699768    4.90999985    2.55999994
   11.78444481  186.82400513    4.90999985    2.55999994
   11.78777790  201.12699890    4.90999985    2.55999994
   11.79111195  211.49200439    4.90999985    2.55999994
   11.79416752  200.09100342    4.90999985    2.55999994
   11.79750061  197.41099548    4.90999985    2.53999996
   11.80083370  198.90199280    4.90999985    2.55999994
   11.80388927  209.33000183    4.90999985    2.53999996
   11.80722237  198.66400146    4.90999985    2.55999994
   11.81027794  195.41400146    4.90999985    2.55999994
   11.81638908  195.41400146    4.90999985    2.55999994
   11.82055569  203.30499268    4.90999985    2.55999994
   11.82361126  192.46499634    4.90999985    2.57999992
   11.82694435  192.58299255    4.90999985    2.57999992
   11.82999992  186.47599792    4.90999985    2.55999994
   11.83333302  190.86500549    4.90999985    2.55999994
   11.83666611  198.33000183    4.90999985    2.55999994
   11.84000015  184.88800049    4.90999985    2.55999994
   11.84305477  193.48500061    4.90999985    2.57999992
   11.84638882  179.38999939    4.90999985    2.55999994
   11.84861088  183.43200684    4.90999985    2.55999994
   11.85000038  187.97099304    4.90999985    2.55999994
   11.85305595  207.20899963    4.90999985    2.51999998
   11.85916710  207.20899963    4.90999985    2.55999994
   11.86333370  126.50900269    4.90999985    2.55999994
   11.86638927  168.59700012    4.90999985    2.55999994
   11.86972237  120.34100342    4.90999985    2.57999992
   11.87305546  181.63900757    4.90999985    2.57999992
   11.87611103  196.35000610    4.90999985    2.55999994
   11.87944412  201.74800110    4.90999985    2.57999992
   11.88194466  182.66799927    4.90999985    2.59999990
   11.88305569  185.63699341    4.90999985    2.55999994
   11.88611126  179.25199890    4.90999985    2.55999994
   11.88944435  188.60699463    4.90999985    2.55999994
   11.89249992  184.92300415    4.90999985    2.53999996
   11.89583302  185.26199341    4.90999985    2.57999992
   11.90194416  185.26199341    4.90999985    2.53999996
   11.90611076  193.83999634    4.90999985    2.50000000
   11.90944386  190.24499512    4.90999985    2.55999994
   11.91249943  186.28300476    4.90999985    2.57999992
   11.91527748  186.32800293    4.90999985    2.59999990
   11.91638851  191.39999390    4.90999985    2.57999992
   11.91944504  191.50599670    4.90999985    2.59999990
   11.92277813  197.52000427    4.90999985    2.59999990
   11.92583370  192.89500427    4.90999985    2.57999992
   11.92916679  185.33299255    4.90999985    2.59999990
   11.93249989  186.34199524    4.90999985    2.59999990
   11.93555546  187.10699463    4.90999985    2.57999992
   11.93888855  193.46000671    4.90999985    2.57999992
   11.94472218  193.46000671    4.90999985    2.59999990
   11.94888878  170.28999329    4.90999985    2.59999990
   11.95222187  191.68699646    4.90999985    2.59999990
   11.95527744  188.32299805    4.90999985    2.61999989
   11.95861053  185.41799927    4.90999985    2.57999992
   11.96194458  177.09399414    4.90999985    2.59999990
   11.96500015  186.39399719    4.90999985    2.61999989
   11.96833324  186.67199707    4.90999985    2.59999990
   11.97166634  194.48800659    4.90999985    2.57999992
   11.97472191  178.51199341    4.90999985    2.51999998
   11.97805500  181.58799744    4.90999985    2.59999990
   11.98111057  167.61099243    4.90999985    2.59999990
   11.98194408  176.65800476    4.90999985    2.59999990
   11.98777771  176.65800476    4.90999985    2.59999990
   11.99166679  170.46499634    4.90999985    2.59999990
   11.99499989  174.19400024    4.90999985    2.59999990
   11.99833393  190.84899902    4.90999985    2.59999990
   12.00138855  185.85699463    4.90999985    2.59999990
   12.00472260  192.29899597    4.90999985    2.57999992
   12.00805569  182.83000183    4.90999985    2.55999994
   12.01111126  189.75999451    4.90999985    2.59999990
   12.01444435  179.57400513    4.90999985    2.61999989
   12.01527786  186.11000061    4.90999985    2.61999989
   12.01805496  187.30499268    4.90999985    2.61999989
   12.02111053  185.54200745    4.90999985    2.61999989
   12.02444458  198.40499878    4.90999985    2.61999989
   12.03055573  198.40499878    4.90999985    2.59999990
   12.03472233  186.73599243    4.90999985    2.59999990
   12.03777790  176.98199463    4.90999985    2.59999990
   12.04111195  181.45300293    4.90999985    2.61999989
   12.04444504  185.01400757    4.90999985    2.61999989
   12.04750061  183.46299744    4.90999985    2.57999992
   12.04861164  179.54400635    4.90999985    2.57999992
   12.05138874  177.99899292    4.90999985    2.59999990
   12.05444431  174.22599792    4.90999985    2.61999989
   12.05777836  180.80000305    4.90999985    2.55999994
   12.06083393  186.59800720    4.90999985    2.57999992
   12.06416702  185.91900635    4.90999985    2.59999990
   12.06750011  172.61500549    4.90999985    2.61999989
   12.07333374  172.61500549    4.90999985    2.59999990
   12.07750034  195.49299622    4.90999985    2.61999989
   12.08083344  177.74600220    4.90999985    2.40000010
   12.08194447  184.55000305    4.90999985    2.39000010
   12.08444405  201.70399475    4.90999985    2.39000010
   12.08749962  184.84700012    4.90999985    2.59999990
   12.09083271  260.88500977    4.90999985    2.59999990
   12.09416676  190.79200745    4.90999985    2.40000010
   12.09722233  183.62100220    4.90999985    2.57999992
   12.10055637  178.55000305    4.90999985    2.59999990
   12.10388947  186.77000427    4.90999985    2.59999990
   12.10694504  203.91700745    4.90999985    2.59999990
   12.11027813  174.53199768    4.90999985    2.44000006
   12.11611176  174.53199768    4.90999985    2.46000004
   12.12027836  172.73300171    4.90999985    2.36999989
   12.12361145  180.47500610    4.90999985    2.46000004
   12.12666702  181.81500244    4.90999985    2.61999989
   12.13000011  178.60099792    4.90999985    2.64000010
   12.13333321  183.93400574    4.90999985    2.61999989
   12.13638878  184.30499268    4.90999985    2.61999989
   12.13972187  176.54600525    4.90999985    2.64000010
   12.14305496  176.78700256    4.90999985    2.64000010
   12.14611053  183.29400635    4.90999985    2.64000010
   12.14861107  188.44999695    4.90999985    2.64000010
   12.14999962  175.48500061    4.90999985    2.64000010
   12.15305519  183.47900391    4.90999985    2.51999998
   12.15916634  183.47900391    4.90999985    2.66000009
   12.16305542  204.40299988    4.90999985    2.53999996
   12.16638851  199.94799805    4.90999985    2.59999990
   12.16972256  213.34899902    4.90999985    2.64000010
   12.17277813  201.43600464    4.90999985    2.53999996
   12.17611122  188.44299316    4.90999985    2.55999994
   12.17944431  175.51300049    4.90999985    2.57999992
   12.18194485  202.62899780    4.90999985    2.55999994
   12.18305588  179.21499634    4.90999985    2.46000004
   12.18611145  193.52000427    4.90999985    2.64000010
   12.18944454  180.96299744    4.90999985    2.64000010
   12.19277763  188.67100525    4.90999985    2.64000010
   12.19583321  177.03100586    4.90999985    2.64000010
   12.20194435  177.03100586    4.90999985    2.64000010
   12.20611095  185.29800415    4.90999985    2.64000010
   12.20916653  175.39300537    4.90999985    2.66000009
   12.21249962  211.97099304    4.90999985    2.64000010
   12.21527767  170.50300598    4.90999985    2.64000010
   12.21611118  200.39599609    4.90999985    2.64000010
   12.21916580  213.84300232    4.90999985    2.64000010
   12.22249985  203.25500488    4.90999985    2.64000010
   12.22583294  209.17999268    4.90999985    2.66000009
   12.22888851  208.15699768    4.90999985    2.66000009
   12.23222160  225.73500061    4.90999985    2.64000010
   12.23527813  185.22000122    4.90999985    2.66000009
   12.23861122  213.16400146    4.90999985    2.64000010
   12.24472237  213.16400146    4.90999985    2.66000009
   12.24888897  211.45500183    4.90999985    2.64000010
   12.25222206  198.34800720    4.90999985    2.66000009
   12.25527763  193.28999329    4.90999985    2.66000009
   12.25861073  169.44299316    4.90999985    2.66000009
   12.26166630  184.45399475    4.90999985    2.61999989
   12.26500034  211.68400574    4.90999985    2.64000010
   12.26833344  192.94099426    4.90999985    2.55999994
   12.27138901  204.65299988    4.90999985    2.64000010
   12.27472210  184.35200500    4.90999985    2.59999990
   12.27805519  173.35200500    4.90999985    2.64000010
   12.28111076  189.00399780    4.90999985    2.67000008
   12.28194427  237.76800537    4.90999985    2.64000010
   12.28750038  237.76800537    4.90999985    2.66000009
   12.29166698  188.09800720    4.90999985    2.64000010
   12.29500008  186.77200317    4.90999985    2.66000009
   12.31472206  244.04600525    4.90999985    2.26999998
   12.31555557  234.83299255    4.90999985    2.39000010
   12.31833363  234.86300659    4.90999985    2.61999989
   12.32166672  229.08299255    4.90999985    2.64000010
   12.32472229  255.66600037    4.90999985    2.51999998
   12.33083344  255.66600037    4.90999985    2.59999990
   12.33472157  218.08099365    4.90999985    2.67000008
   12.33805561  200.72999573    4.90999985    2.67000008
   12.34138870  201.25900269    4.90999985    2.67000008
   12.34444427  191.25000000    4.90999985    2.67000008
   12.34777737  198.65199280    4.90999985    2.67000008
   12.34888840  211.53900146    4.90999985    2.67000008
   12.35138893  170.34599304    4.90999985    2.55999994
   12.35472298  194.68800354    4.90999985    2.66000009
   12.35777855  278.49499512    4.90999985    2.51999998
   12.36111164  196.89199829    4.90999985    2.26999998
   12.36444473  238.65299988    4.90999985    2.48000002
   12.36750031  190.22799683    4.90999985    2.19000006
   12.37361145  190.22799683    4.90999985    2.57999992
   12.37777805  166.24699402    4.90999985    2.64000010
   12.38083363  169.25000000    4.90999985    2.66000009
   12.38222218  170.88299561    4.90999985    2.67000008
   12.38444424  163.15600586    4.90999985    2.67000008
   12.38777733  171.91999817    4.90999985    2.67000008
   12.39083290  168.21699524    4.90999985    2.66000009
   12.39416695  171.77200317    4.90999985    2.67000008
   12.39750004  159.38699341    4.90999985    2.69000006
   12.40055561  166.84300232    4.90999985    2.67000008
   12.40388870  165.30999756    4.90999985    2.66000009
   12.40722179  161.23699951    4.90999985    2.67000008
   12.41027737  161.85000610    4.90999985    2.67000008
   12.41638851  161.85000610    4.90999985    2.67000008
   12.42055607  166.47099304    4.90999985    2.67000008
   12.42361164  158.22599792    4.90999985    2.67000008
   12.42694473  165.90400696    4.90999985    2.67000008
   12.43027782  167.28399658    4.90999985    2.67000008
   12.43361092  167.93099976    4.90999985    2.67000008
   12.43666649  167.50999451    4.90999985    2.67000008
   12.44000053  161.72099304    4.90999985    2.67000008
   12.44305515  159.98899841    4.90999985    2.67000008
   12.44638920  161.00900269    4.90999985    2.69000006
   12.44888878  170.79499817    4.90999985    2.69000006
   12.44999981  162.46000671    4.90999985    2.67000008
   12.45333290  166.61300659    4.90999985    2.69000006
   12.45916653  166.61300659    4.90999985    2.67000008
   12.46333313  169.17199707    4.90999985    2.67000008
   12.46666622  165.72999573    4.90999985    2.67000008
   12.46972179  170.61000061    4.90999985    2.69000006
   12.47305489  169.12399292    4.90999985    2.67000008
   12.47638798  176.53199768    4.90999985    2.59999990
   12.47944355  183.01100159    4.90999985    2.67000008
   12.48222160  172.47700500    4.90999985    2.59999990
   12.48305511  169.76300049    4.90999985    2.67000008
   12.48638916  168.77799988    4.90999985    2.69000006
   12.48944473  179.63000488    4.90999985    2.69000006
   12.49277782  178.16799927    4.90999985    2.67000008
   12.49611092  167.62399292    4.90999985    2.69000006
   12.50194454  167.62399292    4.90999985    2.64000010
   12.50611115  206.58399963    4.90999985    2.55999994
   12.50944424  184.94299316    4.90999985    2.46000004
   12.51277733  191.72000122    4.90999985    2.66000009
   12.51555538  198.91099548    4.90999985    2.59999990
   12.51611137  194.30000305    4.90999985    2.51999998
   12.51944447  194.62899780    4.90999985    2.69000006
   12.52250004  203.27099609    4.90999985    2.71000004
   12.52583313  190.53399658    4.90999985    2.67000008
   12.52916622  202.90199280    4.90999985    2.67000008
   12.53222179  199.50399780    4.90999985    2.69000006
   12.53555584  204.99299622    4.90999985    2.64000010
   12.53888893  210.92999268    4.90999985    2.61999989
   12.54500008  210.92999268    4.90999985    2.71000004
   12.54916668  184.09899902    4.90999985    2.71000004
   12.55222225  196.89900208    4.90999985    2.69000006
   12.55555534  179.08099365    4.90999985    2.69000006
   12.55888939  186.36900330    4.90999985    2.71000004
   12.56194496  238.55200195    4.90999985    2.71000004
   12.56527805  289.71899414    4.90999985    2.71000004
   12.56833363  190.60400391    4.90999985    2.71000004
   12.57166672  205.38800049    4.90999985    2.69000006
   12.57499981  259.57699585    4.90999985    2.71000004
   12.57805538  239.69599915    4.90999985    2.71000004
   12.58138847  231.43800354    4.90999985    2.71000004
   12.58222198  221.02999878    4.90999985    2.69000006
   12.58777714  221.02999878    4.90999985    2.71000004
   12.59194374  219.49299622    4.90999985    2.71000004
   12.59499931  247.13699341    4.90999985    2.71000004
   12.59833336  204.04100037    4.90999985    2.71000004
   12.60166740  203.39799500    4.90999985    2.69000006
   12.60472298  249.76300049    4.90999985    2.64000010
   12.60805607  273.12701416    4.90999985    2.71000004
   12.61138916  217.47599792    4.90999985    2.34999990
   12.61444473  205.89799500    4.90999985    2.66000009
   12.61555576  230.22099304    4.90999985    2.69000006
   12.61805534  209.03399658    4.90999985    2.69000006
   12.62138939  234.85099792    4.90999985    2.71000004
   12.62472248  205.60400391    4.90999985    2.69000006
   12.63055611  205.60400391    4.90999985    2.71000004
   12.63472176  214.65299988    4.90999985    2.71000004
   12.63805580  205.39399719    4.90999985    2.71000004
   12.64111137  196.61199951    4.90999985    2.71000004
   12.64444447  258.62399292    4.90999985    2.48000002
   12.64777756  220.58799744    4.90999985    2.59999990
   12.64888859  197.02000427    4.90999985    2.69000006
   12.65111065  194.45500183    4.90999985    2.66000009
   12.65444374  185.63200378    4.90999985    2.67000008
   12.65777779  189.14799500    4.90999985    2.71000004
   12.66083336  194.82099915    4.90999985    2.71000004
   12.66416645  179.76699829    4.90999985    2.66000009
   12.66722298  184.02799988    4.90999985    2.69000006
   12.67361164  184.02799988    4.90999985    2.71000004
   12.67750072  183.92799377    4.90999985    2.71000004
   12.68083382  182.00300598    4.90999985    2.73000002
   12.68222237  174.44099426    4.90999985    2.71000004
   12.68472195  179.76800537    4.90999985    2.73000002
   12.68777752  196.68800354    4.90999985    2.73000002
   12.69111156  193.43699646    4.90999985    2.67000008
   12.69416714  192.10400391    4.90999985    2.73000002
   12.69750023  193.32400513    4.90999985    2.69000006
   12.70083332  190.86900330    4.90999985    2.71000004
   12.70388889  189.80999756    4.90999985    2.71000004
   12.70722198  197.94400024    4.90999985    2.59999990
   12.71055508  192.43299866    4.90999985    2.64000010
   12.71638870  192.43299866    4.90999985    2.69000006
   12.72055531  188.78599548    4.90999985    2.71000004
   12.72361088  181.67500305    4.90999985    2.69000006
   12.72694397  176.00399780    4.90999985    2.67000008
   12.72999954  174.51899719    4.90999985    2.71000004
   12.73333359  180.91900635    4.90999985    2.73000002
   12.73666668  181.42599487    4.90999985    2.67000008
   12.73972225  174.80200195    4.90999985    2.64000010
   12.74305534  173.91799927    4.90999985    2.71000004
   12.74638939  179.03799438    4.90999985    2.71000004
   12.74888897  178.88999939    4.90999985    2.66000009
   12.74972248  204.84100342    4.90999985    2.64000010
   12.75305557  165.74899292    4.90999985    2.40000010
   12.75916672  165.74899292    4.90999985    2.66000009
   12.76333332  206.48500061    4.90999985    2.71000004
   12.76638889  198.75399780    4.90999985    2.44000006
   12.76972198  203.49299622    4.90999985    2.66000009
   12.77305508  199.05900574    4.90999985    2.46000004
   12.77611065  188.27400208    4.90999985    2.55999994
   12.77944374  179.82499695    4.90999985    2.64000010
   12.78222179  187.00100708    4.90999985    2.69000006
   12.78305531  170.84899902    4.90999985    2.69000006
   12.78638935  192.33099365    4.90999985    2.73000002
   12.78972244  171.95799255    4.90999985    2.73000002
   12.79277802  196.86300659    4.90999985    2.69000006
   12.79611111  193.66000366    4.90999985    2.61999989
   12.80194473  193.66000366    4.90999985    2.67000008
   12.80611134  193.44599915    4.90999985    2.71000004
   12.80944443  179.14500427    4.90999985    2.73000002
   12.81250000  227.60000610    4.90999985    2.55999994
   12.81555557  210.67300415    4.90999985    2.53999996
   12.81611156  195.88499451    4.90999985    2.55999994
   12.81944466  186.02799988    4.90999985    2.67000008
   12.82277775  181.61199951    4.90999985    2.66000009
   12.82583332  172.38999939    4.90999985    2.66000009
   12.82916641  185.98399353    4.90999985    2.59999990
   12.83249950  183.35699463    4.90999985    2.69000006
   12.83555508  162.71800232    4.90999985    2.71000004
   12.83888817  181.07200623    4.90999985    2.71000004
   12.84499931  181.07200623    4.90999985    2.69000006
   12.84888840  178.11000061    4.90999985    2.73000002
   12.85222244  247.56199646    4.90999985    2.75000000
   12.85555553  358.93200684    4.90999985    2.28999996
   12.85750008  251.22000122    4.90999985    1.98000002
   12.85888958  215.53599548    4.90999985    2.25000000
   12.85888958  185.98399353    4.90999985    2.59999990
   12.85916710  183.35699463    4.90999985    2.69000006
   12.85916710  162.71800232    4.90999985    2.71000004
   12.85916710  181.07200623    4.90999985    2.71000004
   12.85944462  178.11000061    4.90999985    2.73000002
   12.85944462  247.56199646    4.90999985    2.75000000
   12.85944462  358.93200684    4.90999985    2.28999996
   12.85972214  181.61199951    4.90999985    2.66000009
   12.85972214  172.38999939    4.90999985    2.66000009
   12.86055565  196.89100647    4.90999985    2.32999992
   12.86388969  173.95300293    4.90999985    2.69000006
   12.86694431  184.60200500    4.90999985    2.75000000
   12.87027836  175.69000244    4.90999985    2.67000008
   12.87361145  184.30799866    4.90999985    2.64000010
   12.87972260  184.30799866    4.90999985    2.69000006
   12.88388920  184.02000427    4.90999985    2.69000006
   12.88722229  181.88299561    4.90999985    2.66000009
   12.89027786  151.70399475    4.90999985    2.71000004
   12.89277744  163.67799377    4.90999985    2.69000006
   12.89416695  178.25100708    4.90999985    2.71000004
   12.89722252  170.83399963    4.90999985    2.71000004
   12.90055561  177.12399292    4.90999985    2.71000004
   12.90388870  184.11399841    4.90999985    2.73000002
   12.90694427  185.69700623    4.90999985    2.75000000
   12.91027737  179.27200317    4.90999985    2.75000000
   12.91333294  157.02499390    4.90999985    2.75000000
   12.91666698  178.25799561    4.90999985    2.71000004
   12.92250061  178.25799561    4.90999985    2.71000004
   12.92666721  212.44500732    4.90999985    2.75000000
   12.93000031  229.49800110    4.90999985    2.73000002
   12.93305588  263.85800171    4.90999985    2.75000000
   12.93638897  220.08200073    4.90999985    2.75000000
   12.93944454  225.58299255    4.90999985    2.71000004
   12.94277763  200.17399597    4.90999985    2.64000010
   12.94611073  204.41000366    4.90999985    2.67000008
   12.94916630  188.55999756    4.90999985    2.71000004
   12.95249939  177.05900574    4.90999985    2.73000002
   12.95583344  195.07400513    4.90999985    2.75000000
   12.95888901  181.87600708    4.90999985    2.75000000
   12.95944405  193.97599792    4.90999985    2.75000000
   12.96527767  193.97599792    4.90999985    2.53999996
   12.96944427  189.62899780    4.90999985    2.67000008
   12.97277737  208.83099365    4.90999985    2.73000002
   12.97583294  194.80499268    4.90999985    2.73000002
   12.97916603  223.53700256    4.90999985    2.59999990
   12.98249912  186.27200317    4.90999985    2.55999994
   12.98555565  201.27900696    4.90999985    2.59999990
   12.98888874  183.64100647    4.90999985    2.55999994
   12.99222279  176.77699280    4.90999985    2.75000000
   12.99277782  174.93499756    4.90999985    2.73000002
   12.99583340  185.98399353    4.90999985    2.73000002
   12.99888897  181.36500549    4.90999985    2.73000002
   13.00222206  191.61399841    4.90999985    2.75000000
   13.00833321  191.61399841    4.90999985    2.75000000
   13.01222229  176.31300354    4.90999985    2.75000000
   13.01555538  169.18899536    4.90999985    2.75000000
   13.01888847  169.24600220    4.90999985    2.75000000
   13.02194405  183.17199707    4.90999985    2.75000000
   13.02527714  184.02999878    4.90999985    2.75000000
   13.02611065  182.30700684    4.90999985    2.73000002
   13.02888870  173.92599487    4.90999985    2.67000008
   13.03194427  179.45899963    4.90999985    2.75000000
   13.03527832  184.05299377    4.90999985    2.75000000
   13.03861141  185.13000488    4.90999985    2.75000000
   13.04166698  177.22999573    4.90999985    2.75000000
   13.04500008  177.49400330    4.90999985    2.75000000
   13.05111122  177.49400330    4.90999985    2.73000002
   13.05527782  176.76400757    4.90999985    2.75000000
   13.05833340  180.32499695    4.90999985    2.75000000
   13.05944443  175.03199768    4.90999985    2.75000000
   13.06194496  178.83500671    4.90999985    2.75000000
   13.06500053  187.99099731    4.90999985    2.75000000
   13.06833363  196.30099487    4.90999985    2.75000000
   13.07166672  168.43200684    4.90999985    2.75000000
   13.07472229  183.79299927    4.90999985    2.76999998
   13.07805538  194.42900085    4.90999985    2.75000000
   13.08138847  194.11799622    4.90999985    2.75000000
   13.08444405  182.41900635    4.90999985    2.75000000
   13.08777714  176.42300415    4.90999985    2.75000000
   13.09388828  176.42300415    4.90999985    2.76999998
   13.09805489  174.09800720    4.90999985    2.75000000
   13.10138893  195.82400513    4.90999985    2.75000000
   13.10444450  185.40699768    4.90999985    2.73000002
   13.10777855  188.25999451    4.90999985    2.76999998
   13.11111164  177.94700623    4.90999985    2.76999998
   13.11416721  182.92700195    4.90999985    2.76999998
   13.11750031  177.94099426    4.90999985    2.75000000
   13.12055588  159.71400452    4.90999985    2.75000000
   13.12388897  175.01600647    4.90999985    2.76999998
   13.12611103  186.61000061    4.90999985    2.75000000
   13.12750053  168.06100464    4.90999985    2.76999998
   13.13083363  180.86500549    4.90999985    2.75000000
   13.13666630  180.86500549    4.90999985    2.75000000
   13.14083290  176.61099243    4.90999985    2.75000000
   13.14416695  171.92500305    4.90999985    2.75000000
   13.14722252  187.45199585    4.90999985    2.75000000
   13.15055561  176.42700195    4.90999985    2.76999998
   13.15388870  201.65100098    4.90999985    2.76999998
   13.15694427  183.89700317    4.90999985    2.75000000
   13.15944386  187.99400330    4.90999985    2.75000000
   13.16083336  160.81199646    4.90999985    2.75000000
   13.16416645  193.40699768    4.90999985    2.75000000
   13.16722298  186.83299255    4.90999985    2.75000000
   13.17055607  190.99800110    4.90999985    2.76999998
   13.17361164  186.59100342    4.90999985    2.76999998
   13.17944431  186.59100342    4.90999985    2.75000000
   13.18361092  190.04499817    4.90999985    2.76999998
   13.18694496  184.80099487    4.90999985    2.75000000
   13.19027805  195.81500244    4.90999985    2.75000000
   13.19277763  183.28399658    4.90999985    2.78999996
   13.19388866  189.75799561    4.90999985    2.75000000
   13.19722271  179.09300232    4.90999985    2.75000000
   13.20027733  176.51300049    4.90999985    2.76999998
   13.20361137  169.03799438    4.90999985    2.76999998
   13.20666695  177.77099609    4.90999985    2.75000000
   13.21000004  187.38099670    4.90999985    2.75000000
   13.21333313  163.44000244    4.90999985    2.76999998
   13.21638870  172.53399658    4.90999985    2.75000000
   13.22249985  172.53399658    4.90999985    2.75000000
   13.22666645  193.74099731    4.90999985    2.75000000
   13.22999954  181.67100525    4.90999985    2.75000000
   13.23305511  184.15299988    4.90999985    2.75000000
   13.23638916  185.03599548    4.90999985    2.76999998
   13.23972225  172.10800171    4.90999985    2.76999998
   13.24277782  187.84199524    4.90999985    2.76999998
   13.24611092  192.12100220    4.90999985    2.76999998
   13.24916649  186.37899780    4.90999985    2.76999998
   13.25249958  185.88099670    4.90999985    2.76999998
   13.25583363  174.36099243    4.90999985    2.75000000
   13.25888920  197.70399475    4.90999985    2.76999998
   13.25944424  198.00399780    4.90999985    2.76999998
   13.26527786  198.00399780    4.90999985    2.71000004
   13.26944447  168.31599426    4.90999985    2.75000000
   13.27277756  195.98399353    4.90999985    2.75000000
   13.27583313  172.10899353    4.90999985    2.69000006
   13.27916622  182.67199707    4.90999985    2.64000010
   13.38083363   -1.00000000   -1.00000000   -1.00000000
   13.47944355   -1.00000000   -1.00000000   -1.00000000
   13.57888889   -1.00000000   -1.00000000   -1.00000000
   13.61999989  106.57800293    4.90999985    2.78999996
   13.62333393  220.05299377    4.90999985    2.78999996
   13.62666702  204.59100342    4.90999985    2.78999996
   13.62972260  241.68699646    4.90999985    2.78999996
   13.63305569  218.00599670    4.90999985    2.78999996
   13.63611126  217.75900269    4.90999985    2.78999996
   13.64027786  217.75900269    4.90999985    2.80999994
   13.64444447  188.22999573    4.90999985    2.80999994
   13.64777756  227.38000488    4.90999985    2.78999996
   13.65083313  223.40499878    4.90999985    2.78999996
   13.65333271  211.21899414    4.90999985    2.78999996
   13.65472221  187.27799988    4.90999985    2.78999996
   13.65805531  223.23699951    4.90999985    2.78999996
   13.66111088  202.57800293    4.90999985    2.78999996
   13.66444397  175.63000488    4.90999985    2.78999996
   13.66750050  187.36799622    4.90999985    2.78999996
   13.67083359  208.88699341    4.90999985    2.78999996
   13.67416668  182.11900330    4.90999985    2.78999996
   13.67722225  157.84300232    4.90999985    2.80999994
   13.68333340  157.84300232    4.90999985    2.78999996
   13.68750000  163.11599731    4.90999985    2.80999994
   13.69055557  168.30700684    4.90999985    2.78999996
   13.69388866  173.29499817    4.90999985    2.78999996
   13.69694424  178.89700317    4.90999985    2.80999994
   13.70027733  175.14799500    4.90999985    2.78999996
   13.70361137  176.19700623    4.90999985    2.80999994
   13.70666695  179.36599731    4.90999985    2.80999994
   13.71000004  165.27799988    4.90999985    2.80999994
   13.71333313  168.05999756    4.90999985    2.80999994
   13.71638870  171.57099915    4.90999985    2.78999996
   13.71972179  171.95799255    4.90999985    2.69000006
   13.72027779  194.11300659    4.90999985    2.69000006
   13.72611046  194.11300659    4.90999985    2.78999996
   13.73027706  173.57299805    4.90999985    2.78999996
   13.73333359  181.46299744    4.90999985    2.80999994
   13.73666668  180.04200745    4.90999985    2.78999996
   13.74000072  168.96800232    4.90999985    2.78999996
   13.74305534  180.05400085    4.90999985    2.80999994
   13.74638939  173.19500732    4.90999985    2.80999994
   13.74944496  173.00000000    4.90999985    2.80999994
   13.75277805  183.92399597    4.90999985    2.78999996
   13.75361156  171.92900085    4.90999985    2.78999996
   13.75638866  179.95500183    4.90999985    2.78999996
   13.75972176  182.40100098    4.90999985    2.78999996
   13.76305580  173.61099243    4.90999985    2.80999994
   13.76888847  173.61099243    4.90999985    2.78999996
   13.77305508  184.72799683    4.90999985    2.78999996
   13.77638817  180.51899719    4.90999985    2.78999996
   13.77944374  187.60699463    4.90999985    2.80999994
   13.78277779  182.61599731    4.90999985    2.80999994
   13.78583336  167.98599243    4.90999985    2.80999994
   13.78694534  159.05099487    4.90999985    2.80999994
   13.78944492  179.30099487    4.90999985    2.78999996
   13.79277802  175.56799316    4.90999985    2.78999996
   13.79611111  187.80599976    4.90999985    2.78999996
   13.79916668  181.70700073    4.90999985    2.78999996
   13.80249977  162.64500427    4.90999985    2.78999996
   13.80583382  154.91200256    4.90999985    2.78999996
   13.81166649  154.91200256    4.90999985    2.80999994
   13.81583309  162.95899963    4.90999985    2.78999996
   13.81916618  182.25500488    4.90999985    2.80999994
   13.82027817  180.01600647    4.90999985    2.78999996
   13.82250023  209.50700378    4.90999985    2.80999994
   13.82583332  187.80400085    4.90999985    2.80999994
   13.82916641  194.37600708    4.90999985    2.80999994
   13.83222198  189.78100586    4.90999985    2.78999996
   13.83555508  210.92100525    4.90999985    2.78999996
   13.83888817  213.76400757    4.90999985    2.80999994
   13.84194374  206.07499695    4.90999985    2.78999996
   13.84527779  208.95399475    4.90999985    2.78999996
   13.84833336  200.28399658    4.90999985    2.80999994
   13.85472298  200.28399658    4.90999985    2.80999994
   13.85888958  175.82499695    4.90999985    2.80999994
   13.86194515  181.66600037    4.90999985    2.78999996
   13.86527824  176.23500061    4.90999985    2.78999996
   13.86833382  183.27499390    4.90999985    2.78999996
   13.87166691  186.77699280    4.90999985    2.78999996
   13.87500000  166.67999268    4.90999985    2.78999996
   13.87805557  155.38400269    4.90999985    2.78999996
   13.88138866  157.48399353    4.90999985    2.78999996
   13.88472176  163.85899353    4.90999985    2.80999994
   13.88694477  161.45500183    4.90999985    2.78999996
   13.88805580  152.91000366    4.90999985    2.80999994
   13.89138889  167.30999756    4.90999985    2.78999996
   13.89750004  167.30999756    4.90999985    2.80999994
   13.90166664  174.99000549    4.90999985    2.78999996
   13.90472221  174.20399475    4.90999985    2.80999994
   13.90805531  174.60600281    4.90999985    2.80999994
   13.91138840  170.73599243    4.90999985    2.80999994
   13.91444397  165.05299377    4.90999985    2.78999996
   13.91777802  181.56700134    4.90999985    2.80999994
   13.92027855  167.11799622    4.90999985    2.78999996
   13.92166710  175.04600525    4.90999985    2.80999994
   13.92472267  174.90199280    4.90999985    2.80999994
   13.92805576  153.14900208    4.90999985    2.80999994
   13.93111134  162.78300476    4.90999985    2.78999996
   13.93444443  167.77699280    4.90999985    2.78999996
   13.94027805  167.77699280    4.90999985    2.78999996
   13.94444466  174.65299988    4.90999985    2.80999994
   13.94777775  167.38299561    4.90999985    2.78999996
   13.95083332  158.71099854    4.90999985    2.80999994
   13.95361137  179.59700012    4.90999985    2.80999994
   13.95472240  178.49099731    4.90999985    2.80999994
   13.95777798  154.10400391    4.90999985    2.80999994
   13.96111107  172.81900024    4.90999985    2.80999994
   13.96416664  159.32499695    4.90999985    2.80999994
   13.96749973  172.79600525    4.90999985    2.80999994
   13.97083282  168.96000671    4.90999985    2.80999994
   13.97416592  179.98800659    4.90999985    2.80999994
   13.97722149  165.11099243    4.90999985    2.80999994
   13.98305511  165.11099243    4.90999985    2.80999994
   13.98722267  167.73899841    4.90999985    2.82999992
   13.99055576  171.30200195    4.90999985    2.82999992
   13.99388885  168.13499451    4.90999985    2.78999996
   13.99694443  167.75799561    4.90999985    2.80999994
   14.00027752  164.98100281    4.90999985    2.82999992
   14.00361156  158.75999451    4.90999985    2.80999994
   14.00666714  171.01100159    4.90999985    2.80999994
   14.01000023  178.82499695    4.90999985    2.80999994
   14.01305580  178.96200562    4.90999985    2.78999996
   14.01638889  186.25599670    4.90999985    2.82999992
   14.01972198  174.77000427    4.90999985    2.82999992
   14.02027798  162.63099670    4.90999985    2.80999994
   14.02611065  162.63099670    4.90999985    2.80999994
   14.03027725  174.83700562    4.90999985    2.80999994
   14.03333378  177.21499634    4.90999985    2.82999992
   14.03666687  170.46200562    4.90999985    2.78999996
   14.03972244  174.31900024    4.90999985    2.82999992
   14.04305553  175.83200073    4.90999985    2.80999994
   14.04638958  182.88499451    4.90999985    2.80999994
   14.04944515  173.31599426    4.90999985    2.82999992
   14.05277824  158.58900452    4.90999985    2.82999992
   14.05361176  173.71800232    4.90999985    2.82999992
   14.05638885  147.11399841    4.90999985    2.82999992
   14.05944443  156.86399841    4.90999985    2.80999994
   14.06277752  166.00500488    4.90999985    2.82999992
   14.06888866  166.00500488    4.90999985    2.82999992
   14.07305527  165.66200256    4.90999985    2.78999996
   14.07611084  162.21800232    4.90999985    2.80999994
   14.07944393  167.61500549    4.90999985    2.80999994
   14.08277798  154.89700317    4.90999985    2.80999994
   14.08583260  159.89500427    4.90999985    2.80999994
   14.08694458  168.17199707    4.90999985    2.82999992
   14.08972168  167.32400513    4.90999985    2.80999994
   14.09277725  164.92700195    4.90999985    2.80999994
   14.09611034  162.29200745    4.90999985    2.82999992
   14.09916592  164.86099243    4.90999985    2.80999994
   14.10249996  139.43499756    4.90999985    2.80999994
   14.10583401  162.39399719    4.90999985    2.82999992
   14.11166668  162.39399719    4.90999985    2.80999994
   14.11583328  174.41799927    4.90999985    2.82999992
   14.11916637  164.20199585    4.90999985    2.80999994
   14.12027836  163.03599548    4.90999985    2.80999994
   14.12277794  169.54899597    4.90999985    2.82999992
   14.12583351  172.93899536    4.90999985    2.80999994
   14.12916660  163.59300232    4.90999985    2.82999992
   14.13222218  164.19200134    4.90999985    2.80999994
   14.13555527  161.85200500    4.90999985    2.82999992
   14.13888836  169.92599487    4.90999985    2.82999992
   14.14194393  156.36199951    4.90999985    2.82999992
   14.14527798  167.05400085    4.90999985    2.82999992
   14.14861107  157.98599243    4.90999985    2.78999996
   14.15444374  157.98599243    4.90999985    2.82999992
   14.15861034  154.77400208    4.90999985    2.82999992
   14.16194439  155.60299683    4.90999985    2.80999994
   14.16499996  160.69299316    4.90999985    2.82999992
   14.16833401  157.10200500    4.90999985    2.82999992
   14.17166710  157.28999329    4.90999985    2.80999994
   14.17472267  157.41600037    4.90999985    2.80999994
   14.17805576  161.24000549    4.90999985    2.80999994
   14.18138885  146.63900757    4.90999985    2.84999990
   14.18444443  165.42300415    4.90999985    2.82999992
   14.18694496  166.69000244    4.90999985    2.82999992
   14.18833351  166.59700012    4.90999985    2.82999992
   14.19138908  157.22000122    4.90999985    2.82999992
   14.19750023  157.22000122    4.90999985    2.80999994
   14.20138836  143.94700623    4.90999985    2.82999992
   14.20472240  152.71800232    4.90999985    2.82999992
   14.20805550  165.05599976    4.90999985    2.82999992
   14.21111107  167.01199341    4.90999985    2.82999992
   14.21444416  158.78599548    4.90999985    2.82999992
   14.21777725  159.09500122    4.90999985    2.82999992
   14.22027779  160.87800598    4.90999985    2.82999992
   14.22138882  156.21800232    4.90999985    2.82999992
   14.22444439  160.06399536    4.90999985    2.82999992
   14.22777748  149.78199768    4.90999985    2.80999994
   14.23111057  148.36199951    4.90999985    2.82999992
   14.23416710  147.61199951    4.90999985    2.82999992
   14.24027824  147.61199951    4.90999985    2.82999992
   14.24444485  162.11700439    4.90999985    2.82999992
   14.24750042  164.23399353    4.90999985    2.82999992
   14.25083351  162.04899597    4.90999985    2.82999992
   14.25361156  160.19999695    4.90999985    2.82999992
   14.25444412  146.61999512    4.90999985    2.82999992
   14.25749969  153.81399536    4.90999985    2.82999992
   14.26083374  171.96800232    4.90999985    2.82999992
   14.26416683  154.22799683    4.90999985    2.80999994
   14.26722240  162.48699951    4.90999985    2.82999992
   14.27055550  152.95599365    4.90999985    2.82999992
   14.27361107  168.95100403    4.90999985    2.80999994
   14.27694416  162.59100342    4.90999985    2.84999990
   14.28305531  162.59100342    4.90999985    2.82999992
   14.28722286  147.62500000    4.90999985    2.82999992
   14.29055595  149.25900269    4.90999985    2.80999994
   14.29361153  143.32000732    4.90999985    2.82999992
   14.29694462  150.11999512    4.90999985    2.82999992
   14.30000019  146.41999817    4.90999985    2.82999992
   14.30333328  144.74800110    4.90999985    2.80999994
   14.30666733  140.43099976    4.90999985    2.82999992
   14.30972195  138.45700073    4.90999985    2.82999992
   14.31305599  135.30200195    4.90999985    2.82999992
   14.31638908  148.17999268    4.90999985    2.82999992
   14.31944466  137.74800110    4.90999985    2.82999992
   14.32027817  143.84599304    4.90999985    2.82999992
   14.32583332  143.84599304    4.90999985    2.82999992
   14.32999992  152.14199829    4.90999985    2.82999992
   14.33333302  151.46200562    4.90999985    2.82999992
   14.33638859  140.72200012    4.90999985    2.82999992
   14.33972168  147.82000732    4.90999985    2.82999992
   14.34305477  154.51300049    4.90999985    2.82999992
   14.34611034  141.07600403    4.90999985    2.82999992
   14.34944439  147.34899902    4.90999985    2.82999992
   14.35277843  142.98100281    4.90999985    2.82999992
   14.35361195  150.65899658    4.90999985    2.82999992
   14.35638905  146.54400635    4.90999985    2.82999992
   14.35944462  141.42999268    4.90999985    2.82999992
   14.36277771  132.81399536    4.90999985    2.82999992
   14.36888885  132.81399536    4.90999985    2.82999992
   14.37277794  142.56100464    4.90999985    2.82999992
   14.37611103  128.84199524    4.90999985    2.82999992
   14.37944412  141.80599976    4.90999985    2.82999992
   14.38249969  133.58599854    4.90999985    2.82999992
   14.38583279  139.51400757    4.90999985    2.82999992
   14.38694477  134.11099243    4.90999985    2.84999990
   14.38944435  132.94299316    4.90999985    2.82999992
   14.39249992  138.19599915    4.90999985    2.82999992
   14.39583302  140.85699463    4.90999985    2.82999992
   14.39916611  135.58700562    4.90999985    2.82999992
   14.40222168  144.48599243    4.90999985    2.82999992
   14.40555477  142.20899963    4.90999985    2.82999992
   14.41166592  142.20899963    4.90999985    2.82999992
   14.41583252  145.78700256    4.90999985    2.84999990
   14.41888905  143.69200134    4.90999985    2.82999992
   14.42027855  151.32600403    4.90999985    2.82999992
   14.42277813  133.58599854    4.90999985    2.82999992
   14.42583370  144.81700134    4.90999985    2.82999992
   14.42916679  143.74800110    4.90999985    2.82999992
   14.43249989  157.68899536    4.90999985    2.82999992
   14.43555546  136.75000000    4.90999985    2.82999992
   14.43888855  148.34700012    4.90999985    2.82999992
   14.44194412  145.70100403    4.90999985    2.82999992
   14.44527817  135.11700439    4.90999985    2.82999992
   14.44861126  146.86599731    4.90999985    2.80999994
   14.45444393  146.86599731    4.90999985    2.82999992
   14.45861053  153.46699524    4.90999985    2.84999990
   14.46194458  142.79200745    4.90999985    2.84999990
   14.46500015  142.78300476    4.90999985    2.82999992
   14.46833324  132.89999390    4.90999985    2.82999992
   14.47138882  145.07099915    4.90999985    2.82999992
   14.47472191  152.17199707    4.90999985    2.82999992
   14.47805500  148.91099548    4.90999985    2.82999992
   14.48111057  157.15600586    4.90999985    2.82999992
   14.48444462  134.16600037    4.90999985    2.84999990
   14.48694515  149.10699463    4.90999985    2.82999992
   14.48805618  145.06900024    4.90999985    2.82999992
   14.49111176  137.80299377    4.90999985    2.82999992
   14.49722290  137.80299377    4.90999985    2.84999990
   14.50138855  142.78199768    4.90999985    2.82999992
   14.50472260  160.18200684    4.90999985    2.82999992
   14.50777817  138.88099670    4.90999985    2.82999992
   14.51111126  158.15299988    4.90999985    2.82999992
   14.51444435  143.20199585    4.90999985    2.82999992
   14.51749992  143.22399902    4.90999985    2.84999990
   14.52027798  138.37300110    4.90999985    2.84999990
   14.52138901  144.32499695    4.90999985    2.84999990
   14.52444458  143.49299622    4.90999985    2.84999990
   14.52777767  131.19500732    4.90999985    2.82999992
   14.53111076  145.85099792    4.90999985    2.84999990
   14.53416729  149.22099304    4.90999985    2.82999992
   14.54000092  149.22099304    4.90999985    2.84999990
   14.54416752  152.86900330    4.90999985    2.82999992
   14.54750061  142.24699402    4.90999985    2.82999992
   14.55083370  155.13699341    4.90999985    2.82999992
   14.55361176  136.21299744    4.90999985    2.84999990
   14.55444431  139.38299561    4.90999985    2.82999992
   14.55749989  147.22900391    4.90999985    2.82999992
   14.56083393  148.27400208    4.90999985    2.82999992
   14.56416702  137.22999573    4.90999985    2.84999990
   14.56722260  157.63600159    4.90999985    2.82999992
   14.57055569  147.58999634    4.90999985    2.84999990
   14.57388878  159.07899475    4.90999985    2.82999992
   14.57694435  140.15100098    4.90999985    2.82999992
   14.58305550  140.15100098    4.90999985    2.82999992
   14.58722210  150.27099609    4.90999985    2.84999990
   14.59027767  145.35800171    4.90999985    2.84999990
   14.59361076  156.13600159    4.90999985    2.84999990
   14.59694386  135.92399597    4.90999985    2.82999992
   14.60000038  139.94400024    4.90999985    2.82999992
   14.60333347  147.74600220    4.90999985    2.84999990
   14.60638905  157.26600647    4.90999985    2.82999992
   14.60972214  146.60699463    4.90999985    2.82999992
   14.61305618  151.72700500    4.90999985    2.84999990
   14.61611176  142.79499817    4.90999985    2.82999992
   14.61944485  155.01300049    4.90999985    2.82999992
   14.62027836  150.30400085    4.90999985    2.82999992
   14.64111137  150.30400085    4.90999985    2.82999992
   14.64499950  160.77600098    4.90999985    2.82999992
   14.64833355  166.32400513    4.90999985    2.82999992
   14.65166664  164.45300293    4.90999985    2.84999990
   14.65361118  164.92599487    4.90999985    2.84999990
   14.65527725  162.46899414    4.90999985    2.82999992
   14.65861034  150.84800720    4.90999985    2.84999990
   14.66166592  158.99600220    4.90999985    2.82999992
   14.66499996  159.02699280    4.90999985    2.84999990
   14.66833401  142.97700500    4.90999985    2.84999990
   14.67138958  157.67300415    4.90999985    2.84999990
   14.67472267  161.73699951    4.90999985    2.82999992
   14.67805576  155.89599609    4.90999985    2.84999990
   14.68361092  155.89599609    4.90999985    2.84999990
   14.68777752  153.61199951    4.90999985    2.84999990
   14.69111156  161.48399353    4.90999985    2.84999990
   14.69444466  163.84500122    4.90999985    2.84999990
   14.69750023  170.52400208    4.90999985    2.84999990
   14.70083332  154.56199646    4.90999985    2.84999990
   14.70388889  171.36900330    4.90999985    2.84999990
   14.70722198  162.86099243    4.90999985    2.84999990
   14.71055508  179.88900757    4.90999985    2.84999990
   14.71361065  142.96000671    4.90999985    2.82999992
   14.71694374  161.39599609    4.90999985    2.82999992
   14.72027779  175.64599609    4.90999985    2.84999990
   14.72055531  168.74600220    4.90999985    2.84999990
   14.72666645  168.74600220    4.90999985    2.84999990
   14.73083305  161.73500061    4.90999985    2.84999990
   14.73388958  163.19599915    4.90999985    2.84999990
   14.73722267  173.78599548    4.90999985    2.84999990
   14.74027824  178.94599915    4.90999985    2.84999990
   14.74361134  168.58099365    4.90999985    2.84999990
   14.74694443  183.00700378    4.90999985    2.84999990
   14.75000000  169.41099548    4.90999985    2.84999990
   14.75333309  145.42999268    4.90999985    2.84999990
   14.75388908  164.52699280    4.90999985    2.84999990
   14.75694466  161.57299805    4.90999985    2.84999990
   14.76027775  166.27099609    4.90999985    2.84999990
   14.76333332  172.57200623    4.90999985    2.84999990
   14.76944447  172.57200623    4.90999985    2.84999990
   14.77361107  166.16700745    4.90999985    2.84999990
   14.77666664  162.61700439    4.90999985    2.84999990
   14.77999973  168.36999512    4.90999985    2.82999992
   14.78333378  157.58000183    4.90999985    2.84999990
   14.78638935  179.41799927    4.90999985    2.82999992
   14.78750038  172.66799927    4.90999985    2.84999990
   14.79000092  158.65299988    4.90999985    2.82999992
   14.79333401  141.08900452    4.90999985    2.84999990
   14.79638958  164.67700195    4.90999985    2.84999990
   14.79972267  156.42199707    4.90999985    2.84999990
   14.80305576  159.19799805    4.90999985    2.82999992
   14.80611134  166.80700684    4.90999985    2.84999990
   14.81222248  166.80700684    4.90999985    2.84999990
   14.81638908  168.28300476    4.90999985    2.86999989
   14.81972218  154.39599609    4.90999985    2.86999989
   14.82083321  155.93600464    4.90999985    2.84999990
   14.82333374  145.39100647    4.90999985    2.84999990
   14.82666683  158.99699402    4.90999985    2.82999992
   14.82999992  152.06500244    4.90999985    2.84999990
   14.83305550  165.19700623    4.90999985    2.82999992
   14.83638859  167.06500244    4.90999985    2.84999990
   14.83944416  199.82800293    4.90999985    2.84999990
   14.84277725  204.01699829    4.90999985    2.84999990
   14.84611034  187.20100403    4.90999985    2.84999990
   14.84916592  203.63000488    4.90999985    2.84999990
   14.85500050  203.63000488    4.90999985    2.84999990
   14.85916710  182.85400391    4.90999985    2.86999989
   14.86250019  191.31700134    4.90999985    2.84999990
   14.86583328  191.89399719    4.90999985    2.84999990
   14.86888885  185.30299377    4.90999985    2.84999990
   14.87222195  186.00100708    4.90999985    2.84999990
   14.87527752  168.77299500    4.90999985    2.84999990
   14.87861156  211.88699341    4.90999985    2.84999990
   14.88194466  175.68299866    4.90999985    2.86999989
   14.88500023  180.37500000    4.90999985    2.84999990
   14.88749981  193.23100281    4.90999985    2.84999990
   14.88861084  183.85200500    4.90999985    2.86999989
   14.89194393  176.40299988    4.90999985    2.84999990
   14.89805508  176.40299988    4.90999985    2.84999990
   14.90222168  161.97000122    4.90999985    2.86999989
   14.90527725  169.42799377    4.90999985    2.84999990
   14.90861034  188.51300049    4.90999985    2.84999990
   14.91166592  188.59199524    4.90999985    2.86999989
   14.91499996  184.80200195    4.90999985    2.86999989
   14.91833401  163.14300537    4.90999985    2.84999990
   14.92083359  157.21600342    4.90999985    2.84999990
   14.92194462  151.73599243    4.90999985    2.86999989
   14.92527771  153.86399841    4.90999985    2.84999990
   14.92861176  166.29800415    4.90999985    2.86999989
   14.93166733  163.56100464    4.90999985    2.84999990
   14.93500042  147.69700623    4.90999985    2.84999990
   14.94083309  147.69700623    4.90999985    2.84999990
   14.94499969  162.91999817    4.90999985    2.84999990
   14.94805527  164.89500427    4.90999985    2.84999990
   14.95138836  163.57699585    4.90999985    2.86999989
   14.95416641  153.56500244    4.90999985    2.84999990
   14.95499992  156.14399719    4.90999985    2.86999989
   14.95833302  152.27699280    4.90999985    2.86999989
   14.96166611  155.21699524    4.90999985    2.86999989
   14.96472168  152.52799988    4.90999985    2.86999989
   14.96805477  149.08799744    4.90999985    2.86999989
   14.97111034  149.95399475    4.90999985    2.84999990
   14.97444439  147.46899414    4.90999985    2.84999990
   14.97777748  147.60200500    4.90999985    2.84999990
   14.98361111  147.60200500    4.90999985    2.84999990
   14.98777771  158.83799744    4.90999985    2.84999990
   14.99111176  170.99499512    4.90999985    2.86999989
   14.99416733  150.86099243    4.90999985    2.86999989
   14.99750042  164.47599792    4.90999985    2.86999989
   15.00083351  165.66600037    4.90999985    2.84999990
   15.00388908  162.20700073    4.90999985    2.84999990
   15.00722218  154.59599304    4.90999985    2.86999989
   15.01027775  153.28399658    4.90999985    2.84999990
   15.01361084  155.64999390    4.90999985    2.84999990
   15.01694393  155.60099792    4.90999985    2.84999990
   15.01999950  155.94900513    4.90999985    2.84999990
   15.02083302  153.53799438    4.90999985    2.84999990
   15.02638817  153.53799438    4.90999985    2.84999990
   15.03055573  157.50399780    4.90999985    2.84999990
   15.03388977  145.36999512    4.90999985    2.84999990
   15.03722286  148.41099548    4.90999985    2.84999990
   15.04027843  167.48399353    4.90999985    2.82999992
   15.04361153  158.15600586    4.90999985    2.84999990
   15.04666710  155.03500366    4.90999985    2.84999990
   15.05000019  152.20100403    4.90999985    2.82999992
   15.05333328  168.74099731    4.90999985    2.84999990
   15.05416679  155.96000671    4.90999985    2.84999990
   15.05666733  145.26100159    4.90999985    2.84999990
   15.06000042  167.85800171    4.90999985    2.86999989
   15.06333351  171.40899658    4.90999985    2.86999989
   15.06944466  171.40899658    4.90999985    2.86999989
   15.07333374  157.92700195    4.90999985    2.86999989
   15.07666683  156.44500732    4.90999985    2.84999990
   15.07999992  155.35099792    4.90999985    2.86999989
   15.08305550  164.15899658    4.90999985    2.84999990
   15.08638859  152.79400635    4.90999985    2.84999990
   15.08749962  149.00100708    4.90999985    2.84999990
   15.09000015  159.94700623    4.90999985    2.84999990
   15.09333324  155.23699951    4.90999985    2.84999990
   15.09666634  157.38699341    4.90999985    2.86999989
   15.09972191  146.11799622    4.90999985    2.86999989
   15.10305595  161.08200073    4.90999985    2.86999989
   15.10611153  153.90299988    4.90999985    2.86999989
   15.11222267  153.90299988    4.90999985    2.84999990
   15.11638927  138.85499573    4.90999985    2.84999990
   15.11944485  142.58000183    4.90999985    2.84999990
   15.12083340  155.10699463    4.90999985    2.84999990
   15.12305546  159.02999878    4.90999985    2.82999992
   15.12638855  148.52499390    4.90999985    2.84999990
   15.12972260  148.10699463    4.90999985    2.86999989
   15.13277817  140.83299255    4.90999985    2.86999989
   15.13611126  145.23500061    4.90999985    2.84999990
   15.13916683  155.93899536    4.90999985    2.84999990
   15.14249992  157.05000305    4.90999985    2.84999990
   15.14583302  135.52900696    4.90999985    2.82999992
   15.14888859  136.39300537    4.90999985    2.84999990
   15.15499973  136.39300537    4.90999985    2.84999990
   15.15916634  155.42900085    4.90999985    2.84999990
   15.16249943  142.04600525    4.90999985    2.84999990
   15.16555500  138.88900757    4.90999985    2.84999990
   15.16888905  137.74200439    4.90999985    2.84999990
   15.17222214  135.77200317    4.90999985    2.86999989
   15.17527771  155.23300171    4.90999985    2.86999989
   15.17861176  148.90800476    4.90999985    2.84999990
   15.18166733  150.07800293    4.90999985    2.86999989
   15.18500042  141.00900269    4.90999985    2.84999990
   15.18750000  139.52499390    4.90999985    2.86999989
   15.18861103  151.48899841    4.90999985    2.84999990
   15.19194412  146.45799255    4.90999985    2.84999990
   15.19777775  146.45799255    4.90999985    2.84999990
   15.20194435  146.17599487    4.90999985    2.84999990
   15.20527744  137.65499878    4.90999985    2.84999990
   15.20861053  144.35400391    4.90999985    2.84999990
   15.21166611  140.47099304    4.90999985    2.84999990
   15.21500015  157.67500305    4.90999985    2.84999990
   15.21805477  139.30299377    4.90999985    2.84999990
   15.22083282  148.57400513    4.90999985    2.84999990
   15.22166634  154.29100037    4.90999985    2.84999990
   15.22499943  147.53399658    4.90999985    2.84999990
   15.22833252  146.21499634    4.90999985    2.86999989
   15.23138809  140.49000549    4.90999985    2.86999989
   15.23472214  155.07200623    4.90999985    2.86999989
   15.24083328  155.07200623    4.90999985    2.86999989
   15.24499989  153.26499939    4.90999985    2.86999989
   15.24805546  157.66999817    4.90999985    2.84999990
   15.25138855  129.90199280    4.90999985    2.86999989
   15.25416660  150.66799927    4.90999985    2.84999990
   15.25500011  155.76100159    4.90999985    2.86999989
   15.25833321  150.53199768    4.90999985    2.84999990
   15.26166630  150.08399963    4.90999985    2.86999989
   15.26500034  155.48599243    4.90999985    2.86999989
   15.26805496  151.13299561    4.90999985    2.84999990
   15.27138901  158.58299255    4.90999985    2.86999989
   15.27444458  163.51499939    4.90999985    2.86999989
   15.27777767  145.97399902    4.90999985    2.86999989
   15.28361130  145.97399902    4.90999985    2.84999990
   15.28777790  159.03199768    4.90999985    2.86999989
   15.29083347  149.56399536    4.90999985    2.84999990
   15.29416752  153.65899658    4.90999985    2.84999990
   15.29750061  130.42999268    4.90999985    2.84999990
   15.30055618  144.46200562    4.90999985    2.86999989
   15.30388927  149.76800537    4.90999985    2.84999990
   15.30694485  153.42599487    4.90999985    2.86999989
   15.31027794  148.47500610    4.90999985    2.86999989
   15.31361103  142.65299988    4.90999985    2.84999990
   15.31666660  134.96000671    4.90999985    2.84999990
   15.31999969  134.45500183    4.90999985    2.84999990
   15.32083321  125.45500183    4.90999985    2.84999990
   15.32638836  125.45500183    4.90999985    2.84999990
   15.33055592  143.98599243    4.90999985    2.84999990
   15.33388901  133.41000366    4.90999985    2.86999989
   15.33694458  147.37800598    4.90999985    2.86999989
   15.34027767  140.55700684    4.90999985    2.86999989
   15.34361076  149.78300476    4.90999985    2.86999989
   15.34666634  149.02799988    4.90999985    2.86999989
   15.35000038  142.37800598    4.90999985    2.86999989
   15.35333347  146.34700012    4.90999985    2.86999989
   15.35416698  147.30200195    4.90999985    2.86999989
   15.35666752  132.36500549    4.90999985    2.89000010
   15.36000061  150.99499512    4.90999985    2.86999989
   15.36333370  151.38499451    4.90999985    2.86999989
   15.36916637  151.38499451    4.90999985    2.86999989
   15.37333393  148.13299561    4.90999985    2.86999989
   15.37666702  154.15899658    4.90999985    2.86999989
   15.37972260  144.38000488    4.90999985    2.86999989
   15.38305569  157.43400574    4.90999985    2.86999989
   15.38638878  148.73100281    4.90999985    2.86999989
   15.38749981  149.58099365    4.90999985    2.86999989
   15.38972187  137.40600586    4.90999985    2.86999989
   15.39305496  143.04899597    4.90999985    2.86999989
   15.39638901  143.17500305    4.90999985    2.86999989
   15.39944458  147.30900574    4.90999985    2.86999989
   15.40277767  136.10899353    4.90999985    2.86999989
   15.40611076  136.32600403    4.90999985    2.86999989
   15.41222191  136.32600403    4.90999985    2.86999989
   15.41611099  135.51199341    4.90999985    2.86999989
   15.41944504  151.19900513    4.90999985    2.86999989
   15.42083359  142.73500061    4.90999985    2.86999989
   15.42305565  136.05299377    4.90999985    2.86999989
   15.42638874  145.65899658    4.90999985    2.86999989
   15.42972279  155.05000305    4.90999985    2.86999989
   15.43277836  137.66799927    4.90999985    2.86999989
   15.43611145  170.36700439    4.90999985    2.86999989
   15.43944454  145.28999329    4.90999985    2.86999989
   15.44250011  151.03900146    4.90999985    2.84999990
   15.44583321  144.52900696    4.90999985    2.86999989
   15.44888878  159.27999878    4.90999985    2.86999989
   15.45499992  159.27999878    4.90999985    2.86999989
   15.45916653  160.69900513    4.90999985    2.86999989
   15.46222210  141.69799805    4.90999985    2.86999989
   15.46555519  140.20599365    4.90999985    2.86999989
   15.46861076  152.95799255    4.90999985    2.86999989
   15.47194386  139.05400085    4.90999985    2.86999989
   15.47527695  135.58900452    4.90999985    2.86999989
   15.47833252  162.26600647    4.90999985    2.84999990
   15.48166656  149.63499451    4.90999985    2.86999989
   15.48500061  155.01899719    4.90999985    2.86999989
   15.48750019  156.44500732    4.90999985    2.86999989
   15.48833370  132.98599243    4.90999985    2.86999989
   15.49166679  137.81500244    4.90999985    2.86999989
   15.49777794  137.81500244    4.90999985    2.89000010
   15.50194454  140.17799377    4.90999985    2.86999989
   15.50500011  139.60200500    4.90999985    2.86999989
   15.50833321  138.09399414    4.90999985    2.86999989
   15.51166630  122.64399719    4.90999985    2.86999989
   15.51472187  141.04200745    4.90999985    2.86999989
   15.51805496  127.94999695    4.90999985    2.86999989
   15.52083302  155.65899658    4.90999985    2.86999989
   15.52166653  134.48100281    4.90999985    2.86999989
   15.52499962  145.72599792    4.90999985    2.86999989
   15.52833271  139.92199707    4.90999985    2.86999989
   15.53138828  135.80099487    4.90999985    2.86999989
   15.53472233  148.47200012    4.90999985    2.86999989
   15.54055595  148.47200012    4.90999985    2.86999989
   15.54472256  120.30999756    4.90999985    2.86999989
   15.54805565  143.20199585    4.90999985    2.84999990
   15.55111122  148.11399841    4.90999985    2.84999990
   15.55416679  137.75700378    4.90999985    2.86999989
   15.55500031  145.12100220    4.90999985    2.86999989
   15.55805588  142.78300476    4.90999985    2.86999989
   15.56138897  129.87100220    4.90999985    2.84999990
   15.56444454  129.75399780    4.90999985    2.86999989
   15.56777763  131.24000549    4.90999985    2.86999989
   15.57111073  135.63800049    4.90999985    2.84999990
   15.57416630  135.33299255    4.90999985    2.86999989
   15.57750034  133.42500305    4.90999985    2.86999989
   15.58333302  133.42500305    4.90999985    2.86999989
   15.58749962  136.27999878    4.90999985    2.89000010
   15.59083271  124.61100006    4.90999985    2.86999989
   15.59416676  125.83000183    4.90999985    2.86999989
   15.59722233  121.91799927    4.90999985    2.86999989
   15.60055637  138.89799500    4.90999985    2.86999989
   15.60361195  138.11999512    4.90999985    2.86999989
   15.60694504  139.51800537    4.90999985    2.86999989
   15.61027813  135.26300049    4.90999985    2.86999989
   15.61333370  142.37399292    4.90999985    2.84999990
   15.61666679  133.82299805    4.90999985    2.86999989
   15.61999989  135.85400391    4.90999985    2.86999989
   15.62083340  135.89900208    4.90999985    2.84999990
   15.62638855  135.89900208    4.90999985    2.86999989
   15.63055611  145.32499695    4.90999985    2.86999989
   15.63361073  129.03599548    4.90999985    2.86999989
   15.63694477  139.33999634    4.90999985    2.86999989
   15.65444374  136.50399780    4.90999985    2.86999989
   15.65694427  134.92700195    4.90999985    2.86999989
   15.65999985  131.88099670    4.90999985    2.86999989
   15.66333294  133.69299316    4.90999985    2.89000010
   15.66944504  133.69299316    4.90999985    2.89000010
   15.67333412  128.24800110    4.90999985    2.86999989
   15.67666721  138.78900146    4.90999985    2.86999989
   15.68000031  124.08399963    4.90999985    2.86999989
   15.68305588  128.95300293    4.90999985    2.86999989
   15.68638897  143.72799683    4.90999985    2.86999989
   15.68777752  128.71699524    4.90999985    2.86999989
   15.69027805  139.83099365    4.90999985    2.86999989
   15.69333363  137.75700378    4.90999985    2.86999989
   15.69666672  127.44799805    4.90999985    2.86999989
   15.69972229  149.28599548    4.90999985    2.84999990
   15.70305538  131.15499878    4.90999985    2.89000010
   15.70638847  130.16000366    4.90999985    2.86999989
   15.71222210  130.16000366    4.90999985    2.86999989
   15.71638870  133.71000671    4.90999985    2.86999989
   15.71944427  139.31300354    4.90999985    2.86999989
   15.72111034  131.96499634    4.90999985    2.86999989
   15.72305489  139.30700684    4.90999985    2.86999989
   15.72638798  133.82000732    4.90999985    2.86999989
   15.72972202  145.40699768    4.90999985    2.86999989
   15.73277760  130.19000244    4.90999985    2.86999989
   15.73611164  133.13999939    4.90999985    2.86999989
   15.73916721  144.30700684    4.90999985    2.86999989
   15.74250031  128.35400391    4.90999985    2.86999989
   15.74583340  129.04899597    4.90999985    2.86999989
   15.74888897  136.32000732    4.90999985    2.86999989
   15.75500011  136.32000732    4.90999985    2.86999989
   15.75916672  132.27799988    4.90999985    2.86999989
   15.76249981  135.18200684    4.90999985    2.86999989
   15.76555538  129.23100281    4.90999985    2.86999989
   15.76888847  130.96899414    4.90999985    2.86999989
   15.77194405  138.91600037    4.90999985    2.86999989
   15.77527714  135.44200134    4.90999985    2.86999989
   15.77861118  135.84700012    4.90999985    2.86999989
   15.78166676  133.38200378    4.90999985    2.86999989
   15.78500080  134.05000305    4.90999985    2.86999989
   15.78777790  136.06199646    4.90999985    2.86999989
   15.78861141  128.07099915    4.90999985    2.86999989
   15.79194450  142.04499817    4.90999985    2.86999989
   15.79777813  142.04499817    4.90999985    2.86999989
   15.80194473  125.64199829    4.90999985    2.86999989
   15.80527782  139.56500244    4.90999985    2.86999989
   15.80833340  136.46499634    4.90999985    2.86999989
   15.81166649  134.50300598    4.90999985    2.86999989
   15.81500053  133.07699585    4.90999985    2.86999989
   15.81805515  142.39199829    4.90999985    2.86999989
   15.82111073  139.61999512    4.90999985    2.86999989
   15.82166672  139.46499634    4.90999985    2.86999989
   15.82499981  134.78100586    4.90999985    2.86999989
   15.82833290  136.78500366    4.90999985    2.86999989
   15.83138847  138.56500244    4.90999985    2.86999989
   15.83472157  139.74699402    4.90999985    2.86999989
   15.84083271  139.74699402    4.90999985    2.86999989
   15.84472179  136.19700623    4.90999985    2.86999989
   15.84805489  134.98300171    4.90999985    2.86999989
   15.85138893  139.98899841    4.90999985    2.89000010
   15.85444450  139.77000427    4.90999985    2.86999989
   15.85472298  139.67999268    4.90999985    2.86999989
   15.85805607  133.08299255    4.90999985    2.86999989
   15.86138916  135.77200317    4.90999985    2.86999989
   15.86444473  135.32400513    4.90999985    2.86999989
   15.86777782  137.41700745    4.90999985    2.86999989
   15.87111092  135.28500366    4.90999985    2.86999989
   15.87416649  133.77900696    4.90999985    2.89000010
   15.87750053  139.31700134    4.90999985    2.89000010
   15.88361073  139.31700134    4.90999985    2.86999989
   15.88777733  142.91600037    4.90999985    2.89000010
   15.89083290  138.91900635    4.90999985    2.86999989
   15.89416695  146.31199646    4.90999985    2.86999989
   15.89750004  141.47500610    4.90999985    2.86999989
   15.90055561  144.25599670    4.90999985    2.86999989
   15.90388870  143.03500366    4.90999985    2.86999989
   15.90694427  152.28500366    4.90999985    2.86999989
   15.91027737  141.57499695    4.90999985    2.86999989
   15.91361046  140.49000549    4.90999985    2.89000010
   15.91666698  130.88600159    4.90999985    2.86999989
   15.92000008  121.47599792    4.90999985    2.86999989
   15.92111111  131.75300598    4.90999985    2.86999989
   15.92638874  131.75300598    4.90999985    2.86999989
   15.93055630  136.11700439    4.90999985    2.86999989
   15.93388939  130.71099854    4.90999985    2.86999989
   15.93694496  140.11999512    4.90999985    2.86999989
   15.94027805  137.05999756    4.90999985    2.86999989
   15.94333363  134.74800110    4.90999985    2.86999989
   15.94666672  141.00399780    4.90999985    2.89000010
   15.94999981  127.49800110    4.90999985    2.86999989
   15.95305538  127.17700195    4.90999985    2.86999989
   15.95444393  130.86099243    4.90999985    2.84999990
   15.95666695  132.55499268    4.90999985    2.86999989
   15.96000004  125.22599792    4.90999985    2.86999989
   15.96333313  138.21400452    4.90999985    2.86999989
   15.96916580  138.21400452    4.90999985    2.86999989
   15.97333336  134.45799255    4.90999985    2.86999989
   15.97666645  149.08000183    4.90999985    2.86999989
   15.97972202  138.53100586    4.90999985    2.86999989
   15.98305511  135.39700317    4.90999985    2.86999989
   15.98638916  143.68499756    4.90999985    2.86999989
   15.98777771  139.26699829    4.90999985    2.86999989
   15.98972225  137.53599548    4.90999985    2.86999989
   15.99305534  131.52200317    4.90999985    2.86999989
   15.99638939  119.76599884    4.90999985    2.86999989
   15.99944496  135.76600647    4.90999985    2.86999989
   16.00277710  132.59199524    4.90999985    2.86999989
   16.00611115  138.80400085    4.90999985    2.86999989
   16.01222229  138.80400085    4.90999985    2.86999989
   16.01611137  119.48200226    4.90999985    2.86999989
   16.01944351  127.58599854    4.90999985    2.86999989
   16.02111053  131.23399353    4.90999985    2.86999989
   16.02333260  137.58299255    4.90999985    2.86999989
   16.02638817  137.14399719    4.90999985    2.86999989
   16.02972221  116.87200165    4.90999985    2.86999989
   16.03305435  138.99000549    4.90999985    2.86999989
   16.03610992  126.86100006    4.90999985    2.86999989
   16.03944397  124.24800110    4.90999985    2.86999989
   16.04249954  141.21400452    4.90999985    2.86999989
   16.04583359  133.94900513    4.90999985    2.86999989
   16.04916573  138.92300415    4.90999985    2.89000010
   16.05499840  138.92300415    4.90999985    2.86999989
   16.05916595  136.08200073    4.90999985    2.86999989
   16.06222153  150.84800720    4.90999985    2.86999989
   16.06555557  137.22000122    4.90999985    2.86999989
   16.06888962  128.63000488    4.90999985    2.86999989
   16.07194519  139.05099487    4.90999985    2.86999989
   16.07527924  142.38200378    4.90999985    2.86999989
   16.07833481  135.07000732    4.90999985    2.86999989
   16.08166695  142.32299805    4.90999985    2.86999989
   16.08500099  148.69999695    4.90999985    2.86999989
   16.08777809  133.11500549    4.90999985    2.86999989
   16.08833313  147.00999451    4.90999985    2.89000010
   16.09166718  134.99200439    4.90999985    2.89000010
   16.09777832  134.99200439    4.90999985    2.86999989
   16.10194397  136.80099487    4.90999985    2.86999989
   16.10527802  132.27299500    4.90999985    2.86999989
   16.10833359  139.12699890    4.90999985    2.86999989
   16.11166763  128.60800171    4.90999985    2.86999989
   16.11472321  140.57899475    4.90999985    2.86999989
   16.11805534  135.44799805    4.90999985    2.86999989
   16.12111092  136.95100403    4.90999985    2.86999989
   16.12194443  139.13900757    4.90999985    2.86999989
   16.12500000  140.98100281    4.90999985    2.86999989
   16.12833405  138.75900269    4.90999985    2.86999989
   16.13138962  137.46099854    4.90999985    2.86999989
   16.13472176  140.18899536    4.90999985    2.86999989
   16.14055634  140.18899536    4.90999985    2.86999989
   16.14472198  141.50999451    4.90999985    2.86999989
   16.14805603  146.76899719    4.90999985    2.86999989
   16.15111160  139.57899475    4.90999985    2.86999989
   16.15444374  147.04600525    4.90999985    2.86999989
   16.15472221  142.87600708    4.90999985    2.86999989
   16.15805435  141.73899841    4.90999985    2.89000010
   16.16138840  137.31599426    4.90999985    2.86999989
   16.16444397  141.03399658    4.90999985    2.86999989
   16.16777802  142.31199646    4.90999985    2.86999989
   16.17111015  137.73199463    4.90999985    2.86999989
   16.17416573  138.22799683    4.90999985    2.86999989
   16.17749977  143.48399353    4.90999985    2.86999989
   16.18361092  143.48399353    4.90999985    2.86999989
   16.18750000  137.81100464    4.90999985    2.86999989
   16.18805504  129.22799683    4.90999985    2.86999989
   16.19138718  133.86300659    4.90999985    2.86999989
   16.19472122  136.14900208    4.90999985    2.86999989
   16.19777679  140.11300659    4.90999985    2.89000010
   16.20111275  134.08700562    4.90999985    2.86999989
   16.20444489  141.29699707    4.90999985    2.86999989
   16.20750046  138.57800293    4.90999985    2.86999989
   16.21083450  137.68499756    4.90999985    2.86999989
   16.21416664  137.42599487    4.90999985    2.86999989
   16.21722221  134.83599854    4.90999985    2.86999989
   16.22055626  136.19200134    4.90999985    2.86999989
   16.22138977  129.92199707    4.90999985    2.86999989
   16.22638893  129.92199707    4.90999985    2.86999989
   16.23055649  134.58599854    4.90999985    2.86999989
   16.23361206  125.16699982    4.90999985    2.86999989
   16.23694420  125.33100128    4.90999985    2.86999989
   16.23999977  132.60099792    4.90999985    2.86999989
   16.24333382  131.21299744    4.90999985    2.89000010
   16.24666786  137.03100586    4.90999985    2.86999989
   16.24972153  129.80700684    4.90999985    2.89000010
   16.25305557  129.62899780    4.90999985    2.86999989
   16.25472260  136.18200684    4.90999985    2.86999989
   16.25666618  122.20800018    4.90999985    2.86999989
   16.26000023  129.79699707    4.90999985    2.86999989
   16.26305580  134.89300537    4.90999985    2.86999989
   16.26916695  134.89300537    4.90999985    2.86999989
   16.27333260  126.90599823    4.90999985    2.89000010
   16.27638817  128.72500610    4.90999985    2.86999989
   16.27972221  125.93699646    4.90999985    2.86999989
   16.28305435  132.55700684    4.90999985    2.89000010
   16.28610992  148.72099304    4.90999985    2.86999989
   16.28805542  146.93200684    4.90999985    2.86999989
   16.28972244  151.17999268    4.90999985    2.86999989
   16.29305458  140.11999512    4.90999985    2.86999989
   16.29611015  142.36300659    4.90999985    2.86999989
   16.29944420  137.03799438    4.90999985    2.86999989
   16.30249977  140.78599548    4.90999985    2.86999989
   16.30583191  143.06300354    4.90999985    2.86999989
   16.31194305  143.06300354    4.90999985    2.89000010
   16.31611061  134.24000549    4.90999985    2.86999989
   16.31944466  134.28799438    4.90999985    2.86999989
   16.32139015  147.89100647    4.90999985    2.86999989
   16.32305717  144.22399902    4.90999985    2.86999989
   16.32638931  142.03100586    4.90999985    2.86999989
   16.32944489  140.66900635    4.90999985    2.86999989
   16.33277893  155.57800293    4.90999985    2.86999989
   16.33611107  121.91899872    4.90999985    2.86999989
   16.33916664  144.77600098    4.90999985    2.89000010
   16.34250069  130.68800354    4.90999985    2.86999989
   16.34555626  141.78599548    4.90999985    2.86999989
   16.34889030  135.02400208    4.90999985    2.86999989
   16.35499954  135.02400208    4.90999985    2.86999989
   16.35888863  142.41799927    4.90999985    2.86999989
   16.36222267  130.10699463    4.90999985    2.86999989
   16.36555672  134.00100708    4.90999985    2.86999989
   16.36861038  122.45999908    4.90999985    2.86999989
   16.37194443  125.00800323    4.90999985    2.86999989
   16.37500000  133.16700745    4.90999985    2.86999989
   16.37833405  159.01899719    4.90999985    2.86999989
   16.38166618  118.12100220    4.90999985    2.86999989
   16.38472176  133.32899475    4.90999985    2.86999989
   16.38805580  123.45700073    4.90999985    2.86999989
   16.38999939  112.30000305    4.90999985    2.86999989
   16.39166641  117.12100220    4.90999985    2.86999989
   16.39777756  117.12100220    4.90999985    2.84999990
   16.40194321  118.44000244    4.90999985    2.86999989
   16.40499878  133.63299561    4.90999985    2.86999989
   16.40833282  119.40399933    4.90999985    2.86999989
   16.41166687  123.59999847    4.90999985    2.86999989
   16.41472244  118.01200104    4.90999985    2.86999989
   16.41805458  139.62800598    4.90999985    2.86999989
   16.42111015  131.18499756    4.90999985    2.86999989
   16.42333221  142.16499329    4.90999985    2.86999989
   16.42472076  139.66400146    4.90999985    2.86999989
   16.42805481  121.86699677    4.90999985    2.86999989
   16.43138885  127.86699677    4.90999985    2.86999989
   16.43444443  129.27200317    4.90999985    2.86999989
   16.44055557  129.27200317    4.90999985    2.86999989
   16.44472122  134.27499390    4.90999985    2.86999989
   16.44777679  154.86199951    4.90999985    2.86999989
   16.45111275  139.21699524    4.90999985    2.86999989
   16.45444489  152.63600159    4.90999985    2.86999989
   16.45666695  151.47999573    4.90999985    2.86999989
   16.45805550  147.33999634    4.90999985    2.86999989
   16.46138954  153.43499756    4.90999985    2.86999989
   16.46444511  163.31399536    4.90999985    2.86999989
   16.46777916  154.24899292    4.90999985    2.86999989
   16.47111130  149.78900146    4.90999985    2.86999989
   16.47416687  153.83799744    4.90999985    2.86999989
   16.47750092  146.30400085    4.90999985    2.89000010
   16.48333359  146.30400085    4.90999985    2.86999989
   16.48750114  157.83900452    4.90999985    2.86999989
   16.48999977  142.22399902    4.90999985    2.86999989
   16.49111176  137.71499634    4.90999985    2.86999989
   16.49444389  147.25399780    4.90999985    2.86999989
   16.49749947  142.01199341    4.90999985    2.86999989
   16.50083351  152.50700378    4.90999985    2.86999989
   16.50416756  133.15600586    4.90999985    2.86999989
   16.50722313  145.45899963    4.90999985    2.86999989
   16.51055527  141.38699341    4.90999985    2.86999989
   16.51361084  145.58299255    4.90999985    2.86999989
   16.51694489  151.31199646    4.90999985    2.86999989
   16.52027702  144.25100708    4.90999985    2.89000010
   16.52611160  144.25100708    4.90999985    2.86999989
   16.53027725  135.34500122    4.90999985    2.86999989
   16.53361130  147.15299988    4.90999985    2.89000010
   16.53694344  137.49600220    4.90999985    2.86999989
   16.53999901  142.96000671    4.90999985    2.86999989
   16.54333305  139.56399536    4.90999985    2.86999989
   16.54666710  148.77600098    4.90999985    2.86999989
   16.54972076  163.16499329    4.90999985    2.86999989
   16.55305481  146.25999451    4.90999985    2.86999989
   16.55638885  144.47300720    4.90999985    2.86999989
   16.55722237  140.28500366    4.90999985    2.86999989
   16.55972099  150.24699402    4.90999985    2.86999989
   16.56305504  146.80599976    4.90999985    2.86999989
   16.56916809  146.80599976    4.90999985    2.86999989
   16.57333374  144.28599548    4.90999985    2.86999989
   16.57638931  147.43299866    4.90999985    2.86999989
   16.57972336  143.97000122    4.90999985    2.86999989
   16.58277893  149.75100708    4.90999985    2.89000010
   16.58611107  131.94000244    4.90999985    2.86999989
   16.58944511  153.28799438    4.90999985    2.89000010
   16.59055710  138.01300049    4.90999985    2.86999989
   16.59277916  149.12699890    4.90999985    2.86999989
   16.59611130  145.53900146    4.90999985    2.86999989
   16.59944534  140.97200012    4.90999985    2.86999989
   16.60250092  153.25199890    4.90999985    2.86999989
   16.60583305  145.03100586    4.90999985    2.86999989
   16.61194420  145.03100586    4.90999985    2.86999989
   16.61611176  126.36100006    4.90999985    2.86999989
   16.61916733  141.04299927    4.90999985    2.86999989
   16.62249947  148.35400391    4.90999985    2.89000010
   16.62388992  147.19200134    4.90999985    2.89000010
   16.62611198  141.32000732    4.90999985    2.89000010
   16.62944412  143.36799622    4.90999985    2.86999989
   16.63249969  144.31599426    4.90999985    2.86999989
   16.63583374  148.47200012    4.90999985    2.86999989
   16.63916588  154.97399902    4.90999985    2.86999989
   16.64222145  135.05099487    4.90999985    2.86999989
   16.64555550  144.78100586    4.90999985    2.86999989
   16.64861107  134.73500061    4.90999985    2.86999989
   16.65472221  134.73500061    4.90999985    2.86999989
   16.67305565  137.08299255    4.90999985    2.86999989
   16.67638779  144.19200134    4.90999985    2.86999989
   16.67972183  141.98899841    4.90999985    2.86999989
   16.68277740  140.29400635    4.90999985    2.86999989
   16.68610954  143.87500000    4.90999985    2.86999989
   16.68944359  140.33900452    4.90999985    2.89000010
   16.69249916  142.90899658    4.90999985    2.89000010
   16.69777679  142.90899658    4.90999985    2.89000010
   16.70194435  136.90699768    4.90999985    2.86999989
   16.70527840  142.07499695    4.90999985    2.86999989
   16.70611191  138.09800720    4.90999985    2.86999989
   16.70888901  142.22200012    4.90999985    2.86999989
   16.71222305  139.34700012    4.90999985    2.89000010
   16.71527863  142.53300476    4.90999985    2.86999989
   16.71861076  137.86900330    4.90999985    2.86999989
   16.72194481  143.61900330    4.90999985    2.86999989
   16.72500038  142.50900269    4.90999985    2.86999989
   16.72833443  141.39399719    4.90999985    2.86999989
   16.73166656  140.58500671    4.90999985    2.89000010
   16.73472214  143.98699951    4.90999985    2.86999989
   16.74083328  143.98699951    4.90999985    2.86999989
   16.74500084  145.73699951    4.90999985    2.86999989
   16.74805641  136.96099854    4.90999985    2.86999989
   16.75138855  145.96899414    4.90999985    2.86999989
   16.75444412  140.14700317    4.90999985    2.86999989
   16.75777817  151.57299805    4.90999985    2.86999989
   16.76111031  141.18400574    4.90999985    2.86999989
   16.76416588  138.71600342    4.90999985    2.86999989
   16.76749992  138.50100708    4.90999985    2.86999989
   16.77083397  149.32800293    4.90999985    2.89000010
   16.77277756  144.43800354    4.90999985    2.86999989
   16.77444458  138.48500061    4.90999985    2.86999989
   16.77777672  147.19799805    4.90999985    2.86999989
   16.78361130  147.19799805    4.90999985    2.86999989
   16.78777695  145.78500366    4.90999985    2.86999989
   16.79083252  137.62899780    4.90999985    2.86999989
   16.79416656  144.38900757    4.90999985    2.84999990
   16.79749870  142.90100098    4.90999985    2.86999989
   16.80055428  157.09300232    4.90999985    2.86999989
   16.80388832  160.45100403    4.90999985    2.86999989
   16.80611038  149.10899353    4.90999985    2.86999989
   16.80749893  141.21600342    4.90999985    2.86999989
   16.81083298  152.84300232    4.90999985    2.86999989
   16.81388855  144.58500671    4.90999985    2.86999989
   16.81722260  139.13000488    4.90999985    2.86999989
   16.82055664  137.08000183    4.90999985    2.86999989
   16.82638931  137.08000183    4.90999985    2.86999989
   16.83055687  148.56399536    4.90999985    2.86999989
   16.83388901  144.32200623    4.90999985    2.89000010
   16.83694458  138.17100525    4.90999985    2.86999989
   16.83944511  144.01600647    4.90999985    2.86999989
   16.84055710  141.16200256    4.90999985    2.86999989
   16.84388924  143.95700073    4.90999985    2.86999989
   16.84694481  144.74600220    4.90999985    2.86999989
   16.85027885  137.85000610    4.90999985    2.86999989
   16.85361099  144.39599609    4.90999985    2.86999989
   16.85666656  151.69599915    4.90999985    2.86999989
   16.86000061  146.83700562    4.90999985    2.86999989
   16.86305618  156.79100037    4.90999985    2.86999989
   16.86916733  156.79100037    4.90999985    2.89000010
   16.87333298  149.47000122    4.90999985    2.89000010
   16.87666702  149.32299805    4.90999985    2.86999989
   16.88000107  142.28700256    4.90999985    2.86999989
   16.88305473  160.72799683    4.90999985    2.86999989
   16.88638878  152.41200256    4.90999985    2.86999989
   16.88944435  154.02099609    4.90999985    2.86999989
   16.89277840  153.27799988    4.90999985    2.86999989
   16.89611053  147.03300476    4.90999985    2.86999989
   16.89944458  143.93400574    4.90999985    2.89000010
   16.90250015  147.78399658    4.90999985    2.86999989
   16.90583229  147.51100159    4.90999985    2.89000010
   16.90638924  160.02400208    4.90999985    2.89000010
   16.91222191  160.02400208    4.90999985    2.86999989
   16.91611099  149.88900757    4.90999985    2.86999989
   16.91944313  151.67599487    4.90999985    2.86999989
   16.92277718  147.14399719    4.90999985    2.86999989
   16.92583275  145.59399414    4.90999985    2.86999989
   16.92916679  148.29200745    4.90999985    2.86999989
   16.93249893  152.65100098    4.90999985    2.86999989
   16.93555450  140.85499573    4.90999985    2.86999989
   16.93888855  146.27900696    4.90999985    2.86999989
   16.93972206  153.14399719    4.90999985    2.86999989
   16.94222069  143.01199341    4.90999985    2.86999989
   16.94555473  150.53100586    4.90999985    2.86999989
   16.94888878  152.01199341    4.90999985    2.89000010
   16.95499992  152.01199341    4.90999985    2.86999989
   16.95916748  150.43400574    4.90999985    2.86999989
   16.96222305  151.75700378    4.90999985    2.86999989
   16.96555710  152.58200073    4.90999985    2.86999989
   16.96888924  156.02799988    4.90999985    2.86999989
   16.97194481  155.93699646    4.90999985    2.86999989
   16.97305679  140.10400391    4.90999985    2.86999989
   16.97583389  155.64799500    4.90999985    2.89000010
   16.97888947  150.60600281    4.90999985    2.86999989
   16.98222351  151.03999329    4.90999985    2.89000010
   16.98527718  155.61700439    4.90999985    2.86999989
   16.98861122  158.25900269    4.90999985    2.86999989
   16.99194527  155.26499939    4.90999985    2.86999989
   16.99777794  155.26499939    4.90999985    2.86999989
   17.00194359  154.48199463    4.90999985    2.86999989
   17.00527763  151.27699280    4.90999985    2.86999989
   17.00638962  161.75000000    4.90999985    2.89000010
   17.00861168  141.13000488    4.90999985    2.89000010
   17.01194382  145.11700439    4.90999985    2.89000010
   17.01527786  144.19900513    4.90999985    2.86999989
   17.01833344  157.55000305    4.90999985    2.86999989
   17.02166557  156.31100464    4.90999985    2.86999989
   17.02499962  153.61599731    4.90999985    2.86999989
   17.02805519  147.09100342    4.90999985    2.86999989
   17.03138924  155.86999512    4.90999985    2.89000010
   17.03444481  163.69500732    4.90999985    2.86999989
   17.04055595  163.69500732    4.90999985    2.86999989
   17.04472160  154.50999451    4.90999985    2.86999989
   17.04805565  156.91799927    4.90999985    2.86999989
   17.05138779  154.44500732    4.90999985    2.86999989
   17.05444336  152.71899414    4.90999985    2.86999989
   17.05777740  142.20599365    4.90999985    2.86999989
   17.06083298  148.47099304    4.90999985    2.86999989
   17.06416512  147.25399780    4.90999985    2.86999989
   17.06750107  148.06399536    4.90999985    2.86999989
   17.07055664  150.73199463    4.90999985    2.86999989
   17.07305717  142.25300598    4.90999985    2.86999989
   17.07444572  147.62199402    4.90999985    2.86999989
   17.07750130  142.83200073    4.90999985    2.86999989
   17.08361244  142.83200073    4.90999985    2.86999989
   17.08750153  154.72000122    4.90999985    2.86999989
   17.09083366  158.11099243    4.90999985    2.86999989
   17.09416771  154.50700378    4.90999985    2.86999989
   17.09722328  151.03500366    4.90999985    2.86999989
   17.10055542  151.55299377    4.90999985    2.84999990
   17.10388947  159.50399780    4.90999985    2.86999989
   17.10639000  145.69999695    4.90999985    2.86999989
   17.10722351  153.04699707    4.90999985    2.86999989
   17.11055565  157.00999451    4.90999985    2.84999990
   17.11388969  148.22500610    4.90999985    2.86999989
   17.11694527  150.50900269    4.90999985    2.86999989
   17.12027740  147.11700439    4.90999985    2.86999989
   17.12638855  147.11700439    4.90999985    2.86999989
   17.13055611  147.26800537    4.90999985    2.86999989
   17.13361168  151.47599792    4.90999985    2.86999989
   17.13694382  153.37800598    4.90999985    2.86999989
   17.13972282  151.76199341    4.90999985    2.86999989
   17.14083290  153.07299805    4.90999985    2.86999989
   17.14388847  143.72999573    4.90999985    2.86999989
   17.14722252  149.04800415    4.90999985    2.86999989
   17.15027809  155.50799561    4.90999985    2.86999989
   17.15361023  149.82299805    4.90999985    2.86999989
   17.15694427  146.86199951    4.90999985    2.86999989
   17.15999985  143.25599670    4.90999985    2.86999989
   17.16333389  144.01400757    4.90999985    2.86999989
   17.16916656  144.01400757    4.90999985    2.86999989
   17.17333221  153.41799927    4.90999985    2.84999990
   17.17666626  162.33799744    4.90999985    2.86999989
   17.17972183  144.83999634    4.90999985    2.86999989
   17.18305397  153.59700012    4.90999985    2.86999989
   17.18638802  160.13400269    4.90999985    2.86999989
   17.18944359  169.64500427    4.90999985    2.86999989
   17.19277763  173.11700439    4.90999985    2.86999989
   17.19583321  181.64199829    4.90999985    2.86999989
   17.19916534  175.19799805    4.90999985    2.86999989
   17.20250130  167.68200684    4.90999985    2.86999989
   17.20555687  163.08999634    4.90999985    2.86999989
   17.20639038  147.97900391    4.90999985    2.86999989
   17.21194458  147.97900391    4.90999985    2.86999989
   17.21694565  165.28599548    4.90999985    2.86999989
   17.22027779  166.61199951    4.90999985    2.86999989
   17.22333336  139.99099731    4.90999985    2.86999989
   17.22666740   -1.00000000    4.90999985    2.86999989
   17.22972298   -1.00000000    4.90999985    2.86999989
   17.23305511  133.32800293    4.90999985    2.86999989
   17.23638916  131.73599243    4.90999985    2.84999990
   17.23944473  145.45199585    4.90999985    2.86999989
   17.23999977  149.46400452    4.90999985    2.86999989
   17.24333382  154.46499634    4.90999985    2.86999989
   17.24666786  141.35699463    4.90999985    2.86999989
   17.24972153  143.04800415    4.90999985    2.86999989
   17.25499916  143.04800415    4.90999985    2.86999989
   17.25888824  145.57699585    4.90999985    2.86999989
   17.26222229  145.36199951    4.90999985    2.86999989
   17.26555634  149.12500000    4.90999985    2.84999990
   17.26861000  156.25500488    4.90999985    2.86999989
   17.27194405  156.08799744    4.90999985    2.86999989
   17.27333260  145.09399414    4.90999985    2.86999989
   17.27555466  149.67300415    4.90999985    2.86999989
   17.27888870  131.89799500    4.90999985    2.86999989
   17.28194427  128.52499390    4.90999985    2.84999990
   17.28527641  147.69299316    4.90999985    2.86999989
   17.28833199  155.46800232    4.90999985    2.86999989
   17.29166603  141.99499512    4.90999985    2.86999989
   17.29777718  141.99499512    4.90999985    2.86999989
   17.30194283  127.70800018    4.90999985    2.86999989
   17.30499840  137.26400757    4.90999985    2.86999989
   17.30666542  136.22000122    4.90999985    2.84999990
   17.30888748  137.85499573    4.90999985    2.86999989
   17.31222153  141.85600281    4.90999985    2.86999989
   17.31527710  132.80900574    4.90999985    2.86999989
   17.31861115  134.72399902    4.90999985    2.86999989
   17.32194519  134.06199646    4.90999985    2.86999989
   17.32500076  132.66799927    4.90999985    2.86999989
   17.32833481  150.60200500    4.90999985    2.86999989
   17.33166695  145.08299255    4.90999985    2.86999989
   17.33472252  134.29200745    4.90999985    2.86999989
   17.34055710  134.29200745    4.90999985    2.96000004
   17.34472275  144.48199463    4.90999985    2.98000002
   17.34805679  144.00000000    4.90999985    2.98000002
   17.35111237  139.65299988    4.90999985    2.98000002
   17.35444450  152.35600281    4.90999985    2.96000004
   17.35750008  134.76800537    4.90999985    2.98000002
   17.36083412  145.00599670    4.90999985    2.98000002
   17.36416626  140.86199951    4.90999985    2.98000002
   17.36722183  142.16200256    4.90999985    2.96000004
   17.37055588  136.28300476    4.90999985    2.98000002
   17.37333298  130.14900208    4.90999985    2.98000002
   17.37416649  132.65899658    4.90999985    2.98000002
   17.37750053  141.40699768    4.90999985    2.98000002
   17.38333321  141.40699768    4.90999985    2.89000010
   17.38750076  145.20199585    4.90999985    2.98000002
   17.39083290  137.22700500    4.90999985    2.98000002
   17.39388847  143.86799622    4.90999985    2.98000002
   17.39722252  147.91499329    4.90999985    2.98000002
   17.40055466  130.75500488    4.90999985    2.98000002
   17.40361023  141.55999756    4.90999985    2.98000002
   17.40666580  136.73899841    4.90999985    2.98000002
   17.40722275  129.59500122    4.90999985    2.98000002
   17.41055489  130.95300293    4.90999985    2.98000002
   17.41361046  139.90299988    4.90999985    2.98000002
   17.41694450  139.82200623    4.90999985    2.98000002
   17.42000008  136.33399963    4.90999985    2.98000002
   17.42638779  136.33399963    4.90999985    2.98000002
   17.43055534  136.40899658    4.90999985    2.98000002
   17.43361092  129.96400452    4.90999985    3.01999998
   17.43694305  131.58900452    4.90999985    2.98000002
   17.43999863  119.71199799    4.90999985    3.00000000
   17.44055557  133.33799744    4.90999985    3.00000000
   17.44388771  140.84599304    4.90999985    2.98000002
   17.44694328  132.63800049    4.90999985    2.98000002
   17.45027924  128.97200012    4.90999985    2.98000002
   17.45416832  128.85499573    0.00000000    0.00000000
   17.45805550  134.35800171    0.00000000    0.00000000
   17.46166801  131.37600708    0.00000000    0.00000000
   17.46555710  141.81700134    0.00000000    0.00000000
   17.47027779  141.81700134    0.00000000    0.00000000
   17.47500038  141.32600403    0.00000000    0.00000000
   17.47888947  140.91499329    0.00000000    0.00000000
   17.48277855  139.59800720    0.00000000    0.00000000
   17.48666763  137.52499390    0.00000000    0.00000000
   17.49055672  136.08500671    0.00000000    0.00000000
   17.49444389  138.95399475    0.00000000    0.00000000
   17.49777794  129.72500610    4.90999985    2.98000002
   17.50111198  138.58900452    4.90999985    2.98000002
   17.50416756  150.68800354    4.90999985    2.98000002
   17.50694466  138.76199341    4.90999985    2.98000002
   17.50805473  128.06399536    4.90999985    2.98000002
   17.51277733  128.06399536    4.90999985    2.98000002
   17.51694489  144.81599426    4.90999985    2.98000002
   17.52000046  137.52999878    4.90999985    2.98000002
   17.52333260  138.92500305    4.90999985    2.98000002
   17.52638817  139.72599792    4.90999985    2.98000002
   17.52972221  141.32000732    4.90999985    2.98000002
   17.53305435  143.22500610    4.90999985    2.98000002
   17.53610992  125.22799683    4.90999985    2.98000002
   17.53944397  139.16700745    4.90999985    2.96000004
   17.54027748  130.93800354    4.90999985    2.96000004
   17.54305458  123.95800018    4.90999985    2.98000002
   17.54611015  129.58900452    4.90999985    2.96000004
   17.54944420  130.52000427    4.90999985    2.96000004
   17.55555534  130.52000427    4.90999985    2.96000004
   17.55972099  130.00700378    4.90999985    2.96000004
   17.56277657  132.29100037    4.90999985    2.96000004
   17.56611061  140.18400574    4.90999985    2.98000002
   17.56916809  130.70599365    4.90999985    2.98000002
   17.57250023  124.88899994    4.90999985    2.98000002
   17.57361221  129.17500305    4.90999985    2.98000002
   17.57638931  122.69499969    4.90999985    2.96000004
   17.57944489  129.90499878    4.90999985    2.98000002
   17.58277893  135.18699646    4.90999985    2.96000004
   17.58583450  136.13600159    4.90999985    2.96000004
   17.58916664  125.78700256    4.90999985    2.98000002
   17.59250069  132.92799377    4.90999985    2.98000002
   17.59833336  132.92799377    4.90999985    2.96000004
   17.60250092  134.35400391    4.90999985    2.96000004
   17.60555649  135.58299255    4.90999985    2.96000004
   17.60694504  129.09399414    4.90999985    2.96000004
   17.60944557  136.50500488    4.90999985    2.96000004
   17.61250114  139.41299438    4.90999985    2.96000004
   17.61583328  142.72500610    4.90999985    2.96000004
   17.61888885  130.41299438    4.90999985    2.96000004
   17.62222290  135.35600281    4.90999985    2.96000004
   17.62555504  135.14300537    4.90999985    2.96000004
   17.62861061  130.09199524    4.90999985    2.96000004
   17.63194466  147.15499878    4.90999985    2.96000004
   17.63527679  122.00800323    4.90999985    2.96000004
   17.64111137  122.00800323    4.90999985    2.98000002
   17.64527702  141.11500549    4.90999985    2.98000002
   17.64861107  132.12300110    4.90999985    2.96000004
   17.65166664  144.30999756    4.90999985    2.98000002
   17.65499878  129.88800049    4.90999985    2.96000004
   17.65833282  139.68800354    4.90999985    2.96000004
   17.66138840  138.75500488    4.90999985    2.96000004
   17.66472244  140.28300476    4.90999985    2.96000004
   17.66777802  125.09400177    4.90999985    2.96000004
   17.67111015  125.42800140    4.90999985    2.98000002
   17.67361069  125.11599731    4.90999985    2.98000002
   17.69416618  125.11599731    4.90999985    2.96000004
   17.69833183  139.40699768    4.90999985    2.96000004
   17.70166779  132.86399841    4.90999985    2.98000002
   17.70472336  143.91999817    4.90999985    2.96000004
   17.70694542  129.98599243    4.90999985    2.96000004
   17.70861244  133.57899475    4.90999985    2.98000002
   17.71166801  128.54100037    4.90999985    2.98000002
   17.71500015  133.00399780    4.90999985    2.98000002
   17.71833420  141.88200378    4.90999985    2.98000002
   17.72138977  128.93200684    4.90999985    2.96000004
   17.72472191  132.14599609    4.90999985    2.98000002
   17.72777748  133.15299988    4.90999985    2.96000004
   17.73111153  141.06599426    4.90999985    2.96000004
   17.73694420  141.06599426    4.90999985    2.96000004
   17.74111176  147.24600220    4.90999985    2.96000004
   17.74444389  119.54399872    4.90999985    2.96000004
   17.74749947  145.81199646    4.90999985    2.96000004
   17.75083351  153.64500427    4.90999985    2.98000002
   17.75416756  153.14799500    4.90999985    2.94000006
   17.75722313  159.67900085    4.90999985    2.96000004
   17.76055527  148.02200317    4.90999985    2.96000004
   17.76361084  155.97599792    4.90999985    2.96000004
   17.76694489  154.50700378    4.90999985    2.96000004
   17.77027702  161.68499756    4.90999985    2.98000002
   17.77333260  159.92199707    4.90999985    2.98000002
   17.77388954  174.37800598    4.90999985    2.98000002
   17.77972221  174.37800598    4.90999985    2.96000004
   17.78388786  172.30900574    4.90999985    2.96000004
   17.78722191  152.93400574    4.90999985    2.96000004
   17.79055595  174.59500122    4.90999985    2.96000004
   17.79361153  163.58399963    4.90999985    2.96000004
   17.79694366  170.80999756    4.90999985    2.96000004
   17.79999924  154.11000061    4.90999985    2.96000004
   17.80333328  144.13299561    4.90999985    2.96000004
   17.80666542  130.08599854    4.90999985    2.94000006
   17.80722237  144.82499695    4.90999985    2.94000006
   17.81027794  157.79800415    4.90999985    2.94000006
   17.81361008  153.04699707    4.90999985    2.94000006
   17.81666756  159.70599365    4.90999985    2.96000004
   17.82277870  159.70599365    4.90999985    2.94000006
   17.82666779  149.18400574    4.90999985    2.94000006
   17.83000183  152.97500610    4.90999985    2.94000006
   17.83333397  146.37399292    4.90999985    2.94000006
   17.83638954  152.30900574    4.90999985    2.94000006
   17.83972359  154.71800232    4.90999985    2.93000007
   17.84055710  146.70100403    4.90999985    2.94000006
   17.84333420  142.80999756    4.90999985    2.94000006
   17.84666824  145.30299377    4.90999985    2.94000006
   17.84972191  139.23300171    4.90999985    2.96000004
   17.85305595  151.72999573    4.90999985    2.93000007
   17.85611153  143.59100342    4.90999985    2.94000006
   17.85944557  151.63999939    4.90999985    2.93000007
   17.86555672  151.63999939    4.90999985    2.93000007
   17.86972237  150.72900391    4.90999985    2.94000006
   17.87277794  156.07299805    4.90999985    2.94000006
   17.87388992  154.14199829    4.90999985    2.94000006
   17.87666702  147.26499939    4.90999985    2.94000006
   17.88000107  148.06300354    4.90999985    2.94000006
   17.88305473  156.08700562    4.90999985    2.96000004
   17.88638878  157.49499512    4.90999985    2.94000006
   17.88944435  140.05700684    4.90999985    2.96000004
   17.89277840  149.02299500    4.90999985    2.94000006
   17.89611053  149.31599426    4.90999985    2.94000006
   17.89916611  148.20199585    4.90999985    2.94000006
   17.90250015  156.81799316    4.90999985    2.96000004
   17.90833282  156.81799316    4.90999985    2.94000006
   17.91250038  148.72399902    4.90999985    2.93000007
   17.91583252  138.95799255    4.90999985    2.91000009
   17.91888809  155.07000732    4.90999985    2.93000007
   17.92222214  146.52299500    4.90999985    2.93000007
   17.92527771  156.97900391    4.90999985    2.89000010
   17.92860985  145.29200745    4.90999985    2.82999992
   17.93194389  138.73300171    4.90999985    2.89000010
   17.93499947  144.35499573    4.90999985    2.89000010
   17.93833160  156.90400696    4.90999985    2.84999990
   17.94055557  159.05400085    4.90999985    2.75000000
   17.94194412  154.00000000    4.90999985    2.76999998
   17.94527626  173.78799438    4.90999985    2.82999992
   17.95111275  173.78799438    4.90999985    2.75000000
   17.95527840  160.29899597    4.90999985    2.69000006
   17.95861244  163.59399414    4.90999985    2.86999989
   17.96166801  160.66600037    4.90999985    2.91000009
   17.96500015  153.07000732    4.90999985    2.91000009
   17.96833420  162.37199402    4.90999985    2.93000007
   17.97138977  156.41099548    4.90999985    2.93000007
   17.97389030  169.83000183    4.90999985    2.93000007
   17.97500038  157.31199646    4.90999985    2.93000007
   17.97833443  162.75000000    4.90999985    2.93000007
   17.98139000  162.62600708    4.90999985    2.94000006
   17.98472214  145.72799683    4.90999985    2.93000007
   17.98777771  143.36999512    4.90999985    2.94000006
   17.99416733  143.36999512    4.90999985    2.94000006
   17.99833298  148.97000122    4.90999985    2.94000006
   18.00138855  141.10400391    4.90999985    2.93000007
   18.00472260  158.72200012    4.90999985    2.91000009
   18.00722313  151.45300293    4.90999985    2.91000009
   18.00833321  158.79899597    4.90999985    2.91000009
   18.01166725  155.75000000    4.90999985    2.82999992
   18.01472282  157.22999573    4.90999985    2.89000010
   18.01805496  151.05900574    4.90999985    2.89000010
   18.02111053  145.10600281    4.90999985    2.93000007
   18.02444458  147.42100525    4.90999985    2.89000010
   18.02777672  147.99400330    4.90999985    2.91000009
   18.03083229  157.71800232    4.90999985    2.89000010
   18.03694344  157.71800232    4.90999985    2.91000009
   18.04166603  157.27900696    4.90999985    2.93000007
   18.04500008  168.67799377    4.90999985    2.93000007
   18.04805565  156.21899414    4.90999985    2.93000007
   18.05138779  158.55499268    4.90999985    2.94000006
   18.05472183  173.71400452    4.90999985    2.94000006
   18.05777740  159.56500244    4.90999985    2.94000006
   18.06110954  191.78900146    4.90999985    2.96000004
   18.06416512  166.80900574    4.90999985    2.94000006
   18.06750107  162.47799683    4.90999985    2.94000006
   18.07055664  150.51899719    4.90999985    2.94000006
   18.07389069  217.69999695    4.90999985    2.96000004
   18.07444572  218.74400330    4.90999985    2.94000006
   18.07972336  218.74400330    4.90999985    2.93000007
   18.08388901  253.18800354    4.90999985    2.94000006
   18.08694458  255.39100647    4.90999985    2.93000007
   18.09027863  276.52801514    4.90999985    2.93000007
   18.09361267  240.08500671    4.90999985    2.94000006
   18.09666824  247.83700562    4.90999985    2.94000006
   18.10000038  214.74200439    4.90999985    2.94000006
   18.10305595  214.14599609    4.90999985    2.94000006
   18.10639000  202.85200500    4.90999985    2.94000006
   18.10777855  196.44200134    4.90999985    2.94000006
   18.10972214  192.04200745    4.90999985    2.93000007
   18.11305618  192.08999634    4.90999985    2.93000007
   18.11611176  184.99299622    4.90999985    2.91000009
   18.12333298  184.99299622    4.90999985    2.93000007
   18.12777710  163.66499329    4.90999985    2.91000009
   18.13111115  169.95399475    4.90999985    2.93000007
   18.13416672  153.97700500    4.90999985    2.93000007
   18.13750076  140.89399719    4.90999985    2.89000010
   18.14055634  163.26300049    4.90999985    2.94000006
   18.14111137  169.65600586    4.90999985    2.86999989
   18.14416695  246.85899353    4.90999985    2.50000000
   18.14749908  192.97099304    4.90999985    2.15000010
   18.15055466  279.23901367    4.90999985    2.09999990
   18.15388870  344.57998657    4.90999985    2.32999992
   18.15611076  234.50199890    4.90999985    2.26999998
   18.15638924  192.97099304    4.90999985    2.15000010
   18.15638924  279.23901367    4.90999985    2.09999990
   18.15666580  344.57998657    4.90999985    2.32999992
   18.15666580  163.66499329    4.90999985    2.91000009
   18.15694427  169.95399475    4.90999985    2.93000007
   18.15694427  153.97700500    4.90999985    2.93000007
   18.15722275  140.89399719    4.90999985    2.89000010
   18.15749931  163.26300049    4.90999985    2.94000006
   18.15749931  246.85899353    4.90999985    2.50000000
   18.15916634  186.89599609    4.90999985    2.42000008
   18.16250038  225.53500366    4.90999985    2.50000000
   18.16583252  437.35000610    4.90999985    2.53999996
   18.16805458  109.26300049    4.90999985    2.15000010
   18.16805458  186.89599609    4.90999985    2.42000008
   18.16833305  225.53500366    4.90999985    2.50000000
   18.16833305  437.35000610    4.90999985    2.53999996
   18.17027664  410.89498901    4.90999985    2.05999994
   18.17222214  219.07400513    4.90999985    2.21000004
   18.17416573  207.40699768    4.90999985    2.51999998
   18.17749977  177.11300659    4.90999985    2.69000006
   18.18055534  199.41900635    4.90999985    2.53999996
   18.18388748  192.00300598    4.90999985    2.48000002
   18.18722153  185.80400085    4.90999985    2.48000002
   18.19333267  185.80400085    4.90999985    2.84999990
   18.19749832  137.83200073    4.90999985    2.76999998
   18.20083427  144.27600098    4.90999985    2.89000010
   18.20388985  159.80900574    4.90999985    2.91000009
   18.20639038  150.47900391    4.90999985    2.67000008
   18.20777893  150.16299438    4.90999985    2.78999996
   18.21083450  136.98300171    4.90999985    2.86999989
   18.21416664  137.33299255    4.90999985    2.91000009
   18.21750069  146.57600403    4.90999985    2.89000010
   18.22083473  159.99400330    4.90999985    2.86999989
   18.22389030  133.86000061    4.90999985    2.80999994
   18.22722244  142.66600037    4.90999985    2.93000007
   18.23055649  145.20100403    4.90999985    2.91000009
   18.23611069  145.20100403    4.90999985    2.96000004
   18.24027824  143.80499268    4.90999985    2.96000004
   18.24361229  148.07400513    4.90999985    2.94000006
   18.24694443  126.47599792    4.90999985    2.78999996
   18.25000000  135.76899719    4.90999985    2.82999992
   18.25333405  149.91099548    4.90999985    2.86999989
   18.25666618  148.88099670    4.90999985    2.84999990
   18.25972176  162.87100220    4.90999985    2.84999990
   18.26305580  149.67900085    4.90999985    2.73000002
   18.26611137  136.94999695    4.90999985    2.75000000
   18.26944351  133.75799561    4.90999985    2.86999989
   18.27277756  150.76800537    4.90999985    2.75000000
   18.27333260  140.60400391    4.90999985    2.69000006
   18.27888870  140.60400391    4.90999985    2.82999992
   18.28305435  146.97599792    4.90999985    2.84999990
   18.28638840  157.93400574    4.90999985    2.80999994
   18.28972244  183.82800293    4.90999985    2.55999994
   18.29305458  164.87100220    4.90999985    2.40000010
   18.29611015  267.37500000    4.90999985    2.30999994
   18.29944420  168.57099915    4.90999985    2.03999996
   18.30277634  393.95999146    4.90999985    2.32999992
   18.30499840  181.94799805    4.90999985    2.51999998
   18.30527687  146.97599792    4.90999985    2.84999990
   18.30555534  157.93400574    4.90999985    2.80999994
   18.30555534  183.82800293    4.90999985    2.55999994
   18.30583191  164.87100220    4.90999985    2.40000010
   18.30611038  267.37500000    4.90999985    2.30999994
   18.30611038  168.57099915    4.90999985    2.03999996
   18.30611038  393.95999146    4.90999985    2.32999992
   18.30638885  133.75799561    4.90999985    2.86999989
   18.30638885  150.76800537    4.90999985    2.75000000
   18.30833244  121.77200317    4.90999985    2.34999990
   18.31138802  184.58999634    4.90999985    2.34999990
   18.31472206  346.58099365    4.90999985    2.51999998
   18.31694603  137.84899902    4.90999985    2.40000010
   18.31722260  121.77200317    4.90999985    2.34999990
   18.31722260  184.58999634    4.90999985    2.34999990
   18.31750107  346.58099365    4.90999985    2.51999998
   18.31916809  269.44500732    4.90999985    2.25000000
   18.32250023   -1.00000000    4.90999985    1.88000000
   18.32555580   -1.00000000    4.90999985    1.80999994
   18.32888985   -1.00000000    4.90999985    1.63000000
   18.33194542  168.96699524    4.90999985    2.01999998
   18.33777809  168.96699524    4.90999985    1.85000002
   18.34222221   -1.00000000    4.90999985    2.00000000
   18.34555626   -1.00000000    4.90999985    1.48000002
   18.34889030   -1.00000000    4.90999985    1.51999998
   18.35277748   -1.00000000    4.90999985    1.58000004
   18.35611153  122.48600006    4.90999985    1.51999998
   18.35944557   -1.00000000    4.90999985    1.50000000
   18.36305618   -1.00000000    4.90999985    1.73000002
   18.36611176   -1.00000000    4.90999985    1.91999996
   18.36944389   -1.00000000    4.90999985    1.28999996
   18.37277794   -1.00000000    4.90999985    1.83000004
   18.37611198   -1.00000000    4.90999985    1.86000001
   18.38083267   -1.00000000    4.90999985    1.94000006
   18.38500023  138.43099976    4.90999985    1.89999998
   18.38805580   85.46559906    4.90999985    1.94000006
   18.39138794   -1.00000000    4.90999985    1.94000006
   18.39472198   61.21599960    4.90999985    1.85000002
   18.39805603   -1.00000000    4.90999985    2.07999992
   18.40194321   -1.00000000    4.90999985    1.69000006
   18.40499878  164.43899536    4.90999985    2.01999998
   18.40833282   55.10279846    4.90999985    1.94000006
   18.41166687  134.25399780    4.90999985    2.00000000
   18.41472244  170.95799255    4.90999985    2.00000000
   18.41777802  350.56698608    4.90999985    2.34999990
   18.41860962  312.25900269    4.90999985    2.23000002
   18.42083359  258.51800537    4.90999985    2.32999992
   18.42222214   23.57019997    4.90999985    2.28999996
   18.42222214   -1.00000000    4.90999985    1.94000006
   18.42249870   61.21599960    4.90999985    1.85000002
   18.42249870   -1.00000000    4.90999985    2.07999992
   18.42277718   -1.00000000    4.90999985    1.69000006
   18.42305565  164.43899536    4.90999985    2.01999998
   18.42305565   55.10279846    4.90999985    1.94000006
   18.42333221  134.25399780    4.90999985    2.00000000
   18.42333221  170.95799255    4.90999985    2.00000000
   18.42361069  312.25900269    4.90999985    2.23000002
   18.42444420   -1.00000000    4.90999985    2.03999996
   18.42777634   -1.00000000    4.90999985    1.53999996
   18.43083191   -1.00000000    4.90999985    1.71000004
   18.43416595   -1.00000000    4.90999985    2.03999996
   18.43750000  104.74299622    4.90999985    1.28999996
   18.44722176   -1.00000000   -1.00000000   -1.00000000
   18.45027924   -1.00000000    4.90999985    2.01999998
   18.45361137   -1.00000000    4.90999985    1.63000000
   18.45750046  154.76400757    4.90999985    1.58000004
   18.46055603  281.12600708    4.90999985    2.40000010
   18.46389008  213.97099304    4.90999985    2.36999989
   18.46722221  199.90400696    4.90999985    2.69000006
   18.47027779  148.88200378    4.90999985    2.76999998
   18.47361183  156.67599487    4.90999985    2.80999994
   18.47694588  231.42799377    4.90999985    2.34999990
   18.48027802  157.37100220    4.90999985    2.13000011
   18.48583412  157.37100220    4.90999985    2.55999994
   18.48999977  276.45401001    4.90999985    2.32999992
   18.49333382  168.35800171    4.90999985    2.30999994
   18.49666786  146.73300171    4.90999985    2.66000009
   18.50000000  159.36199951    4.90999985    2.64000010
   18.50333405  157.12699890    4.90999985    2.71000004
   18.50638962   -1.00000000    4.90999985    2.59999990
   18.50972176  145.82200623    4.90999985    2.00000000
   18.51305580  148.41099548    4.90999985    2.78999996
   18.51611137  133.23500061    4.90999985    2.75000000
   18.51944351  140.19900513    4.90999985    2.50000000
   18.52277756  180.03199768    4.90999985    2.48000002
   18.52333260  221.88000488    4.90999985    2.55999994
   18.53277779  142.92799377    4.90999985    2.26999998
   18.53610992   93.78130341    4.90999985    2.66000009
   18.53944397   -1.00000000    4.90999985    1.63000000
   18.54249954  133.15499878    4.90999985    1.55999994
   18.54583359  147.80700684    4.90999985    2.25000000
   18.54916573  148.05999756    4.90999985    2.76999998
   18.55249977  116.07399750    4.90999985    2.84999990
   18.55555534  141.69900513    4.90999985    2.93000007
   18.55638885  134.31399536    4.90999985    2.93000007
   18.55916595  233.04100037    4.90999985    2.94000006
   18.56250000  149.16799927    4.90999985    2.50000000
   18.56583214  173.36300659    4.90999985    2.59999990
   18.57166672  173.36300659    4.90999985    2.86999989
   18.57583427  150.63999939    4.90999985    2.86999989
   18.57916832  400.48001099    4.90999985    2.50000000
   18.58111191  382.37399292    4.90999985    2.17000008
   18.58250046  483.97299194    4.90999985    2.19000006
   18.58388901  230.36700439    4.90999985    2.28999996
   18.58416748  149.16799927    4.90999985    2.50000000
   18.58416748  173.36300659    4.90999985    2.59999990
   18.58444595  150.63999939    4.90999985    2.86999989
   18.58444595  400.48001099    4.90999985    2.50000000
   18.58472252  147.80700684    4.90999985    2.25000000
   18.58500099  148.05999756    4.90999985    2.76999998
   18.58500099  116.07399750    4.90999985    2.84999990
   18.58527756  141.69900513    4.90999985    2.93000007
   18.58527756  233.04100037    4.90999985    2.94000006
   18.58611107  271.08499146    4.90999985    2.13000011
   18.58916664   68.05560303    4.90999985    2.13000011
   18.59250069   -1.00000000    4.90999985    1.83000004
   18.59583473   -1.00000000    4.90999985    1.78999996
   18.59889030   -1.00000000    4.90999985    1.51999998
   18.60499954   -1.00000000    4.90999985    1.98000002
   18.60916710  168.83000183    4.90999985    2.73000002
   18.61222267  172.76499939    4.90999985    2.50000000
   18.61555672  247.97200012    4.90999985    1.76999998
   18.61805534  168.49499512    4.90999985    2.67000008
   18.61916733  152.47500610    4.90999985    2.64000010
   18.62249947  222.70399475    4.90999985    2.91000009
   18.62583351  307.42999268    4.90999985    1.98000002
   18.62777710   89.83499908    4.90999985    2.01999998
   18.62805557  222.70399475    4.90999985    2.91000009
   18.62833405  307.42999268    4.90999985    1.98000002
   18.62833405   -1.00000000    4.90999985    1.83000004
   18.62861061   -1.00000000    4.90999985    1.78999996
   18.62861061   -1.00000000    4.90999985    1.51999998
   18.62888908  168.83000183    4.90999985    2.73000002
   18.62916756  172.76499939    4.90999985    2.50000000
   18.62916756  247.97200012    4.90999985    1.76999998
   18.62944412  152.47500610    4.90999985    2.64000010
   18.63111115   -1.00000000    4.90999985    2.01999998
   18.63444519   -1.00000000    4.90999985    1.58000004
   18.63750076   -1.00000000    4.90999985    1.58000004
   18.64083290   -1.00000000    4.90999985    1.51999998
   18.64416695  152.49800110    4.90999985    1.80999994
   18.64888954  152.49800110    4.90999985    2.69000006
   18.65305519   23.57019997    4.90999985    2.32999992
   18.65638924   64.12920380    4.90999985    2.19000006
   18.65944481   -1.00000000    4.90999985    1.89999998
   18.66305542   -1.00000000    4.90999985    2.13000011
   18.66638756  171.84599304    4.90999985    1.50000000
   18.66972160  179.19999695    4.90999985    1.88000000
   18.67277718  327.85400391    4.90999985    1.63000000
   18.67499924  122.84500122    4.90999985    2.23000002
   18.67527771  171.84599304    4.90999985    1.50000000
   18.67555428  179.19999695    4.90999985    1.88000000
   18.67555428  327.85400391    4.90999985    1.63000000
   18.67583275   -1.00000000    4.90999985    1.51999998
   18.67583275  152.49800110    4.90999985    1.80999994
   18.67611122   23.57019997    4.90999985    2.32999992
   18.67611122   64.12920380    4.90999985    2.19000006
   18.67638779   -1.00000000    4.90999985    1.89999998
   18.67666626   -1.00000000    4.90999985    2.13000011
   18.67833328   -1.00000000    4.90999985    1.76999998
   18.68138885   -1.00000000    4.90999985    1.88000000
   18.68472099   -1.00000000    4.90999985    1.46000004
   18.68805504   -1.00000000    4.90999985    0.81999999
   18.70777893  194.37899780    4.90999985    1.78999996
   18.71194458  194.37899780    4.90999985    2.13000011
   18.71611214  159.47300720    4.90999985    2.89000010
   18.71944427  128.70599365    4.90999985    2.86999989
   18.72277832  133.43400574    4.90999985    2.50000000
   18.72583389  135.11700439    4.90999985    2.84999990
   18.72916794  143.20899963    4.90999985    2.93000007
   18.73250008  135.03999329    4.90999985    2.91000009
   18.73555565  127.52400208    4.90999985    2.93000007
   18.73888969  141.09500122    4.90999985    2.93000007
   18.74222183  129.95700073    4.90999985    2.93000007
   18.74277878  137.56100464    4.90999985    2.94000006
   18.74583435  144.16400146    4.90999985    2.93000007
   18.74916649  137.71800232    4.90999985    2.93000007
   18.75472260  137.71800232    4.90999985    2.84999990
   18.75916672  122.61900330    4.90999985    2.78999996
   18.76222229  135.34100342    4.90999985    2.89000010
   18.76555634  168.50500488    4.90999985    2.89000010
   18.76888847  154.68299866    4.90999985    2.78999996
   18.77194405  140.35800171    4.90999985    2.91000009
   18.77527809  151.27299500    4.90999985    2.78999996
   18.77638817  135.42700195    4.90999985    2.80999994
   18.77916718  142.77000427    4.90999985    2.86999989
   18.78249931  140.26699829    4.90999985    2.73000002
   18.78583336  141.74499512    4.90999985    2.76999998
   18.78916550  179.60899353    4.90999985    2.89000010
   18.79222107  174.76600647    4.90999985    2.73000002
   18.79777718  174.76600647    4.90999985    2.30999994
   18.80194283  152.81599426    4.90999985    2.64000010
   18.80499840  125.42800140    4.90999985    2.64000010
   18.80833244  188.93499756    4.90999985    2.66000009
   18.80972099  174.01499939    4.90999985    2.53999996
   18.81222153  229.13600159    4.90999985    2.44000006
   18.81555557  159.68099976    4.90999985    2.42000008
   18.81861115  134.84300232    4.90999985    2.53999996
   18.82194519  132.46200562    4.90999985    2.84999990
   18.82527924  137.10000610    4.90999985    2.78999996
   18.82833481  191.59199524    4.90999985    2.67000008
   18.83166695  152.64100647    4.90999985    2.75000000
   18.83500099  163.37800598    4.90999985    2.80999994
   18.84055710  163.37800598    4.90999985    2.15000010
   18.84500122  123.42500305    4.90999985    1.44000006
   18.84805679  149.87100220    4.90999985    1.94000006
   18.85138893   -1.00000000    4.90999985    2.51999998
   18.85472298  293.33401489    4.90999985    1.64999998
   18.85777855  215.33799744    4.90999985    2.26999998
   18.86111069  268.47900391    4.90999985    2.07999992
   18.86444473  360.05300903    4.90999985    2.00000000
   18.86694527  138.02999878    4.90999985    2.25000000
   18.86722183  152.64100647    4.90999985    2.75000000
   18.86750031  163.37800598    4.90999985    2.80999994
   18.86777878  123.42500305    4.90999985    1.44000006
   18.86805534  149.87100220    4.90999985    1.94000006
   18.86833382   -1.00000000    4.90999985    2.51999998
   18.86861038  293.33401489    4.90999985    1.64999998
   18.86888885  215.33799744    4.90999985    2.26999998
   18.86888885  268.47900391    4.90999985    2.07999992
   18.86888885  360.05300903    4.90999985    2.00000000
   18.87083435  178.28100586    4.90999985    2.46000004
   18.87388992  165.52299500    4.90999985    1.83000004
   18.87722206   -1.00000000    4.90999985    1.91999996
   18.88055611  192.44299316    4.90999985    1.73000002
   18.88388824  170.38000488    4.90999985    2.55999994
   18.88805580  170.38000488    4.90999985    2.71000004
   18.89222145  143.48399353    4.90999985    2.84999990
   18.89527702  158.81799316    4.90999985    2.86999989
   18.89861107  147.07699585    4.90999985    2.93000007
   18.90083313  154.62500000    4.90999985    2.93000007
   18.90222168  154.15600586    4.90999985    2.86999989
   18.90527725  145.99499512    4.90999985    2.86999989
   18.90861130  149.01499939    4.90999985    2.86999989
   18.91194344  146.98100281    4.90999985    2.86999989
   18.91499901  131.69500732    4.90999985    2.91000009
   18.91833305  124.81800079    4.90999985    2.91000009
   18.92138863  142.02699280    4.90999985    2.91000009
   18.92472076  127.80699921    4.90999985    2.91000009
   18.93083191  127.80699921    4.90999985    2.91000009
   18.93499947  166.35600281    4.90999985    2.78999996
   18.93805504  205.71899414    4.90999985    2.69000006
   18.94138718   67.69999695    4.90999985    2.15000010
   18.94444275   -1.00000000    4.90999985    1.89999998
   18.94777679   -1.00000000    4.90999985    1.71000004
   18.95083427   -1.00000000    4.90999985    1.64999998
   18.95416832   -1.00000000    4.90999985    1.55999994
   18.95722389   -1.00000000    4.90999985    1.30999994
   18.96055603   -1.00000000    4.90999985    1.89999998
   18.96361160   -1.00000000    4.90999985    1.73000002
   18.96694565   -1.00000000    4.90999985    1.61000001
   18.97777748  144.89399719    4.90999985    2.42000008
   18.98083305  239.00700378    4.90999985    2.75000000
   18.98416710  137.27400208    4.90999985    2.55999994
   18.98722267  100.54599762    4.90999985    2.89000010
   18.99055672  141.74299622    4.90999985    2.44000006
   18.99361229  191.47999573    4.90999985    2.17000008
   18.99694443  149.29100037    4.90999985    2.59999990
   19.00000000  235.03599548    4.90999985    2.48000002
   19.00083351  316.50399780    4.90999985    2.30999994
   19.00361061  175.09300232    4.90999985    2.17000008
   19.00666618  230.60800171    4.90999985    2.30999994
   19.01000023  276.88800049    4.90999985    1.94000006
   19.01638794  276.88800049    4.90999985    2.75000000
   19.02055550  211.18699646    4.90999985    2.57999992
   19.02388954  167.74000549    4.90999985    2.32999992
   19.02694511  177.27200317    4.90999985    2.59999990
   19.03027725  143.33200073    4.90999985    2.66000009
   19.03333282  146.44400024    4.90999985    2.71000004
   19.03416634  148.79100037    4.90999985    2.69000006
   19.03694344  140.55099487    4.90999985    2.78999996
   19.03999901  149.89100647    4.90999985    2.69000006
   19.04333305  138.94700623    4.90999985    2.89000010
   19.04666710  143.71499634    4.90999985    2.91000009
   19.04972076  159.18400574    4.90999985    2.94000006
   19.05305481  205.53900146    4.90999985    2.69000006
   19.05944443  205.53900146    4.90999985    2.75000000
   19.06333351  222.74600220    4.90999985    2.36999989
   19.06666756  139.34700012    4.90999985    2.55999994
   19.06750107  320.50399780    4.90999985    2.55999994
   19.07027817   -1.00000000    4.90999985    2.09999990
   19.07333374  329.54501343    4.90999985    1.85000002
   19.07555580  350.39199829    4.90999985    2.09999990
   19.07666779  289.26699829    4.90999985    2.28999996
   19.07805634  148.25100708    4.90999985    2.46000004
   19.07833481  138.94700623    4.90999985    2.89000010
   19.07833481  143.71499634    4.90999985    2.91000009
   19.07833481  159.18400574    4.90999985    2.94000006
   19.07861137  205.53900146    4.90999985    2.69000006
   19.07861137  222.74600220    4.90999985    2.36999989
   19.07888985  139.34700012    4.90999985    2.55999994
   19.07888985   -1.00000000    4.90999985    2.09999990
   19.07888985  329.54501343    4.90999985    1.85000002
   19.07916832  149.89100647    4.90999985    2.69000006
   19.07972336  175.88999939    4.90999985    2.51999998
   19.08277893   -1.00000000    4.90999985    2.67000008
   19.08611107   -1.00000000    4.90999985    1.73000002
   19.08916664   -1.00000000    4.90999985    2.09999990
   19.09250069  261.01300049    4.90999985    1.80999994
   19.09889030  261.01300049    4.90999985    1.83000004
   19.10305595   -1.00000000    4.90999985    1.71000004
   19.10639000   -1.00000000    4.90999985    2.15000010
   19.10944557   -1.00000000    4.90999985    1.55999994
   19.11305618   -1.00000000    4.90999985    1.14999998
   19.11611176   -1.00000000    4.90999985    1.25000000
   19.11944389   -1.00000000    4.90999985    1.39999998
   19.12249947   -1.00000000    4.90999985    1.38000000
   19.12583351  115.61599731    4.90999985    2.01999998
   19.12888908   -1.00000000    4.90999985    1.86000001
   19.13222313   -1.00000000    4.90999985    1.50000000
   19.13527679   -1.00000000    4.90999985    1.61000001
   19.14194489   -1.00000000    4.90999985    1.73000002
   19.14583397   66.26730347    4.90999985    1.78999996
   19.14916611  414.31698608    4.90999985    2.25000000
   19.15111160  386.50399780    4.90999985    2.26999998
   19.15250015  175.89999390    4.90999985    2.17000008
   19.15250015   -1.00000000    4.90999985    1.25000000
   19.15277672   -1.00000000    4.90999985    1.39999998
   19.15277672   -1.00000000    4.90999985    1.38000000
   19.15277672  115.61599731    4.90999985    2.01999998
   19.15305519   -1.00000000    4.90999985    1.86000001
   19.15305519   -1.00000000    4.90999985    1.50000000
   19.15305519   -1.00000000    4.90999985    1.61000001
   19.15333366   66.26730347    4.90999985    1.78999996
   19.15333366  414.31698608    4.90999985    2.25000000
   19.15416718   -1.00000000    4.90999985    2.05999994
   19.15722275   -1.00000000    4.90999985    1.51999998
   19.16055489   -1.00000000    4.90999985    1.39999998
   19.16388893   -1.00000000    4.90999985    1.55999994
   19.16694450   -1.00000000    4.90999985    0.79000002
   19.17722130   -1.00000000    4.90999985    0.95999998
   19.18055534   -1.00000000    4.90999985    1.55999994
   19.18361092   -1.00000000    4.90999985    1.66999996
   19.18722153   -1.00000000    4.90999985    1.63000000
   19.19055557   -1.00000000    4.90999985    1.23000002
   19.19361115  376.62500000    4.90999985    1.91999996
   19.19555473  231.16200256    4.90999985    2.17000008
   19.19583321   -1.00000000    4.90999985    1.23000002
   19.19583321  376.62500000    4.90999985    1.91999996
   19.19583321   -1.00000000    4.90999985    1.39999998
   19.19610977   -1.00000000    4.90999985    1.55999994
   19.19610977   -1.00000000    4.90999985    0.79000002
   19.19610977   -1.00000000    4.90999985    0.95999998
   19.19638824   -1.00000000    4.90999985    1.55999994
   19.19638824   -1.00000000    4.90999985    1.66999996
   19.19638824   -1.00000000    4.90999985    1.63000000
   19.19805527  257.55801392    4.90999985    2.17000008
   19.20138931  288.22299194    4.90999985    2.28999996
   19.20472336  171.10499573    4.90999985    2.34999990
   19.20777893  162.84599304    4.90999985    2.55999994
   19.21111107  157.44200134    4.90999985    2.73000002
   19.21638870  157.44200134    4.90999985    2.53999996
   19.22055626  173.12399292    4.90999985    2.50000000
   19.22389030  144.48899841    4.90999985    2.51999998
   19.22694588  189.84800720    4.90999985    2.75000000
   19.22944450  256.83599854    4.90999985    2.50000000
   19.23055649   -1.00000000    4.90999985    2.55999994
   19.23361206   -1.00000000    4.90999985    1.85000002
   19.23694420  363.95498657    4.90999985    1.66999996
   19.23888969  364.66000366    4.90999985    2.07999992
   19.24027824  172.11700439    4.90999985    2.25000000
   19.24027824   -1.00000000    4.90999985    1.85000002
   19.24055672  363.95498657    4.90999985    1.66999996
   19.24055672  171.10499573    4.90999985    2.34999990
   19.24055672  162.84599304    4.90999985    2.55999994
   19.24083328  157.44200134    4.90999985    2.73000002
   19.24083328  173.12399292    4.90999985    2.50000000
   19.24083328  144.48899841    4.90999985    2.51999998
   19.24111176  189.84800720    4.90999985    2.75000000
   19.24111176   -1.00000000    4.90999985    2.55999994
   19.24194527  208.89599609    4.90999985    2.46000004
   19.24527740  149.00799561    4.90999985    2.66000009
   19.24833298  141.83799744    4.90999985    2.75000000
   19.25166702  153.91000366    4.90999985    2.78999996
   19.25472260  146.25599670    4.90999985    2.84999990
   19.26111031  146.25599670    4.90999985    2.89000010
   19.26527786  138.32099915    4.90999985    2.89000010
   19.26833344  155.54699707    4.90999985    2.89000010
   19.27166557  146.79800415    4.90999985    2.89000010
   19.27416611  135.33500671    4.90999985    2.89000010
   19.27527809  145.39500427    4.90999985    2.89000010
   19.27833366  150.61599731    4.90999985    2.84999990
   19.28166580  158.16000366    4.90999985    2.82999992
   19.28472137  155.36399841    4.90999985    2.80999994
   19.28805542  147.42300415    4.90999985    2.84999990
   19.29111099  139.77000427    4.90999985    2.78999996
   19.29444313  137.88800049    4.90999985    2.66000009
   19.29749870  143.60600281    4.90999985    2.66000009
   19.30388832  143.60600281    4.90999985    2.50000000
   19.30805397  140.43099976    4.90999985    2.71000004
   19.31138802  163.19700623    4.90999985    2.71000004
   19.31444359  177.00500488    4.90999985    2.71000004
   19.31777954  257.99099731    4.90999985    2.40000010
   19.32083511  111.05000305    4.90999985    2.05999994
   19.32416725  102.93900299    4.90999985    2.03999996
   19.32722282  119.49500275    4.90999985    1.88000000
   19.33055687   61.66630173    4.90999985    1.98000002
   19.33361244  393.29098511    4.90999985    1.94000006
   19.33583450   -1.00000000   -1.00000000   -1.00000000
   19.33583450  177.00500488    4.90999985    2.71000004
   19.33583450  257.99099731    4.90999985    2.40000010
   19.33611107  111.05000305    4.90999985    2.05999994
   19.33611107  102.93900299    4.90999985    2.03999996
   19.33611107  119.49500275    4.90999985    1.88000000
   19.33638954   61.66630173    4.90999985    1.98000002
   19.33638954  393.29098511    4.90999985    1.94000006
   19.33638954  140.43099976    4.90999985    2.71000004
   19.33666801  163.19700623    4.90999985    2.71000004
   19.33833313  310.21798706    4.90999985    1.96000004
   19.34027863  203.34199524    4.90999985    2.09999990
   19.34194565  380.19198608    4.90999985    2.25000000
   19.34388924  196.75900269    4.90999985    2.17000008
   19.34583473  178.30900574    4.90999985    2.32999992
   19.34916687  146.39100647    4.90999985    2.55999994
   19.35250092  169.33599854    4.90999985    2.55999994
   19.35555649  159.12300110    4.90999985    2.71000004
   19.35888863  179.39500427    4.90999985    2.53999996
   19.36472321  179.39500427    4.90999985    2.67000008
   19.36888885  219.83700562    4.90999985    2.51999998
   19.37222290  123.58000183    4.90999985    2.36999989
   19.37527847  130.38900757    4.90999985    1.96000004
   19.37777710   60.77030182    4.90999985    2.09999990
   19.37888908   -1.00000000    4.90999985    2.05999994
   19.38194466  308.91000366    4.90999985    1.98000002
   19.38416672   94.99780273    4.90999985    2.17000008
   19.38416672  146.39100647    4.90999985    2.55999994
   19.38416672  169.33599854    4.90999985    2.55999994
   19.38444519  159.12300110    4.90999985    2.71000004
   19.38444519  179.39500427    4.90999985    2.53999996
   19.38444519  219.83700562    4.90999985    2.51999998
   19.38472176  123.58000183    4.90999985    2.36999989
   19.38472176  130.38900757    4.90999985    1.96000004
   19.38472176   -1.00000000    4.90999985    2.05999994
   19.38638878  132.50300598    4.90999985    1.96000004
   19.38972282  116.79199982    4.90999985    2.07999992
   19.39277840   -1.00000000    4.90999985    2.00000000
   19.39611053   -1.00000000    4.90999985    1.73000002
   19.39944458  122.49099731    4.90999985    2.00000000
   19.40499878  122.49099731    4.90999985    2.05999994
   19.40888786  381.18499756    4.90999985    2.09999990
   19.41110992   88.98639679    4.90999985    2.07999992
   19.41110992  132.50300598    4.90999985    1.96000004
   19.41110992  116.79199982    4.90999985    2.07999992
   19.41138840   -1.00000000    4.90999985    2.00000000
   19.41138840   -1.00000000    4.90999985    1.73000002
   19.41138840  122.49099731    4.90999985    2.00000000
   19.41166687  381.18499756    4.90999985    2.09999990
   19.41333389  227.77900696    4.90999985    1.89999998
   19.41638756  267.68701172    4.90999985    2.21000004
   19.41972160  192.43499756    4.90999985    2.40000010
   19.42277718  356.92199707    4.90999985    2.21000004
   19.42499924  357.82000732    4.90999985    2.13000011
   19.42611122  389.70001221    4.90999985    2.21000004
   19.42749977  259.85000610    4.90999985    2.19000006
   19.42888832  340.98800659    4.90999985    2.07999992
   19.43027687   60.81380081    4.90999985    2.17000008
   19.43055534  227.77900696    4.90999985    1.89999998
   19.43055534  267.68701172    4.90999985    2.21000004
   19.43055534  192.43499756    4.90999985    2.40000010
   19.43083191  356.92199707    4.90999985    2.21000004
   19.43138885   26.68799973    4.90999985    2.11999989
   19.43444443   -1.00000000    4.90999985    1.78999996
   19.43777657   -1.00000000    4.90999985    1.50000000
   19.44083214   -1.00000000    4.90999985    1.34000003
   19.44416618   -1.00000000    4.90999985    1.19000006
   19.44722176   -1.00000000    4.90999985    0.89999998
   19.45555687   -1.00000000    4.90999985    0.67000002
   19.45861244   -1.00000000    4.90999985    0.79000002
   19.46194458   -1.00000000    4.90999985    1.39999998
   19.46555710   -1.00000000    4.90999985    1.78999996
   19.46861076   -1.00000000    4.90999985    1.88000000
   19.47194481  119.04000092    4.90999985    1.80999994
   19.47500038   69.40940094    4.90999985    2.03999996
   19.47833443   32.01240158    4.90999985    1.88000000
   19.48139000  167.28599548    4.90999985    2.05999994
   19.48472214   74.44400024    4.90999985    2.07999992
   19.48777771   -1.00000000    4.90999985    1.91999996
   19.49833298   -1.00000000    4.90999985    0.79000002
   19.50166702   -1.00000000    4.90999985    0.52999997
   19.50472260   -1.00000000    4.90999985    0.25999999
   19.50805473   -1.00000000    4.90999985    0.25000000
   19.51111031   -1.00000000    4.90999985    0.25000000
   19.51444435   -1.00000000    4.90999985    0.30000001
   19.51749992   -1.00000000    4.90999985    0.20999999
   19.52083397   -1.00000000    4.90999985    0.19000000
   19.52388954   -1.00000000    4.90999985    0.46000001
   19.52722168   -1.00000000    4.90999985    0.30000001
   19.53027725   -1.00000000    4.90999985    0.34000000
   19.54111099   -1.00000000    4.90999985    0.11000000
   19.54444313   -1.00000000    4.90999985    0.13000000
   19.54749870   -1.00000000    4.90999985    0.17000000
   19.55083275   -1.00000000    4.90999985    0.25999999
   19.55388832   -1.00000000    4.90999985    0.46000001
   19.55722237   -1.00000000    4.90999985    0.64999998
   19.56055450   -1.00000000    4.90999985    0.92000002
   19.56361008   -1.00000000    4.90999985    1.01999998
   19.56722260   -1.00000000    4.90999985    0.94000000
   19.57027817   -1.00000000    4.90999985    0.80000001
   19.57361221   -1.00000000    4.90999985    1.33000004
   19.58000183   -1.00000000    4.90999985    1.60000002
   19.58416748   -1.00000000    4.90999985    1.75000000
   19.58722305  109.73699951    4.90999985    1.75000000
   19.59055710   -1.00000000    4.90999985    1.78999996
   19.59388924   -1.00000000    4.90999985    1.60000002
   19.59694481   -1.00000000    4.90999985    1.26999998
   19.60055542   -1.00000000    4.90999985    0.64999998
   19.60361099   -1.00000000    4.90999985    0.34000000
   19.60694504   -1.00000000    4.90999985    0.23000000
   19.61000061   -1.00000000    4.90999985    0.09000000
   19.61333466   -1.00000000    4.90999985    0.20999999
   19.61638832   -1.00000000    4.90999985    0.51999998
   19.62694550   -1.00000000    4.90999985    0.56999999
   19.63000107   -1.00000000    4.90999985    0.52999997
   19.63361168   -1.00000000    4.90999985    0.69000000
   19.63666725   -1.00000000    4.90999985    0.51999998
   19.63999939   -1.00000000    4.90999985    0.25999999
   19.64305496   -1.00000000    4.90999985    0.44000000
   19.64638901   -1.00000000    4.90999985    0.56999999
   19.64944458   -1.00000000    4.90999985    0.80000001
   19.65277672   -1.00000000    4.90999985    0.55000001
   19.65611076   -1.00000000    4.90999985    1.11000001
   19.65916634   -1.00000000    4.90999985    1.34000003
   19.66583252   -1.00000000    4.90999985    1.71000004
   19.66972160   -1.00000000    4.90999985    1.55999994
   19.67305565   -1.00000000    4.90999985    1.53999996
   19.67638779   -1.00000000    4.90999985    1.38000000
   19.67944336   -1.00000000    4.90999985    1.19000006
   19.68277740   -1.00000000    4.90999985    1.03999996
   19.68583298   -1.00000000    4.90999985    1.19000006
   19.68916512   -1.00000000    4.90999985    1.33000004
   19.69222069   -1.00000000    4.90999985    1.50000000
   19.69555473   -1.00000000    4.90999985    1.51999998
   19.69916534   -1.00000000    4.90999985    1.33000004
   19.70222282   -1.00000000    4.90999985    1.28999996
   19.72500038   -1.00000000    4.90999985    0.55000001
   19.72805595   -1.00000000    4.90999985    0.34000000
   19.73166656   -1.00000000    4.90999985    0.31999999
   19.73472214   -1.00000000    4.90999985    0.51999998
   19.73805618   -1.00000000    4.90999985    0.89999998
   19.74138832   -1.00000000    4.90999985    0.79000002
   19.74444389   -1.00000000    4.90999985    0.94000000
   19.74777794   -1.00000000    4.90999985    1.26999998
   19.75194359   -1.00000000    4.90999985    1.58000004
   19.75583267   -1.00000000    4.90999985    1.58000004
   19.75916672   -1.00000000    4.90999985    1.64999998
   19.76222229   -1.00000000    4.90999985    0.81999999
   19.76583290   -1.00000000    4.90999985    0.25999999
   19.76916695   -1.00000000    4.90999985    0.44000000
   19.77222252   -1.00000000    4.90999985    0.92000002
   19.77555466   -1.00000000    4.90999985    1.25000000
   19.77888870   -1.00000000    4.90999985    1.39999998
   19.78194427   -1.00000000    4.90999985    1.33000004
   19.78527641   -1.00000000    4.90999985    1.33000004
   19.78833199  105.28399658    4.90999985    1.73000002
   19.79472160  105.28399658    4.90999985    1.21000004
   19.79888916   -1.00000000    4.90999985    1.55999994
   19.80194283   77.42479706    4.90999985    1.85000002
   19.80527687  133.48100281    4.90999985    1.94000006
   19.80833244  373.27398682    4.90999985    2.15000010
   19.81055450  279.13900757    4.90999985    2.17000008
   19.81166649  276.04000854    4.90999985    2.23000002
   19.81305504  236.91299438    4.90999985    2.28999996
   19.81333351  105.28399658    4.90999985    1.73000002
   19.81333351   -1.00000000    4.90999985    1.55999994
   19.81333351   77.42479706    4.90999985    1.85000002
   19.81361008  133.48100281    4.90999985    1.94000006
   19.81361008  373.27398682    4.90999985    2.15000010
   19.81361008   -1.00000000    4.90999985    1.25000000
   19.81388855   -1.00000000    4.90999985    1.39999998
   19.81388855   -1.00000000    4.90999985    1.33000004
   19.81388855   -1.00000000    4.90999985    1.33000004
   19.81444359  210.91400146    4.90999985    2.34999990
   19.81777954  278.19699097    4.90999985    2.28999996
   19.82083511  396.90798950    4.90999985    2.11999989
   19.82305717  396.26998901    4.90999985    2.03999996
   19.82416725  375.01901245    4.90999985    2.03999996
   19.82555580  379.28201294    4.90999985    2.15000010
   19.82694626  291.86599731    4.90999985    2.13000011
   19.82833481  271.32998657    4.90999985    2.23000002
   19.82972336  343.11700439    4.90999985    2.21000004
   19.83111191  374.04699707    4.90999985    2.28999996
   19.83250046  455.52200317    4.90999985    2.19000006
   19.83388901   81.84249878    4.90999985    2.01999998
   19.83416748  210.91400146    4.90999985    2.34999990
   19.83416748  278.19699097    4.90999985    2.28999996
   19.83416748  396.90798950    4.90999985    2.11999989
   19.83472252  165.99699402    4.90999985    2.07999992
   19.83805656  386.93399048    4.90999985    2.03999996
   19.84000015  519.13598633    4.90999985    2.11999989
   19.84138870  460.12298584    4.90999985    2.17000008
   19.84277916  369.39498901    4.90999985    2.09999990
   19.84416771  161.02400208    4.90999985    2.21000004
   19.84416771  165.99699402    4.90999985    2.07999992
   19.84444427  386.93399048    4.90999985    2.03999996
   19.84500122   57.48690033    4.90999985    2.21000004
   19.84805679   79.21929932    4.90999985    1.98000002
   19.85138893   -1.00000000   -1.00000000   -1.00000000
   19.85444450  107.07399750    4.90999985    1.88000000
   19.85777855  110.31800079    4.90999985    2.00000000
   19.86083412   -1.00000000    4.90999985    1.76999998
   19.86499977   -1.00000000    4.90999985    1.73000002
   19.86916733   -1.00000000    4.90999985    1.61000001
   19.87249947   -1.00000000    4.90999985    1.36000001
   19.87555504   -1.00000000    4.90999985    1.51999998
   19.87916756   -1.00000000    4.90999985    1.38000000
   19.88249969   -1.00000000    4.90999985    1.51999998
   19.88555527   -1.00000000    4.90999985    1.34000003
   19.88888931   -1.00000000    4.90999985    1.46000004
   19.89194489   -1.00000000    4.90999985    0.88000000
   19.89527702   -1.00000000    4.90999985    0.83999997
   19.89833260   -1.00000000    4.90999985    0.56999999
   19.90166664   -1.00000000    4.90999985    0.56999999
   19.91194344   -1.00000000    4.90999985    1.26999998
   19.91527748   -1.00000000    4.90999985    1.13000000
   19.91833305   -1.00000000    4.90999985    0.76999998
   19.92166519   -1.00000000    4.90999985    1.07000005
   19.92472076   -1.00000000    4.90999985    1.14999998
   19.92805481   -1.00000000    4.90999985    1.11000001
   19.93111038   -1.00000000    4.90999985    1.23000002
   19.93444443   -1.00000000    4.90999985    1.21000004
   19.93750000   -1.00000000    4.90999985    1.26999998
   19.94083214   -1.00000000    4.90999985    1.09000003
   19.94388771   -1.00000000    4.90999985    1.03999996
   19.95472336   -1.00000000    4.90999985    1.05999994
   19.95805550   -1.00000000    4.90999985    1.25000000
   19.96111107   -1.00000000    4.90999985    1.14999998
   19.96444511   -1.00000000    4.90999985    1.00000000
   19.96750069   -1.00000000    4.90999985    1.05999994
   19.97083473   -1.00000000    4.90999985    1.14999998
   19.97416687   -1.00000000    4.90999985    1.00000000
   19.97722244   -1.00000000    4.90999985    0.89999998
   19.98083305   -1.00000000    4.90999985    0.70999998
   19.98416710   -1.00000000    4.90999985    1.09000003
   19.98722267   54.97219849    4.90999985    1.85000002
   19.99361229   54.97219849    4.90999985    2.03999996
   19.99777794   -1.00000000    4.90999985    1.96000004
   20.00083351   -1.00000000    4.90999985    1.11000001
   20.00416756   -1.00000000    4.90999985    0.23000000
   20.00722313   -1.00000000    4.90999985    1.03999996
   20.01055527   -1.00000000    4.90999985    0.46000001
   20.01416588   -1.00000000    4.90999985    0.70999998
   20.01749992   99.38659668    4.90999985    1.75000000
   20.02055550   94.00420380    4.90999985    2.05999994
   20.02388954  255.20500183    4.90999985    2.09999990
   20.02694511  137.69599915    4.90999985    2.17000008
   20.03027725  278.87100220    4.90999985    2.15000010
   20.03638840  278.87100220    4.90999985    2.21000004
   20.04055595  338.66198730    4.90999985    2.17000008
   20.04249954  142.85200500    4.90999985    2.01999998
   20.04277802   99.38659668    4.90999985    1.75000000
   20.04277802   94.00420380    4.90999985    2.05999994
   20.04277802  255.20500183    4.90999985    2.09999990
   20.04305458  137.69599915    4.90999985    2.17000008
   20.04305458  278.87100220    4.90999985    2.15000010
   20.04305458  338.66198730    4.90999985    2.17000008
   20.04333305   -1.00000000    4.90999985    1.03999996
   20.04333305   -1.00000000    4.90999985    0.46000001
   20.04333305   -1.00000000    4.90999985    0.70999998
   20.04500008  263.20199585    4.90999985    2.11999989
   20.04833221   -1.00000000    4.90999985    2.11999989
   20.05138779  206.53300476    4.90999985    1.98000002
   20.05472183  353.93399048    4.90999985    2.28999996
   20.05666542  263.20199585    4.90999985    2.11999989
   20.05694389   -1.00000000    4.90999985    2.11999989
   20.05694389  206.53300476    4.90999985    1.98000002
   20.05694389  353.93399048    4.90999985    2.28999996
   20.05861092   83.77059937    4.90999985    1.01999998
   20.06194305  247.99299622    4.90999985    2.00000000
   20.06499863  168.19599915    4.90999985    2.25000000
   20.06833458  139.82400513    4.90999985    1.83000004
   20.07166672   33.33330154    4.90999985    2.15000010
   20.07750130   33.33330154    4.90999985    1.76999998
   20.08166695   -1.00000000    4.90999985    0.98000002
   20.08472252   -1.00000000    4.90999985    0.73000002
   20.08805656   -1.00000000    4.90999985    0.63000000
   20.09138870   -1.00000000    4.90999985    1.23000002
   20.09472275   -1.00000000    4.90999985    0.58999997
   20.09777832   -1.00000000    4.90999985    1.05999994
   20.10111237   -1.00000000    4.90999985    1.16999996
   20.10416794   -1.00000000    4.90999985    0.61000001
   20.10750008   -1.00000000    2.78999996    0.07000000
   20.11055565   -1.00000000    0.69000000    0.01000000
   20.11388969   -1.00000000    0.69000000    0.01000000
   20.12444496   -1.00000000    4.90999985    0.05000000
   20.12750053   -1.00000000    4.90999985    0.11000000
   20.13083267   -1.00000000    3.25000000    0.20999999
   20.13388824   -1.00000000    0.89999998    0.01000000
   20.13722229   -1.00000000    0.89999998    0.01000000
   20.14027786   -1.00000000    0.89999998    0.01000000
   20.14361191   -1.00000000    0.89999998    0.01000000
   20.14666748   -1.00000000    2.28999996    0.01000000
   20.14999962   -1.00000000    4.01999998    0.01000000
   20.15333366   -1.00000000    4.73999977    0.01000000
   20.15638924   -1.00000000    4.90999985    0.03000000
   20.16722107   -1.00000000    4.90999985    0.40000001
   20.17027664   -1.00000000    4.90999985    0.55000001
   20.17361069   -1.00000000    4.90999985    0.69000000
   20.17666626   -1.00000000    4.90999985    0.70999998
   20.18000031   -1.00000000    4.90999985    0.55000001
   20.18333244   -1.00000000    4.90999985    0.38000000
   20.18638802   -1.00000000    4.90999985    0.30000001
   20.18972206   -1.00000000    4.90999985    0.19000000
   20.19305420   -1.00000000    4.90999985    0.13000000
   20.19638824   -1.00000000    4.90999985    0.05000000
   20.19944382   -1.00000000    4.90999985    0.05000000
   20.21000099   -1.00000000    4.90999985    0.03000000
   20.21333504   -1.00000000    4.90999985    0.07000000
   20.21638870   -1.00000000    4.90999985    0.09000000
   20.21972275   -1.00000000    4.90999985    0.03000000
   20.22277832   -1.00000000    4.90999985    0.03000000
   20.22638893   -1.00000000    4.26999998    0.01000000
   20.22972298   -1.00000000    4.26999998    0.01000000
   20.23277855   -1.00000000    3.99000001    0.01000000
   20.23611069   -1.00000000    4.90999985    0.03000000
   20.23916626   -1.00000000    4.90999985    0.05000000
   20.24250031   -1.00000000    4.90999985    0.03000000
   20.25277710   -1.00000000    4.53999996    0.01000000
   20.25611115   -1.00000000    4.90999985    0.01000000
   20.25944519   -1.00000000    4.86999989    0.01000000
   20.26277733   -1.00000000    4.63999987    0.01000000
   20.26583290   -1.00000000    4.55999994    0.01000000
   20.26916695   -1.00000000    4.55999994    0.01000000
   20.27222252   -1.00000000    4.90999985    0.01000000
   20.27555466   -1.00000000    4.67999983    0.01000000
   20.27861023   -1.00000000    3.68000007    0.01000000
   20.28194427   -1.00000000    3.68000007    0.01000000
   20.28527641   -1.00000000    3.68000007    0.01000000
   20.29583359   -1.00000000    2.78999996    0.01000000
   20.29888916   -1.00000000    4.90999985    0.05000000
   20.30222130   -1.00000000    4.90999985    0.05000000
   20.30527687   -1.00000000    4.90999985    0.05000000
   20.30861092   -1.00000000    4.90999985    0.05000000
   20.31166649   -1.00000000    4.84999990    0.03000000
   20.31499863   -1.00000000    4.90999985    0.01000000
   20.31805611   -1.00000000    4.90999985    0.05000000
   20.32139015   -1.00000000    4.90999985    0.11000000
   20.32472229   -1.00000000    4.90999985    0.07000000
   20.32805634   -1.00000000    4.90999985    0.05000000
   20.33861160   -1.00000000    4.90999985    0.25999999
   20.34166718   -1.00000000    4.90999985    0.25000000
   20.34500122   -1.00000000    4.90999985    0.15000001
