    HOUR (UT)   FLARE FACTOR    SKY TESTER    SUN TESTER
   10.33305550   -1.00000000   -1.00000000   -1.00000000
   10.35361195  299.23901367    1.86000001    1.63000000
   10.35944462  318.87799072    1.88000000    1.64999998
   10.36138916  368.13900757    1.88000000    1.64999998
   10.36277771  405.01300049    1.88000000    1.64999998
   10.36416721  343.34698486    1.88000000    1.64999998
   10.36555576  380.58999634    1.88000000    1.64999998
   10.36694431  369.52499390    1.88000000    1.66999996
   10.36833382  193.62699890    1.88000000    1.66999996
   10.36833382  318.87799072    1.88000000    1.64999998
   10.36888885  298.47399902    1.88000000    1.64999998
   10.37222195  400.94500732    1.89999998    1.66999996
   10.37416649  418.89099121    1.89999998    1.66999996
   10.37555599  340.46701050    1.89999998    1.69000006
   10.37694454  458.42199707    1.89999998    1.69000006
   10.37833309  349.60000610    1.89999998    1.69000006
   10.37972260  375.35400391    1.89999998    1.69000006
   10.38111115  448.26300049    1.89999998    1.69000006
   10.38249969  385.80099487    1.89999998    1.69000006
   10.38388920  417.29998779    1.89999998    1.69000006
   10.38527775  438.14700317    1.89999998    1.69000006
   10.38666630  362.57800293    1.91999996    1.69000006
   10.38805580  377.74798584    1.89999998    1.69000006
   10.38944435  383.91101074    1.89999998    1.69000006
   10.39083290  401.76000977    1.91999996    1.69000006
   10.39222240  342.80200195    1.91999996    1.69000006
   10.39361095  453.12701416    1.91999996    1.69000006
   10.39499950  379.27999878    1.91999996    1.69000006
   10.39638901  342.56500244    1.91999996    1.69000006
   10.39777756  413.35101318    1.91999996    1.71000004
   10.39916611  424.97799683    1.91999996    1.71000004
   10.40055561  420.57199097    1.91999996    1.71000004
   10.40194416  434.16598511    1.94000006    1.71000004
   10.40333271  388.50000000    1.91999996    1.73000002
   10.40472221  426.76699829    1.91999996    1.73000002
   10.40611076  437.66900635    1.94000006    1.73000002
   10.40749931  384.75900269    1.94000006    1.73000002
   10.40888882  406.48098755    1.91999996    1.73000002
   10.41027737  353.85000610    1.91999996    1.73000002
   10.41166592  348.21899414    1.91999996    1.73000002
   10.41305542  415.41198730    1.94000006    1.73000002
   10.41444397  366.67401123    1.94000006    1.73000002
   10.41583252  383.73901367    1.91999996    1.73000002
   10.41722298  396.04699707    1.91999996    1.75000000
   10.41861153  340.92498779    1.91999996    1.75000000
   10.42000008  322.42098999    1.91999996    1.75000000
   10.42138958  423.76400757    1.94000006    1.75000000
   10.42277813  312.93099976    1.91999996    1.75000000
   10.42416668  355.45999146    1.91999996    1.75000000
   10.42555618  333.87799072    1.94000006    1.75000000
   10.42694473  377.50100708    1.91999996    1.75000000
   10.42833328  377.17999268    1.91999996    1.75000000
   10.42972279  384.43600464    1.91999996    1.75000000
   10.43111134  280.95700073    1.91999996    1.75000000
   10.43249989  327.67599487    1.91999996    1.76999998
   10.43388939  324.52301025    1.91999996    1.76999998
   10.43527794  329.40399170    1.91999996    1.76999998
   10.43666649  309.21499634    1.91999996    1.76999998
   10.43805599  321.95300293    1.89999998    1.76999998
   10.43944454  332.37200928    1.89999998    1.76999998
   10.44083309  321.57400513    1.89999998    1.76999998
   10.44222260  295.14001465    1.89999998    1.76999998
   10.44361115  312.05099487    1.91999996    1.76999998
   10.44499969  319.56698608    1.89999998    1.76999998
   10.44638920  272.33898926    1.89999998    1.76999998
   10.44777775  365.21301270    1.89999998    1.76999998
   10.44916630  282.99700928    1.89999998    1.78999996
   10.45055580  307.87100220    1.89999998    1.78999996
   10.45194435  309.22198486    1.91999996    1.78999996
   10.45333290  350.83700562    1.91999996    1.78999996
   10.45472240  312.26199341    1.89999998    1.78999996
   10.45611095  269.12701416    1.89999998    1.78999996
   10.45749950  309.04501343    1.89999998    1.78999996
   10.45888901  377.96899414    1.89999998    1.78999996
   10.46027756  292.17001343    1.88000000    1.78999996
   10.46166611  308.93399048    1.89999998    1.78999996
   10.46305561  335.60598755    1.89999998    1.78999996
   10.46444416  350.17599487    1.88000000    1.80999994
   10.46583271  322.23001099    1.88000000    1.80999994
   10.46722221  310.07598877    1.88000000    1.80999994
   10.46861076  340.90701294    1.88000000    1.80999994
   10.46999931  322.39498901    1.88000000    1.80999994
   10.47138882  281.77600098    1.88000000    1.80999994
   10.47277737  233.48199463    1.88000000    1.83000004
   10.47277737  298.47399902    1.88000000    1.64999998
   10.47277737  400.94500732    1.89999998    1.66999996
   10.47333336  278.55499268    1.88000000    1.83000004
   10.47666645  275.81500244    1.86000001    1.83000004
   10.47999954  270.64099121    1.86000001    1.83000004
   10.48305511  231.96099854    1.86000001    1.83000004
   10.48638916  274.61700439    1.85000002    1.83000004
   10.48972225  207.10299683    1.85000002    1.85000002
   10.49388885  207.10299683    1.85000002    1.85000002
   10.49777794  227.66600037    1.83000004    1.85000002
   10.50111103  217.86099243    1.83000004    1.85000002
   10.50444412  231.55099487    1.83000004    1.85000002
   10.50666714  235.16000366    1.80999994    1.85000002
   10.50805569  269.89801025    1.80999994    1.85000002
   10.51138878  229.43400574    1.78999996    1.86000001
   10.51472187  210.72300720    1.80999994    1.86000001
   10.51777744  199.07000732    1.78999996    1.86000001
   10.52111053  212.87899780    1.76999998    1.86000001
   10.52416611  211.83000183    1.76999998    1.88000000
   10.52750015  230.74299622    1.75000000    1.88000000
   10.53083324  226.60699463    1.76999998    1.88000000
   10.53666687  226.60699463    1.75000000    1.88000000
   10.54083347  217.71000671    1.73000002    1.89999998
   10.54388905  216.11399841    1.73000002    1.89999998
   10.54722309  207.55900574    1.71000004    1.89999998
   10.55027771  218.14199829    1.71000004    1.89999998
   10.55361176  246.11900330    1.71000004    1.89999998
   10.55694485  214.13900757    1.69000006    1.91999996
   10.56000042  208.43899536    1.66999996    1.91999996
   10.56333351  240.63999939    1.66999996    1.91999996
   10.56666660  216.80099487    1.66999996    1.91999996
   10.56972218  220.40299988    1.66999996    1.91999996
   10.57305527  203.31199646    1.66999996    1.94000006
   10.57361126  225.02400208    1.66999996    1.94000006
   10.57944393  225.02400208    1.63000000    1.94000006
   10.58361053  174.54400635    1.63000000    1.96000004
   10.58666611  189.83399963    1.61000001    1.96000004
   10.59000015  195.85800171    1.61000001    1.94000006
   10.59333324  201.13699341    1.61000001    1.94000006
   10.59638882  201.21200562    1.61000001    1.94000006
   10.59972191  195.83099365    1.58000004    1.96000004
   10.60305595  206.14599609    1.60000002    1.96000004
   10.60611153  205.07499695    1.58000004    1.96000004
   10.60694504  193.19900513    1.58000004    1.96000004
   10.60972214  215.12699890    1.55999994    1.98000002
   10.61305618  192.07699585    1.55999994    1.98000002
   10.61638927  185.11700439    1.55999994    1.98000002
   10.62222195  185.11700439    1.53999996    1.98000002
   10.62638855  222.71400452    1.51999998    1.98000002
   10.62972260  196.88699341    1.51999998    1.98000002
   10.63277817  202.61300659    1.51999998    2.00000000
   10.63611126  186.67399597    1.51999998    2.00000000
   10.63944435  176.39100647    1.50000000    2.00000000
   10.64027786  200.44000244    1.50000000    2.00000000
   10.64277744  203.72900391    1.50000000    2.00000000
   10.64611053  169.38900757    1.50000000    2.01999998
   10.64944458  180.52400208    1.48000002    2.01999998
   10.65249920  154.95399475    1.48000002    2.01999998
   10.65583324  179.96800232    1.48000002    2.01999998
   10.65916634  167.65600586    1.48000002    2.01999998
   10.66499996  167.65600586    1.46000004    2.01999998
   10.66916656  178.56100464    1.46000004    2.01999998
   10.67250061  168.67300415    1.44000006    2.03999996
   10.67361164  177.38800049    1.44000006    2.03999996
   10.67611122  175.41299438    1.44000006    2.03999996
   10.67944431  174.30700684    1.44000006    2.05999994
   10.68277836  182.41200256    1.44000006    2.03999996
   10.68583298  178.42199707    1.44000006    2.03999996
   10.68916702  180.35600281    1.44000006    2.03999996
   10.69250011  190.51199341    1.41999996    2.03999996
   10.69555569  176.09599304    1.39999998    2.05999994
   10.69888878  183.06100464    1.39999998    2.05999994
   10.70194435  207.93600464    1.39999998    2.05999994
   10.70805550  207.93600464    1.38000000    2.07999992
   10.71222210  197.70199585    1.38000000    2.07999992
   10.71527767  189.44000244    1.38000000    2.07999992
   10.71861076  181.79699707    1.38000000    2.07999992
   10.72166634  171.71400452    1.38000000    2.07999992
   10.72499943  197.91600037    1.36000001    2.07999992
   10.72833252  159.96699524    1.38000000    2.09999990
   10.73138809  181.46099854    1.38000000    2.09999990
   10.73472214  181.42900085    1.41999996    2.09999990
   10.73805618  177.41299438    1.39999998    2.09999990
   10.74027824  177.69599915    1.38000000    2.09999990
   10.74138927  156.41900635    1.36000001    2.09999990
   10.74472237  185.73100281    1.34000003    2.09999990
   10.75083351  185.73100281    1.34000003    2.09999990
   10.75500011  179.70199585    1.33000004    2.11999989
   10.75805569  192.76199341    1.33000004    2.11999989
   10.76138878  175.60899353    1.33000004    2.11999989
   10.76472187  178.93899536    1.33000004    2.11999989
   10.76805496  162.17100525    1.30999994    2.11999989
   10.77111053  176.65499878    1.30999994    2.11999989
   10.77361107  180.02999878    1.30999994    2.11999989
   10.77472210  190.84700012    1.30999994    2.11999989
   10.77805519  184.74299622    1.28999996    2.11999989
   10.78138828  183.77900696    1.30999994    2.11999989
   10.78444481  192.84500122    1.28999996    2.13000011
   10.78777790  201.21699524    1.28999996    2.13000011
   10.79361153  201.21699524    1.28999996    2.13000011
   10.79777813  176.19900513    1.28999996    2.13000011
   10.80111122  156.65299988    1.26999998    2.13000011
   10.80416679  170.47300720    1.26999998    2.15000010
   10.80694485  163.12100220    1.26999998    2.15000010
   10.80777836  193.24299622    1.26999998    2.15000010
   10.81111145  183.64500427    1.26999998    2.15000010
   10.81444454  156.84599304    1.26999998    2.15000010
   10.81750011  188.65299988    1.26999998    2.15000010
   10.82083321  184.27200317    1.25000000    2.15000010
   10.82416630  166.50399780    1.26999998    2.17000008
   10.82722187  167.00900269    1.25000000    2.17000008
   10.83055592  166.43200684    1.25000000    2.17000008
   10.83638859  166.43200684    1.25000000    2.17000008
   10.84055519  166.92599487    1.25000000    2.17000008
   10.84388828  176.63499451    1.25000000    2.17000008
   10.84722233  170.07800293    1.23000002    2.17000008
   10.85027790  176.67599487    1.23000002    2.17000008
   10.85361195  163.22000122    1.23000002    2.17000008
   10.85666752  162.26100159    1.23000002    2.19000006
   10.86000061  155.38600159    1.23000002    2.19000006
   10.86333370  139.83599854    1.21000004    2.19000006
   10.86638927  170.51300049    1.21000004    2.19000006
   10.86972237  167.06700134    1.21000004    2.19000006
   10.87305546  159.07099915    1.21000004    2.19000006
   10.87361145  173.53900146    1.21000004    2.19000006
   10.87944412  173.53900146    1.21000004    2.19000006
   10.88361073  146.23100281    1.21000004    2.19000006
   10.88666630  154.34700012    1.19000006    2.19000006
   10.89000034  171.91600037    1.19000006    2.21000004
   10.89333344  159.35099792    1.19000006    2.21000004
   10.89638901  154.18699646    1.19000006    2.21000004
   10.89972210  165.23599243    1.19000006    2.21000004
   10.90277767  170.96299744    1.19000006    2.21000004
   10.90611076  175.52200317    1.16999996    2.21000004
   10.90694427  159.26800537    1.16999996    2.21000004
   10.90999985  172.06500244    1.16999996    2.21000004
   10.91305542  174.67199707    1.16999996    2.21000004
   10.91638851  153.48800659    1.16999996    2.21000004
   10.92222214  153.48800659    1.16999996    2.23000002
   10.92638874  164.66999817    1.14999998    2.23000002
   10.92944431  159.97399902    1.16999996    2.23000002
   10.93277836  150.05599976    1.14999998    2.23000002
   10.93611145  147.04899597    1.14999998    2.23000002
   10.93916702  151.97300720    1.14999998    2.23000002
   10.94027805  164.14700317    1.14999998    2.23000002
   10.94305515  152.20599365    1.14999998    2.23000002
   10.94611073  154.65100098    1.14999998    2.23000002
   10.94944477  164.00700378    1.13000000    2.23000002
   10.95249939  138.17599487    1.13000000    2.23000002
   10.95583344  139.83399963    1.14999998    2.25000000
   10.95916653  150.42700195    1.13000000    2.25000000
   10.96500015  150.42700195    1.13000000    2.25000000
   10.96916580  147.31300354    1.13000000    2.25000000
   10.97249985  155.46699524    1.13000000    2.25000000
   10.97361088  141.44000244    1.11000001    2.25000000
   10.97611046  155.88900757    1.11000001    2.25000000
   10.97916603  161.77000427    1.11000001    2.25000000
   10.98249912  145.21099854    1.13000000    2.25000000
   10.98583317  149.80299377    1.11000001    2.25000000
   10.98888874  141.83299255    1.11000001    2.26999998
   10.99222279  146.73199463    1.11000001    2.26999998
   10.99527836  142.99000549    1.11000001    2.26999998
   10.99861145  146.74000549    1.11000001    2.26999998
   11.00194454  157.41000366    1.11000001    2.26999998
   11.00777817  157.41000366    1.11000001    2.28999996
   11.01194477  155.18800354    1.09000003    2.26999998
   11.01527786  145.43299866    1.09000003    2.28999996
   11.01861095  155.82000732    1.09000003    2.26999998
   11.02166653  149.90299988    1.09000003    2.28999996
   11.02499962  143.25900269    1.09000003    2.28999996
   11.02805519  148.11799622    1.09000003    2.28999996
   11.03138828  142.20399475    1.09000003    2.28999996
   11.03472233  153.76400757    1.09000003    2.28999996
   11.03777790  129.50700378    1.09000003    2.30999994
   11.04027843  148.75599670    1.11000001    2.28999996
   11.04166698  150.32899475    1.11000001    2.28999996
   11.04472256  147.11500549    1.11000001    2.28999996
   11.05083370  147.11500549    1.11000001    2.28999996
   11.05500031  148.52900696    1.11000001    2.30999994
   11.05805588  157.79200745    1.11000001    2.30999994
   11.06138897  142.68600464    1.11000001    2.30999994
   11.06444454  147.27799988    1.11000001    2.30999994
   11.06777763  158.99400330    1.09000003    2.30999994
   11.07111073  163.54699707    1.11000001    2.30999994
   11.07361126  163.62300110    1.09000003    2.32999992
   11.07472229  151.13699341    1.09000003    2.32999992
   11.07777786  156.99499512    1.09000003    2.30999994
   11.08111095  144.74800110    1.09000003    2.32999992
   11.08416653  149.60600281    1.09000003    2.32999992
   11.08749962  157.29699707    1.07000005    2.32999992
   11.09361076  157.29699707    1.09000003    2.30999994
   11.09777737  137.02600098    1.07000005    2.32999992
   11.10083389  138.85600281    1.07000005    2.32999992
   11.10416698  139.63900757    1.07000005    2.32999992
   11.10694504  145.04200745    1.07000005    2.32999992
   11.10805607  139.77600098    1.07000005    2.32999992
   11.11111164  145.06500244    1.05999994    2.32999992
   11.11444473  127.36699677    1.05999994    2.32999992
   11.11750031  134.88499451    1.05999994    2.32999992
   11.12083340  155.72099304    1.05999994    2.32999992
   11.12416649  153.07499695    1.05999994    2.32999992
   11.12722206  141.61399841    1.05999994    2.34999990
   11.13055611  131.10600281    1.05999994    2.34999990
   11.13638878  131.10600281    1.05999994    2.34999990
   11.14055538  145.74299622    1.03999996    2.34999990
   11.14388847  149.52900696    1.03999996    2.34999990
   11.14694405  140.63900757    1.03999996    2.34999990
   11.15027714  136.94700623    1.05999994    2.34999990
   11.15361118  143.59500122    1.03999996    2.34999990
   11.15666676  139.92999268    1.03999996    2.36999989
   11.15999985  146.64399719    1.03999996    2.34999990
   11.16333294  140.68699646    1.03999996    2.34999990
   11.16638851  143.79200745    1.03999996    2.36999989
   11.16972256  138.38299561    1.03999996    2.36999989
   11.17277813  153.30999756    1.03999996    2.36999989
   11.17361164  135.11300659    1.03999996    2.36999989
   11.17916679  135.11300659    1.03999996    2.36999989
   11.18333340  137.64599609    1.03999996    2.36999989
   11.18666649  148.21200562    1.01999998    2.36999989
   11.18972206  134.19599915    1.01999998    2.36999989
   11.19305515  136.52099609    1.01999998    2.36999989
   11.19638920  140.57499695    1.01999998    2.36999989
   11.19944477  137.62300110    1.01999998    2.36999989
   11.20277786  142.44099426    1.01999998    2.39000010
   11.20611095  129.30999756    1.01999998    2.39000010
   11.20694447  137.96699524    1.01999998    2.39000010
   11.20972157  128.94000244    1.00000000    2.36999989
   11.21277714  139.87600708    1.01999998    2.39000010
   11.21611118  137.59199524    1.00000000    2.39000010
   11.22222137  137.59199524    1.00000000    2.39000010
   11.22611046  129.66200256    1.00000000    2.39000010
   11.22944355  125.81800079    1.00000000    2.39000010
   11.23277760  133.95700073    1.00000000    2.39000010
   11.23583317  133.99600220    1.00000000    2.39000010
   11.23916721  135.29800415    0.98000002    2.39000010
   11.24027824  148.62600708    0.98000002    2.39000010
   11.24277782  138.19900513    0.98000002    2.40000010
   11.24583340  136.56700134    1.00000000    2.40000010
   11.24916649  132.63800049    0.98000002    2.39000010
   11.25249958  135.87500000    1.00000000    2.40000010
   11.25555515  127.60700226    0.98000002    2.40000010
   11.25888920  126.56900024    1.00000000    2.40000010
   11.26500034  126.56900024    0.95999998    2.40000010
   11.26916599  121.08799744    0.98000002    2.40000010
   11.27222157  134.57699585    0.95999998    2.40000010
   11.27361107  129.81700134    0.98000002    2.40000010
   11.27611065  130.80099487    0.95999998    2.40000010
   11.27916622  121.92199707    0.95999998    2.40000010
   11.28249931  122.83200073    0.95999998    2.40000010
   11.28583336  141.76899719    0.95999998    2.40000010
   11.28888893  131.57800293    0.95999998    2.40000010
   11.29222298  135.44400024    0.94000000    2.42000008
   11.29527855  135.54100037    0.94000000    2.40000010
   11.29861164  151.76100159    0.94000000    2.42000008
   11.30194473  136.71299744    0.92000002    2.40000010
   11.30777836  136.71299744    0.92000002    2.42000008
   11.31194496  127.58499908    0.92000002    2.42000008
   11.31500053  121.86699677    0.92000002    2.42000008
   11.31833363  122.35500336    0.89999998    2.42000008
   11.32166672  122.37899780    0.89999998    2.42000008
   11.32499981  134.84800720    0.89999998    2.42000008
   11.32805538  116.59300232    0.89999998    2.42000008
   11.33138847  130.53999329    0.89999998    2.42000008
   11.33444405  128.10000610    0.89999998    2.42000008
   11.33777714  137.39999390    0.89999998    2.44000006
   11.34027767  133.53999329    0.92000002    2.42000008
   11.34166622  126.86399841    0.89999998    2.42000008
   11.34472179  118.75700378    0.92000002    2.44000006
   11.35055637  118.75700378    0.89999998    2.44000006
   11.37083340  133.84500122    0.92000002    2.44000006
   11.37361145  134.32200623    0.92000002    2.44000006
   11.37444496  143.83399963    0.92000002    2.44000006
   11.37777805  126.51000214    0.92000002    2.44000006
   11.38083363  119.72899628    0.92000002    2.44000006
   11.38416672  134.06100464    0.92000002    2.44000006
   11.38749981  139.39799500    0.92000002    2.44000006
   11.39388847  139.39799500    0.92000002    2.44000006
   11.39777756  131.14999390    0.94000000    2.44000006
   11.40111065  128.93600464    0.92000002    2.46000004
   11.40444374  130.51100159    0.92000002    2.46000004
   11.40722179  140.16299438    0.94000000    2.46000004
   11.40805531  148.51499939    0.94000000    2.46000004
   11.41138840  139.01899719    0.92000002    2.46000004
   11.41444397  133.90800476    0.92000002    2.46000004
   11.41777802  136.73399353    0.92000002    2.46000004
   11.42111111  136.03399658    0.92000002    2.46000004
   11.42416668  130.58599854    0.92000002    2.46000004
   11.42750072  120.34999847    0.92000002    2.46000004
   11.43083382  126.59999847    0.92000002    2.46000004
   11.43666649  126.59999847    0.89999998    2.46000004
   11.44083309  126.58200073    0.89999998    2.46000004
   11.44388866  139.91499329    0.89999998    2.46000004
   11.44722271  131.24600220    0.89999998    2.46000004
   11.45027733  128.06300354    0.89999998    2.46000004
   11.45361137  136.75399780    0.89999998    2.46000004
   11.45694447  128.48599243    0.89999998    2.46000004
   11.46000004  135.59199524    0.88000000    2.48000002
   11.46333313  131.95199585    0.88000000    2.48000002
   11.46666622  130.11099243    0.86000001    2.46000004
   11.46972179  127.31500244    0.86000001    2.48000002
   11.47305489  129.25000000    0.86000001    2.48000002
   11.47361088  127.80599976    0.86000001    2.48000002
   11.47944355  127.80599976    0.86000001    2.48000002
   11.48361111  132.88800049    0.83999997    2.48000002
   11.48722267  127.92199707    0.83999997    2.48000002
   11.49027824  128.20700073    0.83999997    2.48000002
   11.49361134  136.24899292    0.83999997    2.48000002
   11.49694443  130.49299622    0.83999997    2.48000002
   11.50000000  132.90299988    0.83999997    2.48000002
   11.50333309  128.59500122    0.83999997    2.48000002
   11.50638866  129.71699524    0.83999997    2.48000002
   11.50722218  128.46899414    0.83999997    2.48000002
   11.51000023  137.37100220    0.83999997    2.48000002
   11.51333332  115.84200287    0.83999997    2.50000000
   11.51638889  125.66000366    0.83999997    2.48000002
   11.52222157  125.66000366    0.83999997    2.48000002
   11.52638817  125.75299835    0.83999997    2.50000000
   11.52972221  131.64199829    0.83999997    2.48000002
   11.53277779  129.46499634    0.83999997    2.50000000
   11.53611183  120.72200012    0.83999997    2.50000000
   11.53944492  125.63899994    0.83999997    2.50000000
   11.54055595  129.49200439    0.83999997    2.50000000
   11.54305553  129.81199646    0.83999997    2.50000000
   11.54638958  126.80799866    0.83999997    2.50000000
   11.54972267  127.24700165    0.83999997    2.50000000
   11.55277824  133.22799683    0.83999997    2.50000000
   11.55611134  129.41600037    0.83999997    2.50000000
   11.55916691  125.92500305    0.83999997    2.50000000
   11.56500053  125.92500305    0.86000001    2.51999998
   11.56916618  132.50199890    0.86000001    2.51999998
   11.57250023  143.30200195    0.86000001    2.50000000
   11.57388878  127.25199890    0.86000001    2.50000000
   11.57611084  137.80299377    0.83999997    2.50000000
   11.57944393  131.63999939    0.83999997    2.50000000
   11.58249950  150.52999878    0.86000001    2.50000000
   11.58583260  139.52299500    0.86000001    2.50000000
   11.58916664  133.26899719    0.83999997    2.51999998
   11.59222221  132.71899414    0.83999997    2.50000000
   11.59555531  126.77400208    0.83999997    2.50000000
   11.59888840  132.05700684    0.83999997    2.51999998
   11.60194492  139.51600647    0.83999997    2.51999998
   11.60805607  139.51600647    0.86000001    2.51999998
   11.61222267  122.75199890    0.83999997    2.50000000
   11.61527824  120.43699646    0.86000001    2.51999998
   11.61861134  138.55599976    0.86000001    2.51999998
   11.62166691  136.58099365    0.83999997    2.51999998
   11.62500000  126.12300110    0.86000001    2.51999998
   11.62833309  133.75199890    0.86000001    2.51999998
   11.63138866  133.72500610    0.86000001    2.51999998
   11.63472176  130.00100708    0.86000001    2.51999998
   11.63805580  132.72099304    0.83999997    2.53999996
   11.64055538  138.86700439    0.83999997    2.51999998
   11.64166641  134.04100037    0.83999997    2.51999998
   11.64499950  129.33399963    0.83999997    2.51999998
   11.65083313  129.33399963    0.81999999    2.51999998
   11.65499973  142.23800659    0.81999999    2.53999996
   11.65805531  130.47300720    0.81999999    2.51999998
   11.66138840  127.58699799    0.81999999    2.51999998
   11.66472149  142.52099609    0.81999999    2.53999996
   11.66777802  133.88999939    0.81999999    2.53999996
   11.67111111  125.83599854    0.81999999    2.53999996
   11.67388916  129.19200134    0.81999999    2.53999996
   11.67472267  136.11399841    0.81999999    2.53999996
   11.67805576  146.07699585    0.83999997    2.53999996
   11.68111134  148.48100281    0.83999997    2.53999996
   11.68444443  136.83599854    0.83999997    2.53999996
   11.68777752  132.80299377    0.86000001    2.53999996
   11.69361115  132.80299377    0.88000000    2.53999996
   11.69777775  125.31999969    0.86000001    2.53999996
   11.70111084  130.13200378    0.83999997    2.53999996
   11.70416641  125.00199890    0.86000001    2.53999996
   11.70722198  123.09600067    0.83999997    2.53999996
   11.70777798  131.61700439    0.83999997    2.53999996
   11.71111107  132.04899597    0.81999999    2.55999994
   11.71416664  132.63699341    0.81999999    2.55999994
   11.71749973  123.98699951    0.80000001    2.53999996
   11.72083282  126.63700104    0.80000001    2.55999994
   11.72388840  138.21400452    0.80000001    2.55999994
   11.72722149  135.84700012    0.80000001    2.55999994
   11.73055553  129.67300415    0.79000002    2.55999994
   11.73638916  129.67300415    0.79000002    2.55999994
   11.74055576  121.88300323    0.79000002    2.55999994
   11.74388885  124.93099976    0.79000002    2.55999994
   11.74694443  130.50100708    0.79000002    2.55999994
   11.75027752  131.15699768    0.79000002    2.55999994
   11.75361156  124.48999786    0.79000002    2.55999994
   11.75694466  116.16100311    0.79000002    2.55999994
   11.76000023  130.03199768    0.79000002    2.55999994
   11.76333332  127.13099670    0.79000002    2.55999994
   11.76666641  137.11399841    0.79000002    2.55999994
   11.76972198  139.25500488    0.76999998    2.55999994
   11.77305508  144.24699402    0.76999998    2.55999994
   11.77388859  137.76199341    0.76999998    2.57999992
   11.77944374  137.76199341    0.76999998    2.55999994
   11.78333378  128.13499451    0.75000000    2.55999994
   11.78666687  121.02200317    0.76999998    2.55999994
   11.79000092  124.26799774    0.75000000    2.55999994
   11.79305553  127.95500183    0.75000000    2.57999992
   11.79638958  109.60800171    0.75000000    2.57999992
   11.79972267  118.04399872    0.75000000    2.57999992
   11.80277824  119.73500061    0.75000000    2.57999992
   11.80611134  118.36399841    0.75000000    2.55999994
   11.80722237  122.89399719    0.75000000    2.57999992
   11.80972195  126.94899750    0.76999998    2.57999992
   11.81305599  123.20800018    0.76999998    2.57999992
   11.81638908  118.28299713    0.76999998    2.57999992
   11.82222176  118.28299713    0.75000000    2.57999992
   11.82638836  128.75500488    0.76999998    2.57999992
   11.82944393  120.43000031    0.75000000    2.57999992
   11.83277798  114.30400085    0.75000000    2.57999992
   11.83611107  123.91100311    0.75000000    2.57999992
   11.83916664  124.47399902    0.75000000    2.57999992
   11.84055519  124.27200317    0.76999998    2.57999992
   11.84305477  126.81099701    0.76999998    2.59999990
   11.84611034  121.46299744    0.75000000    2.57999992
   11.84944439  121.74900055    0.76999998    2.59999990
   11.85249996  121.28600311    0.75000000    2.57999992
   11.85583401  123.86900330    0.75000000    2.57999992
   11.85916710  129.14399719    0.76999998    2.57999992
   11.86500072  129.14399719    0.76999998    2.57999992
   11.86916637  125.50299835    0.76999998    2.57999992
   11.87250042  116.12500000    0.75000000    2.57999992
   11.87388897  115.18599701    0.76999998    2.57999992
   11.87583351  125.35299683    0.75000000    2.59999990
   11.87916660  113.31099701    0.75000000    2.59999990
   11.88277817  125.57800293    0.75000000    2.59999990
   11.88583279  116.77999878    0.75000000    2.59999990
   11.88916683  113.88099670    0.75000000    2.59999990
   11.89249992  113.69899750    0.75000000    2.59999990
   11.89555550  123.84500122    0.75000000    2.59999990
   11.89888859  128.66999817    0.75000000    2.59999990
   11.90222168  117.82099915    0.75000000    2.59999990
   11.90777779  117.82099915    0.75000000    2.59999990
   11.91194439  129.10099792    0.75000000    2.59999990
   11.91527748  121.87100220    0.75000000    2.59999990
   11.91833401  118.79399872    0.75000000    2.59999990
   11.92166710  127.30999756    0.76999998    2.59999990
   11.92500019  120.41300201    0.76999998    2.59999990
   11.92805576  116.20800018    0.79000002    2.59999990
   11.93138885  116.63899994    0.79000002    2.59999990
   11.93472195  122.78299713    0.75000000    2.59999990
   11.93777752  117.35600281    0.75000000    2.59999990
   11.94055557  117.32900238    0.75000000    2.59999990
   11.94138908  118.23200226    0.75000000    2.59999990
   11.94472218  124.33499908    0.75000000    2.59999990
   11.95083332  124.33499908    0.75000000    2.59999990
   11.95499992  118.51799774    0.75000000    2.61999989
   11.95805550  123.36000061    0.73000002    2.61999989
   11.96138859  120.79100037    0.73000002    2.61999989
   11.96444416  116.99700165    0.73000002    2.61999989
   11.96777725  131.86700439    0.73000002    2.61999989
   11.97111034  119.27300262    0.73000002    2.61999989
   11.97388840  125.18699646    0.75000000    2.61999989
   11.97444439  119.91000366    0.73000002    2.61999989
   11.97777748  130.91499329    0.73000002    2.61999989
   11.98111057  121.39099884    0.73000002    2.61999989
   11.98416710  116.08200073    0.73000002    2.61999989
   11.98750019  123.42600250    0.73000002    2.61999989
   11.99361134  123.42600250    0.75000000    2.61999989
   11.99777794  117.33899689    0.76999998    2.61999989
   12.00083351  124.27700043    0.76999998    2.59999990
   12.00416660  124.61599731    0.79000002    2.61999989
   12.00722218  119.94599915    0.79000002    2.61999989
   12.00777817  129.26100159    0.79000002    2.61999989
   12.01111126  126.68000031    0.83999997    2.64000010
   12.01444435  121.94100189    0.86000001    2.61999989
   12.01749992  118.58300018    0.86000001    2.61999989
   12.02083302  129.22700500    0.80000001    2.61999989
   12.02388859  126.12200165    0.79000002    2.64000010
   12.02722168  124.63200378    0.76999998    2.61999989
   12.03055573  128.22399902    0.76999998    2.61999989
   12.03638935  128.22399902    0.81999999    2.61999989
   12.04055595  122.94400024    0.79000002    2.64000010
   12.04388905  118.20099640    0.81999999    2.61999989
   12.04694462  120.82900238    0.81999999    2.64000010
   12.05027771  116.19799805    0.88000000    2.64000010
   12.05333328  111.75900269    0.89999998    2.64000010
   12.05666733  112.94400024    0.81999999    2.64000010
   12.06000042  127.66300201    0.76999998    2.64000010
   12.06305599  122.10800171    0.76999998    2.64000010
   12.06638908  114.16999817    0.75000000    2.64000010
   12.06972218  116.06400299    0.80000001    2.64000010
   12.07277775  121.76499939    0.80000001    2.64000010
   12.07388878  118.24600220    0.80000001    2.64000010
   12.07944393  118.24600220    0.80000001    2.64000010
   12.08361053  121.03700256    0.80000001    2.61999989
   12.08694458  109.91799927    0.80000001    2.64000010
   12.09000015  105.93599701    0.80000001    2.64000010
   12.09333324  102.58599854    0.81999999    2.61999989
   12.09638882  108.28500366    0.81999999    2.64000010
   12.09972191  113.58599854    0.80000001    2.64000010
   12.10305595  103.45200348    0.79000002    2.64000010
   12.10611153  113.29100037    0.88000000    2.61999989
   12.10722256  118.45500183    0.89999998    2.64000010
   12.10972214  112.84999847    0.89999998    2.64000010
   12.11305618  102.97699738    0.75000000    2.64000010
   12.11638927  116.35299683    0.75000000    2.66000009
   12.12222195  116.35299683    0.73000002    2.66000009
   12.12611103  105.64600372    0.73000002    2.66000009
   12.12944412  113.86900330    0.73000002    2.64000010
   12.13277817  109.12599945    0.70999998    2.66000009
   12.13583279  118.08300018    0.73000002    2.64000010
   12.13916683  106.83799744    0.75000000    2.64000010
   12.14055538  109.50399780    0.76999998    2.64000010
   12.14277744  105.80000305    0.76999998    2.66000009
   12.14611053   99.86219788    0.76999998    2.64000010
   12.14944458  109.04699707    0.76999998    2.64000010
   12.15249920  107.60199738    0.80000001    2.64000010
   12.15583324  106.15499878    0.88000000    2.66000009
   12.15916634  103.41100311    0.80000001    2.66000009
   12.16499996  103.41100311    0.75000000    2.66000009
   12.16916656  109.57599640    0.81999999    2.66000009
   12.17222214  102.31900024    0.94000000    2.66000009
   12.17388916  114.33899689    1.00000000    2.64000010
   12.17611122  109.65299988    1.05999994    2.61999989
   12.17916679  107.02899933    1.25000000    2.66000009
   12.18249989  118.49600220    1.05999994    2.64000010
   12.18555546  102.43499756    1.09000003    2.66000009
   12.18888855  106.44499969    1.13000000    2.64000010
   12.19222260  114.96700287    1.16999996    2.66000009
   12.19527817  110.99199677    0.89999998    2.66000009
   12.19861126  109.38999939    1.01999998    2.66000009
   12.20194435  121.30899811    0.92000002    2.64000010
   12.20777798  121.30899811    0.83999997    2.66000009
   12.21194458  109.97799683    0.79000002    2.66000009
   12.21527767  112.73999786    0.79000002    2.66000009
   12.21833324  113.67199707    0.80000001    2.66000009
   12.22166634  104.90599823    0.79000002    2.66000009
   12.22472191  113.24700165    0.73000002    2.66000009
   12.22805500   93.08129883    0.67000002    2.66000009
   12.23138809  110.84300232    0.64999998    2.67000008
   12.23444462  103.40899658    0.64999998    2.67000008
   12.23777771   98.47190094    0.64999998    2.67000008
   12.24055576  107.45600128    0.64999998    2.66000009
   12.24138927  103.91799927    0.64999998    2.66000009
   12.24472237  104.67800140    0.64999998    2.67000008
   12.25055599  104.67800140    0.63000000    2.67000008
   12.25472260   98.68170166    0.63000000    2.67000008
   12.25805569  114.36699677    0.63000000    2.67000008
   12.26111126  117.86900330    0.63000000    2.67000008
   12.26444435  104.88400269    0.63000000    2.66000009
   12.26777744  108.54599762    0.63000000    2.66000009
   12.27083302  120.44899750    0.63000000    2.67000008
   12.27388859  130.97900391    0.63000000    2.67000008
   12.27444458  124.78199768    0.63000000    2.67000008
   12.27777767  116.88200378    0.63000000    2.67000008
   12.28111076  115.36699677    0.63000000    2.67000008
   12.28416729  112.01899719    0.63000000    2.67000008
   12.28750038  110.83000183    0.64999998    2.67000008
   12.29361153  110.83000183    0.63000000    2.67000008
   12.29750061  114.75900269    0.63000000    2.67000008
   12.30083370  126.94799805    0.63000000    2.69000006
   12.30416679  117.02200317    0.63000000    2.67000008
   12.30722237   97.17649841    0.63000000    2.67000008
   12.30749989  119.79000092    0.64999998    2.69000006
   12.31111145  109.18499756    0.64999998    2.67000008
   12.31444454  108.04299927    0.63000000    2.67000008
   12.31750011  114.47799683    0.63000000    2.67000008
   12.32083321  100.56999969    0.63000000    2.69000006
   12.32416630  112.97100067    0.64999998    2.67000008
   12.32722187  115.53800201    0.64999998    2.67000008
   12.33055592  103.72699738    0.64999998    2.67000008
   12.33638859  103.72699738    0.64999998    2.67000008
   12.34055519  111.29399872    0.64999998    2.69000006
   12.34111118  105.53500366    0.64999998    2.69000006
   12.34416676  109.27899933    0.64999998    2.69000006
   12.34749985  109.92099762    0.64999998    2.69000006
   12.35055637  112.76999664    0.64999998    2.69000006
   12.35388947  104.39099884    0.64999998    2.69000006
   12.35722256  110.74099731    0.64999998    2.67000008
   12.36027813  105.64700317    0.67000002    2.69000006
   12.36361122  112.29799652    0.64999998    2.69000006
   12.36666679  109.91999817    0.64999998    2.69000006
   12.36999989  102.82299805    0.64999998    2.69000006
   12.38722229  113.24400330    0.67000002    2.69000006
   12.39138889  113.24400330    0.64999998    2.69000006
   12.39555550  111.48100281    0.67000002    2.71000004
   12.39861107  106.22399902    0.69000000    2.69000006
   12.40194416  106.78500366    0.73000002    2.71000004
   12.40499973  100.17199707    0.70999998    2.69000006
   12.40833282  109.60700226    0.69000000    2.69000006
   12.41166592  101.96199799    0.67000002    2.69000006
   12.41472149   95.58550262    0.67000002    2.69000006
   12.41805553  110.15599823    0.69000000    2.69000006
   12.42027855  111.49800110    0.73000002    2.69000006
   12.42166710  110.91600037    0.73000002    2.69000006
   12.42500019  109.35800171    0.70999998    2.69000006
   12.42805576  110.85700226    0.69000000    2.69000006
   12.43416691  110.85700226    0.73000002    2.69000006
   12.43833351  107.53700256    0.76999998    2.71000004
   12.44138908  111.10399628    0.75000000    2.69000006
   12.44472218  100.48200226    0.75000000    2.69000006
   12.44805527  105.08999634    0.76999998    2.69000006
   12.45111084  104.47399902    0.76999998    2.71000004
   12.45361137  106.11000061    0.76999998    2.71000004
   12.45472240  103.77500153    0.76999998    2.71000004
   12.45805550  105.90299988    0.75000000    2.69000006
   12.46111107  115.19899750    0.79000002    2.71000004
   12.46444416  108.84100342    0.86000001    2.71000004
   12.46777725  106.10800171    0.88000000    2.71000004
   12.47083282  108.66899872    0.88000000    2.71000004
   12.47694397  108.66899872    0.94000000    2.69000006
   12.48111057  102.43099976    0.98000002    2.69000006
   12.48416710  106.23799896    0.98000002    2.71000004
   12.48694515  109.21099854    1.33000004    2.71000004
   12.48805618  107.51899719    1.33000004    2.71000004
   12.49138927  107.43399811    1.03999996    2.69000006
   12.49444485  105.66600037    1.03999996    2.67000008
   12.49777794  107.33799744    1.30999994    2.69000006
   12.50083351  114.72799683    2.05999994    2.66000009
   12.50416660  107.51100159    2.34999990    2.66000009
   12.50749969  101.84600067    1.96000004    2.67000008
   12.51055527  104.48400116    1.91999996    2.67000008
   12.51388931  106.55500031    2.71000004    2.67000008
   12.51972198  106.55500031    2.15000010    2.69000006
   12.52388859  100.94300079    1.48000002    2.69000006
   12.52722168  106.60500336    1.21000004    2.69000006
   12.53027725  106.86499786    1.21000004    2.69000006
   12.53361130  110.78600311    1.38000000    2.69000006
   12.53694534   99.20719910    2.03999996    2.67000008
   12.54000092  113.50599670    1.96000004    2.69000006
   12.54333401  117.27100372    1.78999996    2.66000009
   12.54638958  108.29900360    1.78999996    2.66000009
   12.54972267  106.36000061    1.50000000    2.69000006
   12.55305576  107.57800293    1.48000002    2.71000004
   12.55472279  113.76999664    2.26999998    2.69000006
   12.55666733  111.43599701    2.46000004    2.69000006
   12.56277752  111.43599701    3.86999989    2.55999994
   12.56666660  102.32700348    3.09999990    2.67000008
   12.56999969  116.42700195    2.67000008    2.61999989
   12.57333374   96.79889679    2.67000008    2.64000010
   12.57638836  101.48100281    2.30999994    2.71000004
   12.57972240  107.82399750    2.82999992    2.71000004
   12.58277798  104.51599884    2.91000009    2.66000009
   12.58611107  105.96199799    2.75000000    2.71000004
   12.58805561  100.59999847    2.28999996    2.67000008
   12.58972168  103.13800049    2.32999992    2.67000008
   12.59305477  103.80400085    2.23000002    2.71000004
   12.59611034  105.75000000    2.01999998    2.73000002
   12.59944439  103.56400299    1.09000003    2.69000006
   12.60555553  103.56400299    1.13000000    2.71000004
   12.60972214  106.51699829    0.89999998    2.71000004
   12.61277771  103.64499664    0.81999999    2.69000006
   12.61611176  107.49900055    0.75000000    2.71000004
   12.61916637  113.49900055    0.75000000    2.73000002
   12.62166691  102.88400269    0.73000002    2.71000004
   12.62305546   96.44770050    0.73000002    2.71000004
   12.62611103  102.52100372    0.67000002    2.73000002
   12.62944412  104.74700165    0.83999997    2.73000002
   12.63277817   95.63569641    0.80000001    2.73000002
   12.63583279  106.16799927    0.64999998    2.73000002
   12.63916683  108.66300201    0.64999998    2.71000004
   12.64249992  105.30500031    0.63000000    2.71000004
   12.64833355  105.30500031    0.64999998    2.73000002
   12.65249920  107.78399658    0.64999998    2.73000002
   12.65499973  111.18199921    0.63000000    2.75000000
   12.65611076  111.08799744    0.63000000    2.75000000
   12.65916634  104.74400330    0.58999997    2.71000004
   12.66249943  114.45099640    0.56999999    2.73000002
   12.66583252  108.21499634    0.56999999    2.73000002
   12.66888905   98.36730194    0.56999999    2.73000002
   12.67222214   96.42769623    0.56999999    2.73000002
   12.67555618  100.23999786    0.56999999    2.73000002
   12.67861176  105.25900269    0.56999999    2.73000002
   12.68194485   95.02619934    0.56999999    2.75000000
   12.68500042   96.28209686    0.56999999    2.73000002
   12.69138908   96.28209686    0.56999999    2.71000004
   12.69555569  103.99099731    0.56999999    2.75000000
   12.69861126   97.46910095    0.56999999    2.73000002
   12.70194435   99.09339905    0.56999999    2.73000002
   12.70527744   92.96790314    0.58999997    2.73000002
   12.70833302   98.35639954    0.58999997    2.75000000
   12.71166611   94.44180298    0.56999999    2.73000002
   12.71500015  102.34100342    0.58999997    2.73000002
   12.71805477   92.43630219    0.58999997    2.73000002
   12.72138882  108.36799622    0.58999997    2.73000002
   12.72194386  107.32199860    0.58999997    2.73000002
   12.72499943   97.86319733    0.58999997    2.75000000
   12.72833252  104.87300110    0.70999998    2.75000000
   12.73388958  104.87300110    0.64999998    2.75000000
   12.73805618   97.84790039    0.64999998    2.73000002
   12.74138927  106.19899750    0.75000000    2.73000002
   12.74472237  105.02600098    0.75000000    2.73000002
   12.74777794   97.34410095    0.76999998    2.73000002
   12.75111103   93.98280334    0.73000002    2.73000002
   12.75444412   96.87190247    0.73000002    2.75000000
   12.75527763  101.30300140    0.73000002    2.75000000
   12.75777817  103.36299896    0.73000002    2.75000000
   12.76111126   99.62249756    0.67000002    2.75000000
   12.76416683   99.29920197    0.67000002    2.75000000
   12.76749992  102.97399902    0.58999997    2.75000000
   12.77083302  102.28700256    0.58999997    2.73000002
   12.77694416  102.28700256    0.58999997    2.73000002
   12.78111076  102.19200134    0.61000001    2.75000000
   12.78416729  101.66899872    0.63000000    2.75000000
   12.78750038  103.27799988    0.63000000    2.75000000
   12.78888893  105.17600250    0.63000000    2.75000000
   12.79111195  115.35399628    0.63000000    2.75000000
   12.79444504  106.77100372    0.61000001    2.73000002
   12.79750061  104.20600128    0.61000001    2.75000000
   12.80083370   97.72509766    0.61000001    2.75000000
   12.80416679  108.99900055    0.61000001    2.75000000
   12.80722237  100.26100159    0.61000001    2.75000000
   12.81055546  100.77400208    0.58999997    2.75000000
   12.81388950  105.52200317    0.58999997    2.75000000
   12.81972218  105.52200317    0.55000001    2.75000000
   12.82388878  101.94100189    0.55000001    2.75000000
   12.82722187   93.27230072    0.55000001    2.75000000
   12.83027744  116.33999634    0.55000001    2.75000000
   12.83361053  113.66400146    0.52999997    2.75000000
   12.83666611  118.63700104    0.52999997    2.75000000
   12.84000015  114.73000336    0.52999997    2.73000002
   12.84333324  108.77500153    0.52999997    2.75000000
   12.84638882  105.88300323    0.51999998    2.75000000
   12.84972191  108.85500336    0.51999998    2.75000000
   12.85305595  113.36100006    0.51999998    2.73000002
   12.85555553  108.92600250    0.52999997    2.75000000
   12.85666752  101.33899689    0.52999997    2.75000000
   12.86250019  101.33899689    0.51999998    2.76999998
   12.86666679   99.29139709    0.51999998    2.75000000
   12.86999989  106.82499695    0.51999998    2.75000000
   12.87305546  102.58999634    0.51999998    2.75000000
   12.87638855   99.47100067    0.52999997    2.76999998
   12.87972260  106.51100159    0.51999998    2.76999998
   12.88277817  106.58899689    0.51999998    2.76999998
   12.88611126  110.51300049    0.51999998    2.75000000
   12.88888836  113.09600067    0.51999998    2.75000000
   12.88972187  108.71399689    0.51999998    2.75000000
   12.89305496  105.97799683    0.51999998    2.76999998
   12.89611053  107.54900360    0.51999998    2.76999998
   12.89944458   99.39119720    0.51999998    2.75000000
   12.90555477   99.39119720    0.51999998    2.76999998
   12.90944386  108.33000183    0.51999998    2.76999998
   12.91277695  103.65299988    0.51999998    2.76999998
   12.91611099  103.46499634    0.51999998    2.76999998
   12.91916656   99.80799866    0.51999998    2.75000000
   12.92222214  101.80000305    0.51999998    2.75000000
   12.92277813   92.30940247    0.51999998    2.75000000
   12.92611122   98.23059845    0.51999998    2.75000000
   12.92916679   96.24960327    0.51999998    2.76999998
   12.93249989  101.50900269    0.51999998    2.76999998
   12.93555546  103.27799988    0.51999998    2.76999998
   12.93888855  104.19499969    0.52999997    2.76999998
   12.94222260  110.80500031    0.51999998    2.76999998
   12.94833374  110.80500031    0.51999998    2.75000000
   12.95249939  107.19799805    0.51999998    2.75000000
   12.95555496  103.54499817    0.51999998    2.75000000
   12.95611095  106.58999634    0.51999998    2.75000000
   12.95944405  111.67800140    0.51999998    2.75000000
   12.96249962  121.80300140    0.51999998    2.75000000
   12.96583271  110.36199951    0.51999998    2.75000000
   12.96888828  112.59899902    0.52999997    2.75000000
   12.97222137  102.13600159    0.52999997    2.75000000
   12.97555542  107.64399719    0.51999998    2.76999998
   12.97861099  109.60900116    0.51999998    2.76999998
   12.98194408  107.56500244    0.51999998    2.76999998
   12.98527813  104.52300262    0.52999997    2.76999998
   12.99111176  104.52300262    0.52999997    2.76999998
   12.99527836  107.88400269    0.52999997    2.76999998
   12.99833393  113.91899872    0.52999997    2.76999998
   13.00166702  101.19200134    0.52999997    2.76999998
   13.00500011  110.81500244    0.52999997    2.75000000
   13.00805569  102.17800140    0.52999997    2.76999998
   13.01138878  105.97699738    0.51999998    2.76999998
   13.01472187   98.81819916    0.52999997    2.76999998
   13.01777744  101.71800232    0.51999998    2.78999996
   13.02111053  107.86299896    0.51999998    2.78999996
   13.02222157   99.69210052    0.51999998    2.78999996
   13.02472210   99.89320374    0.52999997    2.78999996
   13.02805519  109.11299896    0.52999997    2.75000000
   13.03388977  109.11299896    0.52999997    2.76999998
   13.03805637  107.11799622    0.51999998    2.76999998
   13.04138947  106.63999939    0.52999997    2.76999998
   13.04444504  102.82199860    0.51999998    2.76999998
   13.04777813   98.39559937    0.51999998    2.76999998
   13.05111122  110.39700317    0.51999998    2.76999998
   13.05416679  109.00499725    0.50000000    2.78999996
   13.05555534  114.52200317    0.50000000    2.78999996
   13.05777836  115.48300171    0.51999998    2.76999998
   13.06111145  108.33699799    0.51999998    2.76999998
   13.06416702  116.06900024    0.51999998    2.76999998
   13.06750011  108.55000305    0.51999998    2.76999998
   13.07083321  112.00000000    0.51999998    2.76999998
   13.07666683  112.00000000    0.51999998    2.76999998
   13.08083344  110.75199890    0.51999998    2.78999996
   13.08416653  104.37200165    0.50000000    2.78999996
   13.08749962  109.57800293    0.51999998    2.78999996
   13.08916664  113.97100067    0.51999998    2.78999996
   13.09111118  111.35299683    0.51999998    2.76999998
   13.09416676  116.79199982    0.51999998    2.76999998
   13.09749985  113.94300079    0.51999998    2.76999998
   13.10083389  108.39499664    0.51999998    2.76999998
   13.10388947  106.44599915    0.51999998    2.75000000
   13.10722256  116.17700195    0.51999998    2.75000000
   13.11055565  102.80500031    0.51999998    2.75000000
   13.11361122  106.57599640    0.50000000    2.78999996
   13.11972237  106.57599640    0.51999998    2.78999996
   13.12388897  102.90499878    0.51999998    2.78999996
   13.12694454   89.23699951    0.51999998    2.78999996
   13.13027763  101.12699890    0.51999998    2.76999998
   13.13333321  102.65499878    0.51999998    2.76999998
   13.13666630  103.20600128    0.51999998    2.76999998
   13.14000034  110.54900360    0.50000000    2.80999994
   13.14305496  108.59400177    0.51999998    2.76999998
   13.14638901  103.79299927    0.50000000    2.76999998
   13.14972210  110.91100311    0.50000000    2.78999996
   13.15277767  102.56500244    0.47999999    2.76999998
   13.15583324  105.24199677    0.47999999    2.78999996
   13.15666676  113.05100250    0.47999999    2.78999996
   13.16249943  113.05100250    0.50000000    2.78999996
   13.16666698  109.45300293    0.50000000    2.78999996
   13.16972256  109.59799957    0.50000000    2.78999996
   13.17305565  104.46800232    0.50000000    2.78999996
   13.17638874  105.03600311    0.50000000    2.78999996
   13.17944431   99.21459961    0.50000000    2.76999998
   13.18277836  114.57399750    0.50000000    2.76999998
   13.18611145  103.55699921    0.50000000    2.78999996
   13.18916702  116.60800171    0.50000000    2.78999996
   13.18972206  106.55400085    0.50000000    2.78999996
   13.19277763  113.46800232    0.51999998    2.80999994
   13.19611073  108.35399628    0.51999998    2.78999996
   13.19944477  112.43900299    0.51999998    2.78999996
   13.20527744  112.43900299    0.51999998    2.78999996
   13.20944405  117.05000305    0.50000000    2.78999996
   13.21277714  109.22799683    0.50000000    2.78999996
   13.21583271  108.79599762    0.50000000    2.78999996
   13.21916580  113.47699738    0.51999998    2.78999996
   13.22249985  114.36799622    0.50000000    2.78999996
   13.22305489  108.33999634    0.50000000    2.78999996
   13.22611046  110.02700043    0.50000000    2.78999996
   13.22944355  107.08100128    0.51999998    2.78999996
   13.23249912  117.39299774    0.50000000    2.78999996
   13.23583317  113.45700073    0.51999998    2.78999996
   13.23916721  111.07299805    0.50000000    2.78999996
   13.24222279  114.41000366    0.50000000    2.80999994
   13.24805546  114.41000366    0.50000000    2.78999996
   13.25222206  112.11599731    0.50000000    2.78999996
   13.25555515  108.59500122    0.50000000    2.78999996
   13.25638866  118.17700195    0.50000000    2.78999996
   13.25916672  108.10600281    0.51999998    2.80999994
   13.26249981  117.26200104    0.51999998    2.78999996
   13.26555538  105.08399963    0.51999998    2.76999998
   13.26888847  119.26599884    0.51999998    2.78999996
   13.27222157  139.29699707    0.51999998    2.78999996
   13.27527714  137.47599792    0.52999997    2.78999996
   13.27861118  141.49099731    0.51999998    2.78999996
   13.28194427  141.35899353    0.51999998    2.80999994
   13.28500080  178.20799255    0.51999998    2.78999996
   13.29111195  178.20799255    0.52999997    2.78999996
   13.29527855  167.74299622    0.55000001    2.78999996
   13.29833412  160.65699768    0.55000001    2.80999994
   13.30166721  146.16400146    0.55000001    2.78999996
   13.30472279  167.91999817    0.55000001    2.78999996
   13.30805588  144.63900757    0.55000001    2.78999996
   13.31138897  143.15299988    0.55000001    2.78999996
   13.31444454  156.66600037    0.55000001    2.78999996
   13.31777763  141.02699280    0.52999997    2.80999994
   13.32111073  188.97799683    0.55000001    2.78999996
   13.32305527  183.11399841    0.55000001    2.78999996
   13.32444477  161.17100525    0.52999997    2.78999996
   13.32777786  169.47399902    0.55000001    2.78999996
   13.33388901  169.47399902    0.52999997    2.78999996
   13.33805561  165.03199768    0.52999997    2.78999996
   13.34138870  155.06799316    0.52999997    2.78999996
   13.34444427  167.36300659    0.51999998    2.80999994
   13.34777737  153.49800110    0.52999997    2.78999996
   13.35083389  155.47500610    0.51999998    2.80999994
   13.35416698  127.13300323    0.51999998    2.78999996
   13.35638905  117.85399628    0.51999998    2.78999996
   13.35777855  137.97700500    0.51999998    2.80999994
   13.36111164  160.69400024    0.51999998    2.78999996
   13.36416721  145.23500061    0.51999998    2.80999994
   13.36750031  129.34300232    0.50000000    2.78999996
   13.37083340  123.80799866    0.50000000    2.82999992
   13.37666702  123.80799866    0.50000000    2.80999994
   13.38083363  129.03399658    0.50000000    2.80999994
   13.38416672  127.50800323    0.50000000    2.80999994
   13.38722229  117.74199677    0.50000000    2.80999994
   13.40444374  122.97299957    0.52999997    2.80999994
   13.40749931  118.98300171    0.52999997    2.80999994
   13.41055489  115.86699677    0.52999997    2.80999994
   13.41388893  122.66500092    0.55000001    2.78999996
   13.41972256  122.66500092    0.56999999    2.80999994
   13.53361130   -1.00000000   -1.00000000   -1.00000000
   13.62861156   -1.00000000   -1.00000000   -1.00000000
   13.72749996   -1.00000000   -1.00000000   -1.00000000
   13.75944424   79.18160248    0.44000000    2.84999990
   13.76277733  130.48800659    0.44000000    2.82999992
   13.76611137  118.93699646    0.46000001    2.82999992
   13.76916599  125.39499664    0.44000000    2.82999992
   13.77250004  112.18900299    0.44000000    2.82999992
   13.77583313  106.19100189    0.44000000    2.84999990
   13.77972221  106.19100189    0.44000000    2.82999992
   13.78388977  122.02799988    0.44000000    2.84999990
   13.78722286  118.95500183    0.44000000    2.82999992
   13.79055595  123.36799622    0.44000000    2.82999992
   13.79277802  119.76599884    0.46000001    2.82999992
   13.79416752  113.64499664    0.46000001    2.84999990
   13.79750061  125.71700287    0.46000001    2.84999990
   13.80055618  125.03399658    0.46000001    2.82999992
   13.80388927  122.26000214    0.44000000    2.82999992
   13.80722237  116.00599670    0.44000000    2.82999992
   13.81027794  113.48699951    0.44000000    2.84999990
   13.81361103  127.78900146    0.44000000    2.82999992
   13.81666660  124.42800140    0.44000000    2.82999992
   13.82277775  124.42800140    0.44000000    2.82999992
   13.82694435  120.99600220    0.46000001    2.82999992
   13.82999992  110.46299744    0.46000001    2.82999992
   13.83333302  109.93900299    0.44000000    2.82999992
   13.83638859  106.63099670    0.44000000    2.82999992
   13.83972168  112.59500122    0.47999999    2.82999992
   13.84305477  110.83000183    0.46000001    2.84999990
   13.84611034  115.73799896    0.44000000    2.82999992
   13.84944439  114.08899689    0.44000000    2.82999992
   13.85277843  106.29399872    0.44000000    2.82999992
   13.85583401  106.64399719    0.44000000    2.82999992
   13.85916710  115.56400299    0.44000000    2.84999990
   13.85972214  107.69899750    0.44000000    2.84999990
   13.86555576  107.69899750    0.44000000    2.82999992
   13.86972237  123.02400208    0.44000000    2.82999992
   13.87277794  125.01300049    0.44000000    2.84999990
   13.87611103  117.73999786    0.44000000    2.84999990
   13.87944412  111.26100159    0.44000000    2.84999990
   13.88249969  111.46499634    0.44000000    2.84999990
   13.88583279  115.15299988    0.44000000    2.82999992
   13.88916683  113.26200104    0.46000001    2.82999992
   13.89222240  116.72000122    0.44000000    2.82999992
   13.89305496  110.21499634    0.44000000    2.82999992
   13.89583302  117.66500092    0.44000000    2.82999992
   13.89916611  111.54499817    0.44000000    2.82999992
   13.90249920  113.78500366    0.46000001    2.82999992
   13.90833282  113.78500366    0.46000001    2.84999990
   13.91249943  110.05899811    0.46000001    2.82999992
   13.91583252  114.31199646    0.46000001    2.82999992
   13.91888905  105.19200134    0.44000000    2.84999990
   13.92222214  118.62699890    0.44000000    2.82999992
   13.92555618  117.42800140    0.44000000    2.82999992
   13.92638874  114.45300293    0.44000000    2.82999992
   13.92888927  121.13200378    0.44000000    2.84999990
   13.93222237  125.42099762    0.44000000    2.82999992
   13.93555546  115.61499786    0.44000000    2.82999992
   13.93861103  111.35299683    0.44000000    2.84999990
   13.94194412  117.90100098    0.44000000    2.82999992
   13.94527817  123.20700073    0.44000000    2.84999990
   13.95111084  123.20700073    0.44000000    2.84999990
   13.95527744  129.68400574    0.44000000    2.84999990
   13.95861053  106.54699707    0.44000000    2.84999990
   13.95972157  119.72299957    0.44000000    2.84999990
   13.96222210  115.78700256    0.44000000    2.82999992
   13.96555519  115.00499725    0.46000001    2.82999992
   13.96888828  110.18099976    0.44000000    2.84999990
   13.97194386  121.91000366    0.44000000    2.82999992
   13.97527695  109.06500244    0.44000000    2.82999992
   13.97861099  113.78099823    0.44000000    2.82999992
   13.98166656  116.64199829    0.44000000    2.82999992
   13.98500061  119.98899841    0.41999999    2.84999990
   13.98805618  116.40899658    0.41999999    2.84999990
   13.99416733  116.40899658    0.40000001    2.84999990
   13.99833393  122.40000153    0.40000001    2.82999992
   14.00138855  113.87699890    0.40000001    2.82999992
   14.00472260  109.83899689    0.40000001    2.84999990
   14.00777817  117.49600220    0.40000001    2.86999989
   14.01111126  113.96099854    0.40000001    2.84999990
   14.01444435  115.08000183    0.40000001    2.82999992
   14.01749992  108.60399628    0.41999999    2.84999990
   14.02083302  118.96099854    0.41999999    2.82999992
   14.02416611  114.54699707    0.41999999    2.84999990
   14.02638817  115.19599915    0.41999999    2.82999992
   14.02750015  112.48200226    0.41999999    2.82999992
   14.03083324  120.52999878    0.41999999    2.84999990
   14.03694534  120.52999878    0.41999999    2.82999992
   14.04111195  114.41300201    0.41999999    2.86999989
   14.04416752  109.42600250    0.47999999    2.84999990
   14.04750061  114.37599945    0.51999998    2.84999990
   14.05083370  104.27200317    0.50000000    2.82999992
   14.05388927  104.35900116    0.50000000    2.84999990
   14.05722237  117.15000153    0.58999997    2.84999990
   14.05972195  114.25599670    0.61000001    2.84999990
   14.06111145  107.68599701    0.58999997    2.84999990
   14.06416702  115.13500214    0.55000001    2.84999990
   14.06750011  104.94400024    0.52999997    2.84999990
   14.07055569  107.72000122    0.52999997    2.84999990
   14.07388878  110.77200317    0.52999997    2.84999990
   14.07972240  110.77200317    0.50000000    2.84999990
   14.08388901  112.74400330    0.47999999    2.84999990
   14.08722210  113.97399902    0.47999999    2.84999990
   14.09027767  116.71499634    0.46000001    2.82999992
   14.09305477  119.44999695    0.47999999    2.82999992
   14.09416676  112.83000183    0.47999999    2.82999992
   14.09722233  116.19499969    0.46000001    2.84999990
   14.10055637  113.46700287    0.46000001    2.84999990
   14.10361195  113.45800018    0.44000000    2.84999990
   14.10694504  115.76799774    0.44000000    2.84999990
   14.11027813  106.68099976    0.41999999    2.82999992
   14.11333370  116.15499878    0.44000000    2.84999990
   14.11666679  116.44000244    0.44000000    2.84999990
   14.12250042  116.44000244    0.41999999    2.84999990
   14.12666702  106.49299622    0.41999999    2.82999992
   14.13000011  106.44100189    0.41999999    2.84999990
   14.13333321  111.69899750    0.41999999    2.84999990
   14.13638878  110.55599976    0.40000001    2.84999990
   14.13972187  109.52799988    0.40000001    2.84999990
   14.14277744  109.87699890    0.40000001    2.84999990
   14.14611053  113.23899841    0.40000001    2.84999990
   14.14944458  101.68599701    0.41999999    2.84999990
   14.15249920  107.69400024    0.41999999    2.84999990
   14.15583324  110.88700104    0.41999999    2.84999990
   14.15916634  110.56999969    0.40000001    2.84999990
   14.15972137  117.53099823    0.40000001    2.84999990
   14.16555500  117.53099823    0.40000001    2.84999990
   14.16972256  104.59899902    0.40000001    2.84999990
   14.17277813  113.57299805    0.40000001    2.84999990
   14.17611122  120.47000122    0.40000001    2.86999989
   14.17916679  111.85600281    0.40000001    2.84999990
   14.18249989  111.34300232    0.40000001    2.84999990
   14.18583298  104.66000366    0.40000001    2.86999989
   14.18916702  106.71900177    0.40000001    2.84999990
   14.19222260  116.23600006    0.40000001    2.84999990
   14.19305515  112.93199921    0.40000001    2.84999990
   14.19611073  116.59500122    0.40000001    2.84999990
   14.19916630  112.57499695    0.41999999    2.84999990
   14.20249939  114.73000336    0.41999999    2.84999990
   14.20833302  114.73000336    0.40000001    2.82999992
   14.21249962  116.98899841    0.40000001    2.84999990
   14.21555519  113.32599640    0.40000001    2.84999990
   14.21888828  111.50199890    0.40000001    2.84999990
   14.22222137  111.00199890    0.41999999    2.84999990
   14.22527695  113.24900055    0.41999999    2.84999990
   14.22638798  107.79399872    0.41999999    2.82999992
   14.22916603  118.17400360    0.41999999    2.84999990
   14.23222160  108.06800079    0.41999999    2.82999992
   14.23555565  114.95200348    0.41999999    2.84999990
   14.23861122  117.08899689    0.41999999    2.84999990
   14.24194431  113.96800232    0.41999999    2.84999990
   14.24527836  107.92400360    0.40000001    2.84999990
   14.25111103  107.92400360    0.40000001    2.84999990
   14.25527763  117.73500061    0.40000001    2.84999990
   14.25861073  117.85600281    0.40000001    2.84999990
   14.25972176  116.30000305    0.40000001    2.84999990
   14.26222229  119.17400360    0.40000001    2.84999990
   14.26527786  112.11699677    0.40000001    2.84999990
   14.26861095  116.06800079    0.38000000    2.84999990
   14.27166653  119.80400085    0.40000001    2.86999989
   14.27499962  116.22000122    0.40000001    2.84999990
   14.27833271  113.05899811    0.40000001    2.84999990
   14.28138828  119.10900116    0.40000001    2.84999990
   14.28472233  113.08799744    0.40000001    2.84999990
   14.28805637  107.41300201    0.40000001    2.84999990
   14.29388905  107.41300201    0.40000001    2.86999989
   14.29805565  117.93000031    0.40000001    2.84999990
   14.30138874  109.08000183    0.40000001    2.84999990
   14.30472279  112.74299622    0.40000001    2.84999990
   14.30777836  121.19300079    0.40000001    2.84999990
   14.31111145  120.45800018    0.40000001    2.84999990
   14.31416702  118.49099731    0.40000001    2.84999990
   14.31750011  113.56199646    0.40000001    2.84999990
   14.32083321  113.90000153    0.40000001    2.84999990
   14.32388878  118.12699890    0.40000001    2.84999990
   14.32638836  109.04299927    0.38000000    2.86999989
   14.32777786  117.58200073    0.38000000    2.86999989
   14.33083344  114.08499908    0.40000001    2.84999990
   14.33694458  114.08499908    0.40000001    2.84999990
   14.34083271  115.20999908    0.40000001    2.84999990
   14.34416676  116.88099670    0.40000001    2.84999990
   14.34749985  115.15799713    0.40000001    2.84999990
   14.35055637  120.99800110    0.40000001    2.84999990
   14.35388947  107.20200348    0.40000001    2.86999989
   14.35722256  127.89299774    0.40000001    2.86999989
   14.35972214  113.97599792    0.41999999    2.84999990
   14.36083412  120.37899780    0.41999999    2.84999990
   14.36388969  126.46900177    0.40000001    2.86999989
   14.36722279  117.32299805    0.40000001    2.84999990
   14.37027836  115.89299774    0.40000001    2.84999990
   14.37361145  113.96700287    0.41999999    2.84999990
   14.37972260  113.96700287    0.40000001    2.84999990
   14.38388920  126.78700256    0.40000001    2.86999989
   14.38694477  115.93399811    0.40000001    2.84999990
   14.39027786  117.23799896    0.41999999    2.84999990
   14.39305496  116.87599945    0.40000001    2.84999990
   14.39416695  116.60099792    0.40000001    2.84999990
   14.39722252  116.43900299    0.40000001    2.86999989
   14.40055561  113.34200287    0.40000001    2.84999990
   14.40361118  117.02300262    0.40000001    2.84999990
   14.40694427  119.80200195    0.40000001    2.84999990
   14.41027737  121.68199921    0.41999999    2.86999989
   14.41333294  118.74199677    0.41999999    2.84999990
   14.41666698  120.95800018    0.44000000    2.84999990
   14.42250061  120.95800018    0.44000000    2.84999990
   14.42666721  115.60299683    0.44000000    2.84999990
   14.43000031  116.82599640    0.44000000    2.84999990
   14.43305588  115.55500031    0.44000000    2.86999989
   14.43638897  133.08700562    0.41999999    2.84999990
   14.43972206  132.19099426    0.41999999    2.84999990
   14.44277763  130.21000671    0.41999999    2.84999990
   14.44611073  127.34700012    0.41999999    2.84999990
   14.44944477  116.98500061    0.40000001    2.84999990
   14.45249939  128.56300354    0.40000001    2.86999989
   14.45583344  131.92399597    0.41999999    2.84999990
   14.45888901  143.65299988    0.41999999    2.84999990
   14.45972157  129.97000122    0.41999999    2.84999990
   14.46527767  129.97000122    0.41999999    2.84999990
   14.46944427  135.95700073    0.44000000    2.84999990
   14.47277737  137.36000061    0.40000001    2.84999990
   14.47583294  130.19099426    0.41999999    2.86999989
   14.47916603  122.93900299    0.41999999    2.84999990
   14.48249912  127.46900177    0.41999999    2.84999990
   14.48555565  117.77500153    0.41999999    2.84999990
   14.48888874  121.30400085    0.44000000    2.84999990
   14.49222279  122.69699860    0.44000000    2.84999990
   14.49305534  113.47000122    0.44000000    2.84999990
   14.49583340  120.29100037    0.44000000    2.84999990
   14.49888897  122.54799652    0.41999999    2.84999990
   14.50222206  130.37699890    0.41999999    2.84999990
   14.50833321  130.37699890    0.41999999    2.84999990
   14.51222229  130.19400024    0.40000001    2.84999990
   14.51555538  132.57600403    0.41999999    2.84999990
   14.51888847  126.45700073    0.40000001    2.84999990
   14.52194405  130.18200684    0.41999999    2.84999990
   14.52527714  124.73699951    0.41999999    2.84999990
   14.52638817  127.53500366    0.41999999    2.86999989
   14.52888870  127.04299927    0.41999999    2.84999990
   14.53194427  127.24199677    0.41999999    2.84999990
   14.53527832  120.15000153    0.44000000    2.84999990
   14.53861141  119.19000244    0.44000000    2.86999989
   14.54166698  124.94699860    0.44000000    2.84999990
   14.54500008  110.82399750    0.58999997    2.86999989
   14.55111122  110.82399750    0.52999997    2.86999989
   14.55527782  121.94200134    0.47999999    2.84999990
   14.55833340  119.81600189    0.46000001    2.86999989
   14.55972195  123.69100189    0.47999999    2.84999990
   14.56222248  120.53800201    0.47999999    2.84999990
   14.56527805  129.02699280    0.44000000    2.86999989
   14.56861115  122.03900146    0.40000001    2.86999989
   14.57194424  116.30500031    0.40000001    2.86999989
   14.57499981  117.91999817    0.40000001    2.84999990
   14.57833290  118.29799652    0.46000001    2.86999989
   14.58138847  111.00299835    0.47999999    2.84999990
   14.58472157  116.59500122    0.47999999    2.84999990
   14.58805561  120.49199677    0.50000000    2.84999990
   14.59388828  120.49199677    0.50000000    2.84999990
   14.59805489  123.78900146    0.44000000    2.84999990
   14.60138893  116.00700378    0.44000000    2.84999990
   14.60444450  116.44200134    0.41999999    2.84999990
   14.60777855  120.90000153    0.41999999    2.84999990
   14.61083412  119.86599731    0.44000000    2.86999989
   14.61416721  120.38099670    0.41999999    2.84999990
   14.61750031  110.91100311    0.41999999    2.84999990
   14.62055588  123.72599792    0.40000001    2.86999989
   14.62388897  126.58300018    0.40000001    2.84999990
   14.62638855  121.67800140    0.40000001    2.84999990
   14.62750053  124.36299896    0.40000001    2.84999990
   14.63055611  117.19699860    0.41999999    2.84999990
   14.63666630  117.19699860    0.41999999    2.84999990
   14.64083290  119.11599731    0.41999999    2.84999990
   14.64416695  122.17400360    0.41999999    2.86999989
   14.64722252  121.17800140    0.41999999    2.86999989
   14.65055561  127.02400208    0.44000000    2.84999990
   14.65388870  117.06800079    0.46000001    2.84999990
   14.65694427  116.01599884    0.47999999    2.84999990
   14.65972137  115.15799713    0.55000001    2.84999990
   14.66083336  117.83699799    0.52999997    2.86999989
   14.66388893  114.74199677    0.46000001    2.84999990
   14.66722298  116.28099823    0.44000000    2.84999990
   14.67055607  113.88300323    0.44000000    2.84999990
   14.67388916  117.01200104    0.44000000    2.84999990
   14.67972279  117.01200104    0.41999999    2.86999989
   14.68361092  130.12500000    0.41999999    2.86999989
   14.68694496  122.44799805    0.41999999    2.84999990
   14.69027805  117.62999725    0.44000000    2.86999989
   14.69305515  113.48400116    0.41999999    2.84999990
   14.69388866  121.42099762    0.44000000    2.84999990
   14.69694424  127.95500183    0.41999999    2.86999989
   14.70027733  123.17400360    0.41999999    2.84999990
   14.70361137  122.66400146    0.41999999    2.84999990
   14.70666695  113.16000366    0.41999999    2.84999990
   14.71000004  119.02600098    0.41999999    2.86999989
   14.71333313  119.35600281    0.41999999    2.86999989
   14.71638870  117.53500366    0.44000000    2.86999989
   14.72249985  117.53500366    0.44000000    2.86999989
   14.72666645  125.93099976    0.44000000    2.86999989
   14.72972202  119.93299866    0.44000000    2.84999990
   14.73305511  117.65200043    0.44000000    2.84999990
   14.73638916  122.42299652    0.46000001    2.86999989
   14.73944473  123.90699768    0.44000000    2.84999990
   14.74277782  123.37200165    0.46000001    2.86999989
   14.74583340  124.90299988    0.46000001    2.86999989
   14.74916649  118.37400055    0.46000001    2.86999989
   14.75249958  116.02700043    0.46000001    2.86999989
   14.75555515  110.68499756    0.46000001    2.84999990
   14.75888920  117.54399872    0.46000001    2.86999989
   14.75972176  121.30599976    0.46000001    2.86999989
   14.78055573  121.30599976    0.41999999    2.84999990
   14.78472233  124.17199707    0.41999999    2.86999989
   14.78777790  112.46299744    0.41999999    2.86999989
   14.79111195  114.62599945    0.44000000    2.84999990
   14.79305553  119.22299957    0.44000000    2.84999990
   14.79472256  109.87500000    0.44000000    2.86999989
   14.79777813  125.52999878    0.44000000    2.86999989
   14.80111122  121.44499969    0.41999999    2.86999989
   14.80444431  120.88700104    0.52999997    2.86999989
   14.80749989  125.36100006    0.47999999    2.86999989
   14.81083393  133.86000061    0.50000000    2.84999990
   14.81416702  113.49600220    0.47999999    2.84999990
   14.81722260  130.78599548    0.52999997    2.84999990
   14.82333374  130.78599548    0.46000001    2.86999989
   14.82750034  123.65699768    0.46000001    2.84999990
   14.83055592  117.79799652    0.46000001    2.86999989
   14.83388901  121.20200348    0.47999999    2.84999990
   14.83694458  115.51899719    0.47999999    2.86999989
   14.84027767  126.69200134    0.50000000    2.86999989
   14.84361076  113.85600281    0.52999997    2.86999989
   14.84666634  122.62400055    0.51999998    2.86999989
   14.85000038  124.43199921    0.47999999    2.86999989
   14.85333347  124.30400085    0.46000001    2.86999989
   14.85638905  122.25299835    0.46000001    2.86999989
   14.85972214  113.26300049    0.46000001    2.84999990
   14.86027813  115.27200317    0.46000001    2.84999990
   14.86611176  115.27200317    0.46000001    2.86999989
   14.87027836  124.67099762    0.46000001    2.86999989
   14.87333393  129.96099854    0.44000000    2.84999990
   14.87666702  124.86000061    0.44000000    2.86999989
   14.88000011  115.48000336    0.44000000    2.84999990
   14.88305569  120.00000000    0.44000000    2.86999989
   14.88638878  123.03800201    0.44000000    2.86999989
   14.88972187  121.76999664    0.44000000    2.86999989
   14.89277744  120.57499695    0.41999999    2.86999989
   14.89361095  119.98400116    0.41999999    2.86999989
   14.89638901  121.76200104    0.41999999    2.86999989
   14.89972210  121.65399933    0.41999999    2.84999990
   14.90305519  114.97899628    0.41999999    2.84999990
   14.90888882  114.97899628    0.41999999    2.84999990
   14.91305542  135.64999390    0.41999999    2.86999989
   14.91638851  125.41200256    0.41999999    2.84999990
   14.91944504  122.50499725    0.44000000    2.86999989
   14.92277813  124.46399689    0.44000000    2.86999989
   14.92611122  131.24600220    0.44000000    2.86999989
   14.92694473  113.70400238    0.44000000    2.86999989
   14.92944431  117.08799744    0.44000000    2.86999989
   14.93277836  130.90899658    0.44000000    2.84999990
   14.93611145  131.80599976    0.44000000    2.84999990
   14.93916702  119.72499847    0.44000000    2.86999989
   14.94250011  131.31399536    0.44000000    2.86999989
   14.94583321  120.81400299    0.44000000    2.86999989
   14.95166683  120.81400299    0.46000001    2.84999990
   14.95583344  121.87100220    0.44000000    2.86999989
   14.95916653  125.86799622    0.46000001    2.84999990
   14.96027756  128.41799927    0.46000001    2.84999990
   14.96277714  134.23899841    0.46000001    2.86999989
   14.96611118  120.74099731    0.46000001    2.86999989
   14.96944427  120.60600281    0.46000001    2.84999990
   14.97249985  115.13300323    0.46000001    2.86999989
   14.97583294  115.93599701    0.46000001    2.84999990
   14.97916603  122.73699951    0.46000001    2.86999989
   14.98222160  117.99800110    0.46000001    2.84999990
   14.98555565  126.72399902    0.46000001    2.86999989
   14.98861122  121.95099640    0.46000001    2.86999989
   14.99472237  121.95099640    0.46000001    2.84999990
   14.99888897  126.49400330    0.46000001    2.86999989
   15.00194454  122.35600281    0.46000001    2.86999989
   15.00527763  133.39199829    0.46000001    2.86999989
   15.00833321  131.43600464    0.46000001    2.86999989
   15.01166630  137.29899597    0.46000001    2.86999989
   15.01500034  128.55999756    0.44000000    2.86999989
   15.01805496  134.42900085    0.46000001    2.86999989
   15.02138901  123.86599731    0.46000001    2.86999989
   15.02472210  133.36199951    0.46000001    2.86999989
   15.02694416  121.41300201    0.46000001    2.86999989
   15.02805519  111.84799957    0.46000001    2.86999989
   15.03138828  130.59800720    0.46000001    2.86999989
   15.03750038  130.59800720    0.44000000    2.86999989
   15.04166698  126.23500061    0.44000000    2.86999989
   15.04472256  129.98199463    0.44000000    2.86999989
   15.04805565  116.49500275    0.44000000    2.86999989
   15.05138874  137.02699280    0.44000000    2.86999989
   15.05444431  129.74200439    0.44000000    2.86999989
   15.05777836  152.58500671    0.44000000    2.86999989
   15.06027794  136.63499451    0.44000000    2.89000010
   15.06111145  129.40299988    0.44000000    2.89000010
   15.06444454  148.58599854    0.44000000    2.86999989
   15.06777763  120.19000244    0.44000000    2.86999989
   15.07083321  137.88699341    0.41999999    2.86999989
   15.07416630  134.47300720    0.44000000    2.86999989
   15.08027744  134.47300720    0.41999999    2.86999989
   15.08444405  123.08699799    0.41999999    2.86999989
   15.08777714  123.39499664    0.44000000    2.86999989
   15.09083271  116.61000061    0.44000000    2.86999989
   15.09361076  129.23399353    0.44000000    2.86999989
   15.09444427  128.38000488    0.44000000    2.84999990
   15.09777737  127.88999939    0.46000001    2.86999989
   15.10111141  120.80100250    0.46000001    2.86999989
   15.10416698  122.65699768    0.46000001    2.86999989
   15.10750008  131.08900452    0.46000001    2.86999989
   15.11083412  126.83100128    0.46000001    2.86999989
   15.11388969  138.17100525    0.46000001    2.89000010
   15.11722279  121.03099823    0.46000001    2.86999989
   15.12305546  121.03099823    0.44000000    2.86999989
   15.12722206  119.78600311    0.44000000    2.86999989
   15.13055611  126.38600159    0.41999999    2.86999989
   15.13361073  129.31399536    0.41999999    2.86999989
   15.13694477  126.75599670    0.41999999    2.89000010
   15.14027786  136.14199829    0.41999999    2.89000010
   15.14333344  128.61700439    0.41999999    2.89000010
   15.14666653  128.77600098    0.44000000    2.89000010
   15.14999962  120.67199707    0.44000000    2.86999989
   15.15305519  125.30500031    0.41999999    2.86999989
   15.15638828  124.70099640    0.41999999    2.86999989
   15.15944386  114.49199677    0.41999999    2.86999989
   15.16027737  126.86900330    0.41999999    2.86999989
   15.16611099  126.86900330    0.41999999    2.86999989
   15.17027855  114.42199707    0.41999999    2.89000010
   15.17361164  130.01300049    0.41999999    2.86999989
   15.17666721  132.22900391    0.41999999    2.89000010
   15.18000031  134.31599426    0.44000000    2.89000010
   15.18333340  123.69100189    0.41999999    2.89000010
   15.18638897  119.50199890    0.41999999    2.86999989
   15.18972206  130.89199829    0.41999999    2.86999989
   15.19277763  121.60500336    0.44000000    2.86999989
   15.19361115  129.56300354    0.44000000    2.86999989
   15.19666672  123.57599640    0.41999999    2.86999989
   15.19972229  121.37799835    0.44000000    2.86999989
   15.20305538  109.39199829    0.44000000    2.89000010
   15.20888901  109.39199829    0.44000000    2.86999989
   15.21305561  118.99700165    0.44000000    2.86999989
   15.21611118  124.36799622    0.44000000    2.86999989
   15.21944427  123.52200317    0.44000000    2.86999989
   15.22277737  116.44400024    0.41999999    2.86999989
   15.22583294  117.43199921    0.44000000    2.86999989
   15.22694397  119.86100006    0.41999999    2.89000010
   15.22972202  121.42700195    0.41999999    2.86999989
   15.23277760  126.81099701    0.44000000    2.89000010
   15.23611164  121.91000366    0.41999999    2.89000010
   15.23916721  128.47200012    0.41999999    2.86999989
   15.24250031  117.81999969    0.41999999    2.89000010
   15.24583340  118.03099823    0.41999999    2.89000010
   15.25166702  118.03099823    0.41999999    2.86999989
   15.25583363  119.46499634    0.44000000    2.89000010
   15.25916672  120.48799896    0.44000000    2.86999989
   15.26027775  121.34799957    0.44000000    2.86999989
   15.26277733  116.69100189    0.44000000    2.86999989
   15.26583290  120.38300323    0.44000000    2.86999989
   15.26916599  105.37000275    0.44000000    2.89000010
   15.27222157  100.75700378    0.44000000    2.86999989
   15.27555561  113.51000214    0.44000000    2.86999989
   15.27888870  108.77600098    0.44000000    2.89000010
   15.28222179  116.21900177    0.44000000    2.89000010
   15.28527832  117.03800201    0.44000000    2.86999989
   15.28861141  108.71099854    0.46000001    2.89000010
   15.29444504  108.71099854    0.46000001    2.89000010
   15.29861164  118.40299988    0.46000001    2.89000010
   15.30194473  120.18199921    0.44000000    2.86999989
   15.30500031  120.13899994    0.46000001    2.86999989
   15.30833340  116.76599884    0.44000000    2.86999989
   15.31166649   97.97229767    0.46000001    2.86999989
   15.31472206  118.59999847    0.46000001    2.86999989
   15.31805515  106.49299622    0.46000001    2.86999989
   15.32138920  116.40399933    0.46000001    2.89000010
   15.32444477  112.88700104    0.46000001    2.86999989
   15.32694435  111.46199799    0.46000001    2.86999989
   15.32833290  110.22499847    0.46000001    2.86999989
   15.33138847  131.42399597    0.46000001    2.89000010
   15.33749962  131.42399597    0.46000001    2.86999989
   15.34138870  111.80400085    0.46000001    2.86999989
   15.34472179  117.14499664    0.47999999    2.86999989
   15.34805489  123.32499695    0.50000000    2.86999989
   15.35111141  119.74600220    0.50000000    2.89000010
   15.35444450  127.27100372    0.47999999    2.89000010
   15.35777855  121.96700287    0.47999999    2.86999989
   15.36027813  117.97200012    0.47999999    2.89000010
   15.36138916  120.68099976    0.47999999    2.89000010
   15.36444473  115.30699921    0.47999999    2.86999989
   15.36777782  105.14600372    0.46000001    2.86999989
   15.37111092  113.74199677    0.46000001    2.86999989
   15.37416649  114.93299866    0.46000001    2.86999989
   15.38027763  114.93299866    0.46000001    2.86999989
   15.38444424  120.54599762    0.47999999    2.86999989
   15.38749981  106.75800323    0.47999999    2.86999989
   15.39083290  119.91100311    0.70999998    2.89000010
   15.39361095  122.62599945    0.50000000    2.86999989
   15.39444447  117.70500183    0.47999999    2.89000010
   15.39750004  114.62400055    0.46000001    2.89000010
   15.40083313  117.12500000    0.46000001    2.86999989
   15.40388870  119.84899902    0.46000001    2.86999989
   15.40722179  123.88600159    0.47999999    2.86999989
   15.41055489  122.12400055    0.46000001    2.86999989
   15.41361046  120.18800354    0.46000001    2.89000010
   15.41694450  122.26999664    0.46000001    2.86999989
   15.42305565  122.26999664    0.46000001    2.89000010
   15.42722225  120.28199768    0.46000001    2.89000010
   15.43055630  108.50599670    0.46000001    2.86999989
   15.43361092  120.35800171    0.46000001    2.89000010
   15.43694496  118.11199951    0.47999999    2.86999989
   15.44027805  112.99800110    0.47999999    2.86999989
   15.44333363  120.75099945    0.46000001    2.86999989
   15.44666672  123.90000153    0.46000001    2.89000010
   15.44972229  118.82099915    0.46000001    2.89000010
   15.45305538  119.72399902    0.46000001    2.89000010
   15.45638847  118.39900208    0.46000001    2.86999989
   15.45944405  117.68900299    0.46000001    2.91000009
   15.46027756  112.43399811    0.47999999    2.86999989
   15.46583271  112.43399811    0.47999999    2.86999989
   15.46999931  109.47100067    0.47999999    2.89000010
   15.47333336  113.05000305    0.47999999    2.89000010
   15.47638798  120.84999847    0.47999999    2.86999989
   15.47972202  126.75199890    0.46000001    2.86999989
   15.48305511  111.59300232    0.47999999    2.89000010
   15.48611164  115.96099854    0.47999999    2.89000010
   15.48944473  127.24900055    0.47999999    2.86999989
   15.49277782  107.52899933    0.47999999    2.89000010
   15.49361134  119.57499695    0.47999999    2.89000010
   15.49638939  110.12500000    0.47999999    2.89000010
   15.49944496  111.52700043    0.47999999    2.89000010
   15.50277805  110.61299896    0.47999999    2.86999989
   15.50888920  110.61299896    0.47999999    2.89000010
   15.51277733  110.95899963    0.47999999    2.89000010
   15.51611137  113.03800201    0.50000000    2.86999989
   15.51944447  125.11599731    0.51999998    2.89000010
   15.52250004  109.57199860    0.52999997    2.89000010
   15.52583313  112.88400269    0.47999999    2.86999989
   15.52694416  112.59300232    0.47999999    2.89000010
   15.52944374  116.79000092    0.47999999    2.89000010
   15.53249931  117.03800201    0.47999999    2.89000010
   15.53583336   99.83689880    0.47999999    2.89000010
   15.53888893  116.10399628    0.50000000    2.89000010
   15.54222298  113.46199799    0.51999998    2.86999989
   15.54555607  120.08899689    0.51999998    2.89000010
   15.55166721  120.08899689    0.47999999    2.86999989
   15.55583382  118.48300171    0.47999999    2.86999989
   15.55888939  104.36699677    0.47999999    2.89000010
   15.56027794  121.82900238    0.47999999    2.89000010
   15.56277752  126.34700012    0.47999999    2.86999989
   15.56583309  112.22100067    0.47999999    2.86999989
   15.56916618  117.49099731    0.46000001    2.89000010
   15.57250023  113.15499878    0.47999999    2.89000010
   15.57555580  115.33000183    0.47999999    2.89000010
   15.57888889  128.47399902    0.46000001    2.89000010
   15.58194447  110.24800110    0.46000001    2.89000010
   15.58527756  112.70400238    0.46000001    2.89000010
   15.58861065  114.14900208    0.47999999    2.86999989
   15.59444427  114.14900208    0.47999999    2.89000010
   15.59861088  108.64299774    0.52999997    2.89000010
   15.60194492  106.16500092    0.52999997    2.89000010
   15.60500050  110.80699921    0.50000000    2.89000010
   15.60833359  112.16999817    0.51999998    2.89000010
   15.61166668  112.44400024    0.47999999    2.89000010
   15.61472225  111.76100159    0.47999999    2.89000010
   15.61805534  111.85700226    0.52999997    2.86999989
   15.62111092  110.84999847    0.55000001    2.89000010
   15.62444496  110.29699707    0.50000000    2.89000010
   15.62694454  113.82199860    0.47999999    2.89000010
   15.62805557  122.83100128    0.47999999    2.89000010
   15.63111115  109.42700195    0.46000001    2.86999989
   15.63722229  109.42700195    0.46000001    2.89000010
   15.64138889  117.74700165    0.47999999    2.89000010
   15.64472198  121.71299744    0.51999998    2.86999989
   15.64777756  119.74099731    0.50000000    2.89000010
   15.65111065  119.19100189    0.46000001    2.86999989
   15.65444374  123.33999634    0.47999999    2.89000010
   15.65749931  116.16899872    0.46000001    2.89000010
   15.66027737  124.33799744    0.46000001    2.89000010
   15.66138840  121.04900360    0.46000001    2.89000010
   15.66444397  113.95500183    0.46000001    2.89000010
   15.66777802  117.37500000    0.46000001    2.89000010
   15.67111111  121.49700165    0.47999999    2.89000010
   15.67416668  120.52400208    0.50000000    2.89000010
   15.68027782  120.52400208    0.50000000    2.86999989
   15.68416691  123.32599640    0.50000000    2.89000010
   15.68750000  122.09300232    0.50000000    2.89000010
   15.69083309  122.83300018    0.51999998    2.89000010
   15.69361115  125.37699890    0.51999998    2.86999989
   15.69444466  120.86799622    0.51999998    2.86999989
   15.69750023  118.18399811    0.51999998    2.89000010
   15.70083332  115.72699738    0.51999998    2.89000010
   15.70416641  120.15699768    0.51999998    2.89000010
   15.70722198  124.84500122    0.52999997    2.89000010
   15.71055508  108.31900024    0.55000001    2.91000009
   15.71388912  107.24700165    0.61000001    2.89000010
   15.71694374  113.06700134    0.63000000    2.86999989
   15.72305489  113.06700134    0.64999998    2.86999989
   15.72722149  112.71800232    0.67000002    2.89000010
   15.73027706  116.25700378    0.55000001    2.89000010
   15.73361111  111.23000336    0.55000001    2.89000010
   15.73666668  119.83799744    0.55000001    2.89000010
   15.74000072  120.04900360    0.56999999    2.89000010
   15.74333382  117.89499664    0.58999997    2.86999989
   15.74638939  115.25499725    0.56999999    2.89000010
   15.74972248  120.98200226    0.55000001    2.91000009
   15.75305557  115.67700195    0.52999997    2.89000010
   15.75611115  118.10199738    0.52999997    2.89000010
   15.75944424  102.53099823    0.52999997    2.89000010
   15.76027775  116.51699829    0.76999998    2.89000010
   15.76583290  116.51699829    1.66999996    2.89000010
   15.76999950  108.94499969    1.85000002    2.89000010
   15.77305508  110.52500153    1.23000002    2.86999989
   15.77638817  116.20800018    1.03999996    2.89000010
   15.79416752  119.23000336    4.90999985    2.93000007
   15.79638958  113.07900238    0.56999999    2.91000009
   15.79972267  117.18299866    0.52999997    2.89000010
   15.80277824  113.71099854    0.52999997    2.89000010
   15.80888939  113.71099854    0.51999998    2.86999989
   15.81305599  117.77600098    0.52999997    2.89000010
   15.81611156  119.42900085    0.52999997    2.86999989
   15.81944466  115.13500214    0.51999998    2.89000010
   15.82277775  113.27400208    0.50000000    2.89000010
   15.82583332  113.94699860    0.50000000    2.89000010
   15.82722187  115.93399811    0.50000000    2.86999989
   15.82972240  105.69400024    0.50000000    2.89000010
   15.83277798  118.68299866    0.50000000    2.89000010
   15.83611107  123.80799866    0.50000000    2.89000010
   15.83944416  107.40100098    0.47999999    2.89000010
   15.84249973  109.24600220    0.50000000    2.89000010
   15.84583282  108.33000183    0.47999999    2.89000010
   15.85166740  108.33000183    0.50000000    2.89000010
   15.85583401  115.65100098    0.50000000    2.89000010
   15.85916710  115.31700134    0.50000000    2.86999989
   15.86055565  115.51899719    0.47999999    2.89000010
   15.86277771  110.11000061    0.47999999    2.86999989
   15.86611176  116.43699646    0.50000000    2.89000010
   15.86916637  117.97399902    0.50000000    2.86999989
   15.87250042  109.95700073    0.51999998    2.86999989
   15.87555599  118.79699707    0.51999998    2.89000010
   15.87888908  104.46399689    0.51999998    2.89000010
   15.88222218  109.67500305    0.51999998    2.89000010
   15.88527775  108.80400085    0.52999997    2.89000010
   15.88861084  119.42500305    0.52999997    2.89000010
   15.89444447  119.42500305    0.52999997    2.89000010
   15.89861107  120.66300201    0.52999997    2.89000010
   15.90194416  111.76799774    0.51999998    2.89000010
   15.90499973  107.58000183    0.52999997    2.89000010
   15.90833282  112.46600342    0.51999998    2.89000010
   15.91166592  109.01899719    0.51999998    2.89000010
   15.91472149  111.40299988    0.51999998    2.86999989
   15.91805553  114.94799805    0.51999998    2.91000009
   15.92138958  113.97299957    0.52999997    2.89000010
   15.92444515  112.69699860    0.52999997    2.89000010
   15.92722225  102.92700195    0.52999997    2.89000010
   15.92805576  110.94799805    0.52999997    2.89000010
   15.93111134  110.88700104    0.52999997    2.89000010
   15.93750000  110.88700104    0.50000000    2.86999989
   15.94138908  105.11599731    0.50000000    2.89000010
   15.94472218  113.37000275    0.50000000    2.89000010
   15.94805527  109.65699768    0.47999999    2.89000010
   15.95111084  111.98699951    0.47999999    2.89000010
   15.95444393  115.62500000    0.47999999    2.89000010
   15.95777798  109.10099792    0.47999999    2.86999989
   15.96055508  109.04000092    0.47999999    2.89000010
   15.96138859  109.39600372    0.47999999    2.89000010
   15.96444416  111.14900208    0.47999999    2.86999989
   15.96777725  113.45800018    0.47999999    2.89000010
   15.97111034  120.66100311    0.50000000    2.86999989
   15.97416592  120.13899994    0.50000000    2.89000010
   15.98027706  120.13899994    0.50000000    2.89000010
   15.98444462  105.98699951    0.52999997    2.89000010
   15.98750019  102.69000244    0.92000002    2.86999989
   15.99083328  116.36699677    1.36000001    2.86999989
   15.99388885  113.88800049    3.30999994    2.86999989
   15.99444485  107.78099823    3.57999992    2.84999990
   15.99750042  110.84500122    3.36999989    2.89000010
   16.00083351  112.85299683    1.66999996    2.84999990
   16.00416756  115.35199738    1.89999998    2.86999989
   16.00722313  102.94499969    1.91999996    2.84999990
   16.01055527  117.71399689    2.00000000    2.84999990
   16.01388931  100.86399841    1.85000002    2.86999989
   16.01694489  108.95200348    1.03999996    2.86999989
   16.02305603  108.95200348    1.28999996    2.89000010
   16.02722168  115.62100220    1.91999996    2.86999989
   16.02777672  112.50900269    1.98000002    2.86999989
   16.03083229  118.38800049    3.25000000    2.84999990
   16.03416634  112.83699799    2.76999998    2.86999989
   16.03750038  107.77999878    3.30999994    2.84999990
   16.04055595  112.15899658    2.91000009    2.80999994
   16.04388809  109.95899963    2.75000000    2.84999990
   16.04722214  110.45800018    2.66000009    2.84999990
   16.05027771  107.37599945    2.11999989    2.84999990
   16.05360985  116.16699982    2.34999990    2.86999989
   16.05694389  104.35600281    4.90999985    2.89000010
   16.05999947   -1.00000000    4.90999985    2.78999996
   16.07000160  129.15199280    4.90999985    2.66000009
   16.07333374  187.22599792    4.90999985    2.91000009
   16.07638931  114.37699890    4.90999985    2.25000000
   16.07972336  107.66600037    4.90999985    2.94000006
   16.08277893   -1.00000000    4.90999985    2.03999996
   16.08611107  113.06800079    4.90999985    2.13000011
   16.08944511   -1.00000000    4.90999985    3.00000000
   16.09250069   -1.00000000    4.90999985    1.55999994
   16.09388924  102.41000366    4.90999985    0.94000000
   16.09611130  156.31799316    4.90999985    2.21000004
   16.09944534  283.03500366    4.90999985    2.51999998
   16.10250092  110.47399902    4.90999985    2.11999989
   16.10888863  110.47399902    0.64999998    2.89000010
   16.11305618  112.10299683    0.58999997    2.86999989
   16.11611176  115.17400360    0.56999999    2.86999989
   16.11944389  120.80400085    0.52999997    2.86999989
   16.12249947  121.44699860    0.52999997    2.89000010
   16.12583351  113.81500244    0.52999997    2.89000010
   16.12722206  119.00299835    0.55000001    2.89000010
   16.12944412  111.89700317    0.56999999    2.89000010
   16.13277817  101.87100220    0.58999997    2.89000010
   16.13583374  114.50000000    0.81999999    2.86999989
   16.13916588  121.34999847    1.01999998    2.86999989
   16.14249992  120.27400208    1.05999994    2.89000010
   16.14555550  115.28099823    1.78999996    2.86999989
   16.15166664  115.28099823    2.07999992    2.84999990
   16.15583229  115.96299744    3.01999998    2.84999990
   16.15888786  131.87199402    4.90999985    2.69000006
   16.16055489  130.66499329    4.90999985    2.59999990
   16.16277695  149.54200745    4.90999985    2.46000004
   16.16611099  170.25599670    4.90999985    2.64000010
   16.16916656  222.92399597    4.90999985    2.21000004
   16.17249870  148.69999695    4.90999985    2.28999996
   16.17583275  230.52099609    4.90999985    2.36999989
   16.17888832  127.23799896    4.90999985    2.42000008
   16.18222237  124.58899689    4.90999985    2.78999996
   16.18527603  127.06700134    4.90999985    2.73000002
   16.18861008  116.22399902    4.90999985    2.75000000
   16.19444275  116.22399902    4.90999985    2.82999992
   16.19861031  114.69899750    3.05999994    2.84999990
   16.20194435  115.32599640    2.30999994    2.86999989
   16.20499992  106.29599762    1.13000000    2.86999989
   16.20833397  104.58599854    0.86000001    2.86999989
   16.21138954  111.80200195    0.73000002    2.86999989
   16.21472359  111.38099670    0.67000002    2.86999989
   16.21805573  108.00499725    0.67000002    2.86999989
   16.22111130  111.38800049    0.63000000    2.89000010
   16.22444534  119.18399811    0.64999998    2.89000010
   16.22722244  111.40000153    0.64999998    2.89000010
   16.22805595  113.29900360    0.64999998    2.89000010
   16.23139000  101.31300354    0.63000000    2.86999989
   16.23722267  101.31300354    0.61000001    2.86999989
   16.24138832  119.31600189    0.56999999    2.89000010
   16.24472237  119.82599640    0.56999999    2.91000009
   16.24777794  105.68000031    0.55000001    2.89000010
   16.25111198  122.10299683    0.55000001    2.89000010
   16.25444412  121.32700348    0.55000001    2.89000010
   16.25749969  108.82599640    0.55000001    2.89000010
   16.26055527  101.53800201    0.56999999    2.89000010
   16.26111031  104.78800201    0.55000001    2.89000010
   16.26444435  113.34100342    0.56999999    2.86999989
   16.26749992  103.13500214    0.56999999    2.86999989
   16.27083397  114.19599915    0.55000001    2.89000010
   16.27388954  106.25499725    0.55000001    2.91000009
   16.28027725  106.25499725    0.55000001    2.89000010
   16.28444481  113.71299744    0.55000001    2.89000010
   16.28750038  112.98999786    0.55000001    2.86999989
   16.29083252  105.96800232    0.55000001    2.86999989
   16.29388809  105.44899750    0.55000001    2.89000010
   16.29444313  108.13700104    0.55000001    2.89000010
   16.29777718  104.83799744    0.55000001    2.89000010
   16.30083275  118.29599762    0.55000001    2.89000010
   16.30416679  114.97000122    0.55000001    2.89000010
   16.30749893  120.67700195    0.55000001    2.86999989
   16.31055450  121.78199768    0.55000001    2.89000010
   16.31388855  112.95999908    0.55000001    2.91000009
   16.31694603  120.04299927    0.58999997    2.86999989
   16.32305717  120.04299927    2.09999990    2.82999992
   16.32722282  117.96199799    2.71000004    2.86999989
   16.32777786  114.52799988    2.71000004    2.86999989
   16.33083344  121.78800201    2.69000006    2.84999990
   16.33416748  124.76699829    4.32999992    2.76999998
   16.33750153  110.45300293    4.15999985    2.80999994
   16.34055710  125.96900177    4.09999990    2.82999992
   16.34388924  125.50599670    4.59999990    2.75000000
   16.34694481  115.12599945    4.90999985    2.75000000
   16.35027885  121.20200348    4.90999985    2.73000002
   16.35361099   94.98880005    4.90999985    2.67000008
   16.35666656  109.49800110    4.90999985    2.66000009
   16.36000061  115.83699799    4.90999985    2.78999996
   16.36111069  117.57599640    4.90999985    2.78999996
   16.36583328  117.57599640    4.90999985    2.17000008
   16.37000084  109.04499817    4.90999985    2.11999989
   16.37333298  115.46399689    4.90999985    2.78999996
   16.37638855  126.49900055    4.90999985    2.51999998
   16.37972260  140.18800354    4.90999985    2.53999996
   16.38277817  121.73899841    4.90999985    2.50000000
   16.38611031  115.86599731    4.90999985    2.53999996
   16.38944435  120.83599854    4.90999985    2.78999996
   16.39249992  111.31999969    4.90999985    2.50000000
   16.39444351   82.29399872    4.90999985    2.89000010
   16.39611053  114.93099976    2.61999989    2.67000008
   16.39944458   95.12020111    4.90999985    2.36999989
   16.40277672   -1.00000000    4.90999985    1.51999998
   16.40861130   -1.00000000    4.90999985    2.94000006
   16.41277695  107.85199738    1.16999996    2.89000010
   16.41611099  101.02500153    0.70999998    2.89000010
   16.41916656  106.61799622    0.67000002    2.89000010
   16.42249870  109.12400055    0.67000002    2.91000009
   16.42583275  108.66100311    0.86000001    2.91000009
   16.42777634  102.57499695    1.11000001    2.91000009
   16.42916679  109.77999878    4.28999996    2.93000007
   16.43249893  156.07200623    4.90999985    3.00000000
   16.43583298   -1.00000000    4.90999985    1.03999996
   16.43888855   -1.00000000    4.90999985    1.34000003
   16.44222069  188.46499634    4.90999985    1.51999998
   16.44527626  100.25900269    4.90999985    2.21000004
   16.45166779  100.25900269    4.90999985    2.28999996
   16.45583344  105.12200165    4.90999985    2.82999992
   16.45888901   -1.00000000    4.90999985    1.71000004
   16.46111107  128.82699585    4.90999985    1.78999996
   16.46250153  143.03799438    4.90999985    2.48000002
   16.46583366   -1.00000000    4.90999985    2.46000004
   16.46916771   -1.00000000    4.90999985    0.31999999
   16.47222328   -1.00000000    4.90999985    0.46000001
   16.47555542   -1.00000000    4.90999985    0.55000001
   16.47888947   -1.00000000    4.90999985    0.50000000
   16.48194504   89.31809998    4.90999985    0.52999997
   16.48527718  113.86900330    4.90999985    2.94000006
   16.48833275  120.27799988    0.73000002    2.89000010
   16.49444389  120.27799988    0.67000002    2.86999989
   16.49861145  113.52200317    0.69000000    2.86999989
   16.50166702  113.74600220    0.73000002    2.86999989
   16.50499916  113.40200043    0.73000002    2.86999989
   16.50833321  104.54399872    0.70999998    2.86999989
   16.51138878  113.11799622    0.70999998    2.86999989
   16.51472282  102.93599701    0.69000000    2.86999989
   16.51777840  112.00399780    0.70999998    2.86999989
   16.52111053   96.23090363    0.70999998    2.86999989
   16.52444458  111.86399841    0.69000000    2.86999989
   16.52750015  111.00499725    0.69000000    2.86999989
   16.52805519  107.19599915    0.69000000    2.86999989
   16.53138924  109.34500122    0.69000000    2.86999989
   16.53722191  109.34500122    0.69000000    2.86999989
   16.54138756  112.13700104    0.70999998    2.86999989
   16.54472160  111.51200104    0.70999998    2.89000010
   16.54777718  110.44999695    0.75000000    2.86999989
   16.55111122  112.19200134    0.76999998    2.89000010
   16.55416679  109.19899750    0.76999998    2.86999989
   16.55749893  114.87599945    0.76999998    2.86999989
   16.56083298  109.47599792    0.80000001    2.86999989
   16.56138802  112.33399963    0.80000001    2.89000010
   16.56444359  109.30300140    0.81999999    2.86999989
   16.56777954  109.81400299    1.03999996    2.89000010
   16.57083511  114.31500244    1.09000003    2.86999989
   16.57416725  109.47799683    1.09000003    2.86999989
   16.58000183  109.47799683    1.36000001    2.86999989
   16.58416748  113.25900269    1.53999996    2.86999989
   16.58750153  113.91300201    1.86000001    2.84999990
   16.59083366  115.24500275    1.21000004    2.86999989
   16.59388924  113.45500183    1.23000002    2.86999989
   16.59472275  103.25800323    1.21000004    2.86999989
   16.59749985  112.35500336    1.21000004    2.86999989
   16.60083389  109.22100067    1.21000004    2.86999989
   16.60388947  112.52999878    1.21000004    2.86999989
   16.60722351  108.04000092    1.21000004    2.86999989
   16.61055565  109.89600372    1.23000002    2.86999989
   16.61361122  103.19599915    1.30999994    2.86999989
   16.61694527  109.65000153    1.41999996    2.86999989
   16.62305641  109.65000153    1.34000003    2.86999989
   16.62722206  107.92299652    1.33000004    2.86999989
   16.62805557  101.89099884    1.41999996    2.84999990
   16.63083267  110.13800049    1.63000000    2.86999989
   16.63416672  103.76000214    1.61000001    2.86999989
   16.63722229  102.95500183    1.61000001    2.86999989
   16.64055634  107.04000092    1.51999998    2.86999989
   16.64388847  106.24400330    1.36000001    2.86999989
   16.64694405  106.56300354    1.30999994    2.86999989
   16.65027809   98.24859619    1.34000003    2.86999989
   16.65333366  100.05400085    1.36000001    2.86999989
   16.65666580  103.51499939    1.44000006    2.86999989
   16.65999985  106.28600311    1.44000006    2.86999989
   16.66138840  104.31500244    1.60000002    2.86999989
   16.66583252  104.31500244    1.38000000    2.86999989
   16.67000008   98.35489655    1.36000001    2.86999989
   16.67305565  103.15299988    1.34000003    2.89000010
   16.67638779   97.87570190    1.34000003    2.89000010
   16.67972183  108.72499847    1.30999994    2.86999989
   16.68277740  108.09899902    1.28999996    2.86999989
   16.68610954  111.64099884    1.30999994    2.86999989
   16.68944359  105.80799866    1.30999994    2.86999989
   16.69249916  104.47200012    1.33000004    2.86999989
   16.69472122  105.94799805    1.26999998    2.86999989
   16.69610977  102.23600006    1.26999998    2.86999989
   16.69944382   97.53019714    1.41999996    2.86999989
   16.70250130  100.80000305    1.41999996    2.86999989
   16.70861244  100.80000305    1.23000002    2.86999989
   16.71277809  106.30699921    1.23000002    2.86999989
   16.71611214  105.40599823    1.25000000    2.86999989
   16.71916771   96.81629944    1.30999994    2.86999989
   16.72249985   92.31890106    1.30999994    2.86999989
   16.72555542  102.86299896    1.26999998    2.86999989
   16.72805595  104.30000305    1.25000000    2.86999989
   16.72944450  111.56500244    1.19000006    2.89000010
   16.73277855   98.87860107    1.05999994    2.86999989
   16.73583412   95.81629944    1.03999996    2.89000010
   16.73916626   98.71530151    0.89999998    2.89000010
   16.74222183   97.97380066    0.86000001    2.89000010
   16.74555588  105.13400269    0.86000001    2.89000010
   16.75138855  105.13400269    0.88000000    2.89000010
   16.75555611  101.82900238    0.89999998    2.89000010
   16.75888824  102.46700287    1.01999998    2.86999989
   16.76138878   95.79709625    1.03999996    2.86999989
   16.76250076  102.23799896    1.03999996    2.86999989
   16.76583290   96.37000275    1.00000000    2.89000010
   16.76888847  104.69499969    1.00000000    2.86999989
   16.77222252   98.66770172    1.00000000    2.86999989
   16.77527809  102.46299744    1.00000000    2.86999989
   16.77861023  102.09799957    0.95999998    2.89000010
   16.78194427  101.92900085    0.95999998    2.89000010
   16.78499985  106.80400085    0.95999998    2.89000010
   16.78833199   96.19149780    0.88000000    2.89000010
   16.79444313   96.19149780    0.83999997    2.86999989
   16.81277657  101.27600098    0.89999998    2.86999989
   16.81583214   85.26000214    0.89999998    2.89000010
   16.81916809   96.43280029    0.89999998    2.86999989
   16.82250023  101.20400238    0.94000000    2.89000010
   16.82555580  108.10700226    0.92000002    2.89000010
   16.82888985  100.67400360    0.89999998    2.89000010
   16.83222389   96.66860199    0.89999998    2.89000010
   16.83750153   96.66860199    0.94000000    2.86999989
   16.84166718   97.04910278    0.95999998    2.86999989
   16.84472275  106.53299713    0.98000002    2.89000010
   16.84583473   99.79280090    0.98000002    2.86999989
   16.84833336  109.24199677    0.98000002    2.86999989
   16.85166740   99.95089722    1.00000000    2.86999989
   16.85499954  100.76899719    0.98000002    2.89000010
   16.85805511   97.58460236    0.92000002    2.86999989
   16.86138916  107.30400085    0.92000002    2.86999989
   16.86472321  100.18599701    0.92000002    2.86999989
   16.86777878   95.97609711    0.92000002    2.86999989
   16.87111092  101.64399719    0.92000002    2.89000010
   16.87444496  102.95500183    0.89999998    2.86999989
   16.88027763  102.95500183    0.88000000    2.89000010
   16.88444519   99.31960297    0.80000001    2.86999989
   16.88777733  105.27200317    0.79000002    2.89000010
   16.89083290  106.14199829    0.80000001    2.89000010
   16.89416695   99.59819794    0.80000001    2.89000010
   16.89722252  100.23999786    0.80000001    2.86999989
   16.90055466   95.79679871    0.81999999    2.89000010
   16.90388870  101.13800049    0.80000001    2.89000010
   16.90694427  102.03800201    0.80000001    2.89000010
   16.91027832  102.22699738    0.80000001    2.89000010
   16.91250038  104.14900208    0.80000001    2.89000010
   16.91416550  108.20099640    0.80000001    2.89000010
   16.91722107  102.53800201    0.80000001    2.86999989
   16.92305565  102.53800201    0.88000000    2.86999989
   16.92722130   90.78119659    0.79000002    2.91000009
   16.93055534  106.51599884    0.86000001    2.89000010
   16.93361092  104.30999756    0.81999999    2.89000010
   16.93694305   97.47910309    0.83999997    2.86999989
   16.94027710   99.05549622    0.86000001    2.86999989
   16.94333267   99.06569672    1.38000000    2.84999990
   16.94583321   96.37789917    1.61000001    2.86999989
   16.94722176   99.91349792    1.75000000    2.86999989
   16.95027924  110.83699799    3.59999990    2.89000010
   16.95361137  101.71399689    4.90999985    2.78999996
   16.95666695  224.38900757    4.90999985    2.71000004
   16.96000099  148.49600220    4.90999985    2.07999992
   16.96611214  148.49600220    4.90999985    2.57999992
   16.97000122   53.41910172    4.90999985    2.46000004
   16.97333336   -1.00000000    4.90999985    1.44000006
   16.97666740   -1.00000000    4.90999985    2.13000011
   16.98000145   -1.00000000    4.90999985    0.46000001
   16.98333359   -1.00000000    4.90999985    0.47999999
   16.98638916   -1.00000000    4.90999985    0.23000000
   16.98972321   -1.00000000    4.90999985    0.38000000
   16.99305534   -1.00000000    4.90999985    1.53999996
   16.99611092  121.30100250    4.90999985    1.78999996
   16.99944496  113.52600098    4.90999985    1.41999996
   17.00277710  125.14700317    4.90999985    2.91000009
   17.00888824  125.14700317    4.90999985    1.98000002
   17.01305580  120.00700378    4.90999985    1.26999998
   17.01611137  176.23699951    4.90999985    2.75000000
   17.01944351   85.68470001    4.90999985    1.51999998
   17.02277756   -1.00000000    4.90999985    2.59999990
   17.02583313   -1.00000000    4.90999985    0.52999997
   17.02916718  120.30300140    4.90999985    1.14999998
   17.03222275  133.13299561    4.90999985    3.01999998
   17.03555489  122.02799988    4.57999992    2.73000002
   17.03888893  119.24400330    4.90999985    2.89000010
   17.04194450   -1.00000000    4.90999985    2.96000004
   17.04527664   94.43750000    4.90999985    2.00000000
   17.04583359  138.28500366    4.90999985    2.00000000
   17.05166626  138.28500366    4.38999987    2.94000006
   17.05583191  122.02400208    4.11999989    2.91000009
   17.05888748  119.62999725    4.90999985    2.91000009
   17.06222153  128.58099365    3.28999996    2.89000010
   17.06555557  124.77600098    2.93000007    2.89000010
   17.06861115  106.67199707    4.86999989    2.91000009
   17.07194519  130.12699890    4.53999996    2.93000007
   17.07527924  122.48200226    4.90999985    2.96000004
   17.07833481  118.66300201    0.11000000    0.40000001
   17.07916832  104.15100098    0.09000000    0.13000000
   17.08222389  109.16600037    0.07000000    0.03000000
   17.08527756  119.39900208    0.09000000    0.01000000
   17.08861160  117.41799927    0.09000000    0.01000000
   17.09444427  117.41799927    0.09000000    0.01000000
   17.09861183  130.41400146    0.09000000    0.01000000
   17.10194397  149.65499878    0.09000000    0.01000000
   17.10499954  144.71099854    0.09000000    0.01000000
   17.10833359  166.63200378    0.09000000    0.01000000
   17.11166763  180.16200256    0.09000000    0.01000000
   17.11250114  188.69500732    0.09000000    0.01000000
   17.11527824  178.57400513    0.09000000    0.01000000
   17.11833382  202.65600586    0.09000000    0.01000000
   17.12166595  228.31199646    0.09000000    0.01000000
   17.12472153  240.78799438    0.09000000    0.01000000
   17.12805557  260.57998657    0.09000000    0.01000000
   17.13138962  375.61199951    0.09000000    0.01000000
   17.13333321  353.22900391    0.09000000    0.01000000
   17.13472176  443.99600220    0.09000000    0.01000000
   17.13611031  419.52999878    0.09000000    0.01000000
   17.13750076  427.80499268    0.09000000    0.01000000
   17.13888931  467.05398560    0.09000000    0.01000000
   17.14027786  436.59799194    0.09000000    0.01000000
   17.14166641  268.29998779    0.09000000    0.01000000
   17.14305496  237.84199524    0.09000000    0.01000000
   17.14305496  166.63200378    0.09000000    0.01000000
   17.14305496  180.16200256    0.09000000    0.01000000
   17.14333344  178.57400513    0.09000000    0.01000000
   17.14333344  202.65600586    0.09000000    0.01000000
   17.14361191  228.31199646    0.09000000    0.01000000
   17.14361191  240.78799438    0.09000000    0.01000000
   17.14361191  260.57998657    0.09000000    0.01000000
   17.14388847  375.61199951    0.09000000    0.01000000
   17.14388847  144.71099854    0.09000000    0.01000000
   17.14444351  148.23199463    0.09000000    0.01000000
   17.14777756  140.33900452    0.09000000    0.01000000
   17.15138817  112.39499664    0.09000000    0.01000000
   17.15444374   48.79040146    0.09000000    0.01000000
   17.15777779   42.16370010    0.09000000    0.01000000
   17.16777802   -1.00000000    0.09000000    0.01000000
   17.17111015   -1.00000000    0.09000000    0.01000000
   17.17416573   -1.00000000    0.09000000    0.01000000
