    HOUR (UT)   FLARE FACTOR    SKY TESTER    SUN TESTER
   11.15361118   -1.00000000   -1.00000000   -1.00000000
   11.17388916  297.02600098    2.59999990    1.78999996
   11.18138885  291.38800049    2.64000010    1.78999996
   11.18472195  264.90200806    2.66000009    1.78999996
   11.18805599  288.01699829    2.66000009    1.78999996
   11.19111156  291.26998901    2.66000009    1.78999996
   11.19444466  295.57400513    2.66000009    1.78999996
   11.19777775  265.50698853    2.67000008    1.80999994
   11.20083332  275.34399414    2.67000008    1.80999994
   11.20416641  280.40301514    2.67000008    1.80999994
   11.20722198  278.44100952    2.67000008    1.80999994
   11.20777798  274.76699829    2.67000008    1.80999994
   11.21083355  267.55999756    2.67000008    1.80999994
   11.21416664  241.03799438    2.73000002    1.83000004
   11.21749973  245.46800232    2.75000000    1.83000004
   11.22055531  243.19799805    2.76999998    1.86000001
   11.22388840  236.67199707    2.76999998    1.85000002
   11.22694397  232.15699768    2.75000000    1.86000001
   11.23027706  243.62500000    2.73000002    1.86000001
   11.23361111  213.58700562    2.69000006    1.86000001
   11.23666668  234.92700195    2.69000006    1.86000001
   11.24000072  228.46099854    2.69000006    1.86000001
   11.24055576  238.25399780    2.69000006    1.86000001
   11.24361134  239.08799744    2.67000008    1.86000001
   11.24666691  231.31700134    2.66000009    1.86000001
   11.25000000  221.71299744    2.61999989    1.86000001
   11.25333309  219.17599487    2.57999992    1.88000000
   11.25638866  211.82099915    2.55999994    1.88000000
   11.25972176  209.15699768    2.48000002    1.86000001
   11.26277733  207.09100342    2.44000006    1.89999998
   11.26611137  219.49299622    2.40000010    1.89999998
   11.26944447  202.29600525    2.36999989    1.89999998
   11.27250004  219.90699768    2.32999992    1.89999998
   11.27388859  220.00700378    2.28999996    1.89999998
   11.27638817  203.25599670    2.26999998    1.89999998
   11.27944374  215.35299683    2.19000006    1.89999998
   11.28277779  206.40899658    2.15000010    1.89999998
   11.28611183  199.72999573    2.09999990    1.89999998
   11.28916740  164.70399475    2.05999994    1.89999998
   11.29250050  208.95199585    2.01999998    1.91999996
   11.29583359  200.72700500    1.94000006    1.91999996
   11.29888916  200.64700317    1.91999996    1.91999996
   11.30222225  182.85899353    1.85000002    1.94000006
   11.30527782  173.76600647    1.64999998    1.94000006
   11.30722237  175.00900269    1.66999996    1.94000006
   11.30916691  201.60499573    1.66999996    1.94000006
   11.31222248  189.90899658    1.71000004    1.94000006
   11.31555557  180.21400452    1.66999996    1.94000006
   11.31888866  190.28799438    1.63000000    1.94000006
   11.32194424  184.44799805    1.61000001    1.96000004
   11.32527733  180.88600159    1.61000001    1.96000004
   11.32861137  183.96099854    1.61000001    1.96000004
   11.33166695  175.18699646    1.58000004    1.98000002
   11.33500004  191.90899658    1.58000004    1.98000002
   11.33805561  175.39700317    1.44000006    1.96000004
   11.34055519  180.41999817    1.30999994    1.98000002
   11.34194374  174.44299316    1.28999996    1.98000002
   11.34499931  179.80599976    1.21000004    1.98000002
   11.34833336  184.08799744    1.16999996    1.98000002
   11.35166740  181.77200317    1.16999996    2.00000000
   11.35472298  173.14300537    1.16999996    2.00000000
   11.35805607  161.65800476    1.16999996    2.00000000
   11.36138916  183.34100342    1.14999998    2.00000000
   11.36444473  170.16700745    1.05999994    2.01999998
   11.36777782  163.98100281    1.05999994    2.01999998
   11.37083340  162.21099854    1.05999994    2.01999998
   11.37388897  148.40400696    1.03999996    2.01999998
   11.37472248  161.49800110    1.03999996    2.01999998
   11.37777805  162.17399597    1.03999996    2.01999998
   11.38111115  161.87100220    1.03999996    2.01999998
   11.38444424  167.97399902    1.03999996    2.01999998
   11.38749981  173.57400513    1.07000005    2.01999998
   11.39083290  176.83700562    1.09000003    2.01999998
   11.39416695  165.22200012    1.21000004    2.03999996
   11.39722252  159.75100708    1.23000002    2.01999998
   11.40055561  175.64100647    1.39999998    2.05999994
   11.40361118  168.68400574    1.44000006    2.03999996
   11.40694427  173.53100586    1.66999996    2.03999996
   11.40749931  171.55999756    1.69000006    2.05999994
   11.41083336  172.92199707    1.91999996    2.05999994
   11.41388893  173.16000366    1.94000006    2.05999994
   11.41722298  161.41200256    2.09999990    2.05999994
   11.42055607  164.84199524    2.09999990    2.05999994
   11.42361164  163.78100586    2.05999994    2.07999992
   11.42694473  158.74400330    1.98000002    2.07999992
   11.43027782  159.49699402    1.94000006    2.07999992
   11.43333340  169.97099304    1.83000004    2.07999992
   11.43666649  174.22999573    1.73000002    2.07999992
   11.43972206  175.15199280    1.66999996    2.03999996
   11.44083309  180.14700317    1.66999996    2.03999996
   11.44361115  191.76300049    1.63000000    2.01999998
   11.44666672  158.07800293    1.61000001    2.01999998
   11.44999981  155.89700317    1.60000002    2.01999998
   11.45333290  152.53199768    1.64999998    2.09999990
   11.45638847  160.07000732    1.78999996    2.09999990
   11.45972157  152.97799683    2.13000011    2.09999990
   11.46277714  154.37199402    2.69000006    2.09999990
   11.46611118  149.50900269    2.61999989    2.09999990
   11.46944427  153.29499817    2.36999989    2.07999992
   11.47249985  173.67700195    2.15000010    2.05999994
   11.47416592  165.96400452    2.09999990    2.05999994
   11.47638798  160.13999939    2.07999992    2.07999992
   11.47944355  164.77699280    2.01999998    2.09999990
   11.48277760  176.50100708    1.83000004    2.09999990
   11.48611164  169.29499817    1.63000000    2.11999989
   11.48916721  159.02200317    1.61000001    2.09999990
   11.49250031  175.09899902    1.41999996    2.11999989
   11.49555588  168.65199280    1.38000000    2.09999990
   11.49888897  157.17599487    1.33000004    2.09999990
   11.50222206  151.23500061    1.16999996    2.13000011
   11.50555515  154.47799683    1.13000000    2.13000011
   11.50749969  159.36900330    1.14999998    2.13000011
   11.50916672  162.83500671    1.14999998    2.13000011
   11.51222229  170.51199341    1.14999998    2.11999989
   11.51555538  162.66799927    1.14999998    2.11999989
   11.51888847  161.38000488    1.16999996    2.11999989
   11.52194405  155.38000488    1.13000000    2.13000011
   11.52527714  155.37199402    1.05999994    2.13000011
   11.52861118  153.25100708    1.03999996    2.13000011
   11.53166676  155.06799316    1.03999996    2.13000011
   11.53500080  163.53100586    1.03999996    2.13000011
   11.53805637  174.52799988    1.03999996    2.13000011
   11.54083347  167.12100220    0.89999998    2.17000008
   11.54194450  161.21200562    0.89999998    2.17000008
   11.54500008  152.62699890    0.89999998    2.15000010
   11.54833412  150.24400330    0.98000002    2.17000008
   11.55166721  143.47399902    1.09000003    2.15000010
   11.55472279  150.37500000    1.13000000    2.17000008
   11.55805588  169.25599670    1.25000000    2.17000008
   11.56111145  162.16600037    1.16999996    2.17000008
   11.56444454  169.95500183    1.16999996    2.17000008
   11.56777763  186.31599426    1.13000000    2.13000011
   11.57083321  174.97700500    1.09000003    2.09999990
   11.57416630  159.45599365    1.09000003    2.11999989
   11.57472229  169.73100281    1.05999994    2.17000008
   11.57777786  160.95899963    1.05999994    2.17000008
   11.58111095  153.76199341    1.07000005    2.19000006
   11.58444405  177.29699707    1.05999994    2.17000008
   11.58749962  149.04899597    1.03999996    2.17000008
   11.59083271  168.77999878    1.07000005    2.19000006
   11.59388828  156.24400330    0.92000002    2.19000006
   11.59722233  166.30499268    0.88000000    2.19000006
   11.60055637  160.36999512    0.80000001    2.19000006
   11.60361195  157.34800720    0.80000001    2.19000006
   11.60694504  139.86399841    0.79000002    2.19000006
   11.60750008  146.63400269    0.79000002    2.19000006
   11.61055565  148.76300049    0.80000001    2.19000006
   11.61361122  156.35200500    0.79000002    2.21000004
   11.61694431  153.88400269    0.79000002    2.21000004
   11.62027836  150.17900085    0.79000002    2.21000004
   11.62333393  152.01600647    0.79000002    2.21000004
   11.62666702  157.52699280    0.79000002    2.21000004
   11.63000011  153.82299805    0.79000002    2.21000004
   11.63305569  151.92500305    0.79000002    2.21000004
   11.63638878  159.21200562    0.79000002    2.23000002
   11.63944435  155.30200195    0.79000002    2.23000002
   11.64083290  159.33000183    0.79000002    2.23000002
   11.64333344  145.11599731    0.79000002    2.23000002
   11.64638901  159.83700562    0.79000002    2.23000002
   11.64972210  147.75399780    0.80000001    2.23000002
   11.65305519  155.87500000    0.80000001    2.23000002
   11.65611076  162.95599365    0.83999997    2.23000002
   11.65944386  165.91700745    0.83999997    2.23000002
   11.66277695  161.05900574    0.83999997    2.25000000
   11.66583252  161.86500549    0.83999997    2.25000000
   11.66916656  152.59700012    0.83999997    2.25000000
   11.67250061  151.69799805    0.83999997    2.25000000
   11.67416668  157.15699768    0.81999999    2.25000000
   11.67611122  164.28700256    0.81999999    2.25000000
   11.67916679  156.24299622    0.81999999    2.25000000
   11.68249989  150.18800354    0.81999999    2.25000000
   11.68583298  154.97999573    0.83999997    2.25000000
   11.68888855  160.78100586    0.83999997    2.25000000
   11.69222260  149.64999390    0.86000001    2.26999998
   11.69527817  147.42799377    0.86000001    2.25000000
   11.69861126  160.13900757    0.88000000    2.25000000
   11.70194435  143.50799561    0.88000000    2.25000000
   11.70499992  153.29400635    0.86000001    2.25000000
   11.70749950  149.84300232    0.86000001    2.25000000
   11.70888901  153.39399719    0.83999997    2.25000000
   11.71194458  149.25700378    0.83999997    2.26999998
   11.71527767  157.21899414    0.81999999    2.28999996
   11.71861076  141.26400757    0.80000001    2.26999998
   11.72166634  144.60499573    0.80000001    2.26999998
   11.72499943  142.61000061    0.80000001    2.26999998
   11.72805500  149.72799683    0.80000001    2.26999998
   11.73138809  143.09100342    0.79000002    2.28999996
   11.73472214  145.52000427    0.79000002    2.28999996
   11.73777771  153.90899658    0.79000002    2.26999998
   11.74083328  148.26400757    0.79000002    2.28999996
   11.74166679  154.63200378    0.79000002    2.28999996
   11.74472237  155.44200134    0.83999997    2.28999996
   11.74805546  143.07800293    0.81999999    2.28999996
   11.75138855  148.09599304    0.80000001    2.28999996
   11.75444412  145.53100586    0.79000002    2.28999996
   11.75777817  143.23800659    0.75000000    2.30999994
   11.76083374  148.89100647    0.75000000    2.30999994
   11.76416683  158.88999939    0.73000002    2.30999994
   11.76749992  144.64999390    0.73000002    2.28999996
   11.77055550  140.28199768    0.70999998    2.30999994
   11.77388859  151.33399963    0.73000002    2.30999994
   11.77444458  144.98199463    0.73000002    2.30999994
   11.77777767  144.86199951    0.70999998    2.30999994
   11.78083324  147.10000610    0.70999998    2.30999994
   11.78416729  143.22900391    0.70999998    2.30999994
   11.78722286  143.90499878    0.73000002    2.30999994
   11.79055595  141.91099548    0.75000000    2.32999992
   11.79388905  144.96699524    0.75000000    2.32999992
   11.79694462  141.10000610    0.79000002    2.32999992
   11.80027771  144.08099365    0.83999997    2.32999992
   11.80361176  140.64900208    0.88000000    2.32999992
   11.80666733  144.55000305    0.98000002    2.32999992
   11.80777836  147.15600586    1.07000005    2.32999992
   11.81055546  158.70300293    1.16999996    2.32999992
   11.81361103  154.08200073    1.28999996    2.32999992
   11.81694412  146.25399780    1.34000003    2.32999992
   11.81999969  159.50000000    1.58000004    2.32999992
   11.82333374  155.72399902    1.71000004    2.32999992
   11.82666683  157.34100342    1.80999994    2.32999992
   11.82972240  157.85600281    1.98000002    2.32999992
   11.83305550  154.01899719    2.13000011    2.32999992
   11.83638859  159.91200256    2.30999994    2.32999992
   11.83944416  151.26100159    2.76999998    2.32999992
   11.84111118  149.51300049    2.94000006    2.32999992
   11.84333324  148.78900146    3.28999996    2.32999992
   11.84638882  147.93200684    3.82999992    2.32999992
   11.84972191  157.54400635    4.42999983    2.34999990
   11.85277843  156.16299438    4.73999977    2.30999994
   11.85611153  171.93899536    4.90999985    2.26999998
   11.85944462  180.45799255    4.90999985    2.26999998
   11.86250019  161.43099976    4.90999985    2.26999998
   11.86583328  155.35400391    4.90999985    2.28999996
   11.86916637  165.97099304    4.90999985    2.28999996
   11.87222195  165.72000122    4.90999985    2.28999996
   11.87444496  160.92199707    4.90999985    2.28999996
   11.87611103  163.56300354    4.90999985    2.26999998
   11.87916660  151.57099915    4.90999985    2.25000000
   11.88249969  167.61900330    4.90999985    2.30999994
   11.88555527  157.32800293    4.90999985    2.32999992
   11.88888836  152.71200562    4.90999985    2.34999990
   11.89222240  146.92300415    4.90999985    2.34999990
   11.89527798  157.72500610    4.90999985    2.32999992
   11.89861107  153.33200073    4.90999985    2.32999992
   11.90194416  145.40600586    4.90999985    2.34999990
   11.90499973  156.40100098    4.86999989    2.32999992
   11.90777779  151.98800659    4.73999977    2.32999992
   11.90888882  152.72900391    4.69999981    2.34999990
   11.91194439  166.77499390    4.53999996    2.34999990
   11.91527748  150.86900330    4.34999990    2.32999992
   11.91833401  140.50399780    4.09999990    2.34999990
   11.92166710  141.97200012    3.91000009    2.36999989
   11.92500019  148.43499756    3.75000000    2.34999990
   11.92805576  139.85600281    3.59999990    2.34999990
   11.93138885  149.44000244    3.50000000    2.36999989
   11.93472195  152.39100647    3.46000004    2.36999989
   11.93777752  146.44299316    3.43000007    2.36999989
   11.94111156  147.82699585    3.34999990    2.36999989
   11.94166660  152.75300598    3.32999992    2.36999989
   11.94472218  151.60800171    3.25000000    2.36999989
   11.94805527  148.12899780    3.21000004    2.36999989
   11.95111084  152.53900146    3.20000005    2.36999989
   11.95444393  154.58599854    3.23000002    2.36999989
   11.95777798  135.48800659    3.25000000    2.36999989
   11.96083355  139.92300415    3.25000000    2.39000010
   11.96416664  147.18299866    3.21000004    2.36999989
   11.96749973  149.19999695    3.18000007    2.39000010
   11.97055531  144.35299683    3.11999989    2.39000010
   11.97388840  143.30499268    3.11999989    2.39000010
   11.97444439  145.52699280    3.09999990    2.39000010
   11.97749996  149.42900085    3.05999994    2.39000010
   11.98055553  147.33099365    2.98000002    2.39000010
   11.98388958  150.76699829    2.91000009    2.40000010
   11.98694515  142.78900146    2.86999989    2.39000010
   11.99027824  162.12800598    2.82999992    2.39000010
   11.99361134  144.58200073    2.86999989    2.40000010
   11.99666691  142.80999756    2.98000002    2.39000010
   12.00000000  144.92700195    3.16000009    2.39000010
   12.00333309  150.28999329    3.41000009    2.39000010
   12.00638866  155.52699280    3.68000007    2.36999989
   12.00777817  142.46600342    3.89000010    2.39000010
   12.01027775  151.97399902    4.13999987    2.39000010
   12.01333332  149.60800171    4.48999977    2.39000010
   12.01666641  152.54600525    4.78000021    2.39000010
   12.01972198  148.82299805    4.90999985    2.39000010
   12.02305508  150.74299622    4.90999985    2.36999989
   12.02638817  151.67500305    4.90999985    2.36999989
   12.02944374  148.95700073    4.90999985    2.39000010
   12.03277779  160.14300537    4.90999985    2.36999989
   12.03611183  149.65499878    4.90999985    2.39000010
   12.03916740  153.93800354    4.90999985    2.36999989
   12.04111195  156.50700378    4.90999985    2.36999989
   12.04305553  155.99800110    4.90999985    2.36999989
   12.04611111  150.32600403    4.90999985    2.36999989
   12.04944515  162.46899414    4.90999985    2.36999989
   12.05277824  150.95100403    4.90999985    2.39000010
   12.05583382  158.72700500    4.90999985    2.39000010
   12.05916691  154.57499695    4.90999985    2.40000010
   12.06222248  148.82600403    4.90999985    2.36999989
   12.06555557  146.24699402    4.90999985    2.36999989
   12.06888866  150.69500732    4.90999985    2.40000010
   12.07194424  151.52200317    4.90999985    2.40000010
   12.07444477  157.66299438    4.90999985    2.40000010
   12.07583332  152.97500610    4.90999985    2.40000010
   12.07888889  152.73199463    4.90999985    2.42000008
   12.08222198  150.75399780    4.90999985    2.40000010
   12.08555508  159.91499329    4.90999985    2.39000010
   12.08861065  160.16299438    4.90999985    2.39000010
   12.09194374  155.47900391    4.90999985    2.36999989
   12.09499931  153.96600342    4.90999985    2.40000010
   12.09833336  156.62800598    4.90999985    2.40000010
   12.10166740  159.13299561    4.90999985    2.39000010
   12.10472298  156.97500610    4.90999985    2.40000010
   12.10777855  149.14599609    4.90999985    2.40000010
   12.10861111  158.14799500    4.90999985    2.40000010
   12.11166668  148.41700745    4.90999985    2.40000010
   12.11500072  153.21400452    4.90999985    2.42000008
   12.11833382  153.72500610    4.90999985    2.42000008
   12.12138939  145.95100403    4.90999985    2.40000010
   12.12472248  148.62899780    4.90999985    2.42000008
   12.12777805  154.61599731    4.90999985    2.40000010
   12.13111115  152.94400024    4.90999985    2.40000010
   12.13444424  155.65400696    4.90999985    2.40000010
   12.13749981  154.67100525    4.90999985    2.40000010
   12.14083290  166.23399353    4.90999985    2.42000008
   12.14138889  156.35899353    4.90999985    2.42000008
   12.14444447  166.69200134    4.90999985    2.40000010
   12.14777756  162.29499817    4.90999985    2.42000008
   12.15111065  168.51600647    4.90999985    2.40000010
   12.15416622  158.08200073    4.90999985    2.40000010
   12.15749931  178.43699646    4.90999985    2.39000010
   12.16083336  168.05799866    4.90999985    2.36999989
   12.16388893  177.97900391    4.90999985    2.32999992
   12.16722298  170.15800476    4.90999985    2.34999990
   12.17027855  166.76400757    4.90999985    2.36999989
   12.17361164  168.23199463    4.90999985    2.39000010
   12.19083309  190.57200623    4.90999985    2.36999989
   12.19333363  183.11300659    4.90999985    2.28999996
   12.19666672  174.25999451    4.90999985    2.28999996
   12.19999981  195.46800232    4.90999985    2.28999996
   12.20305538  211.66200256    4.90999985    2.23000002
   12.20638847  172.54699707    4.90999985    2.30999994
   12.20944405  199.22599792    4.90999985    2.36999989
   12.21277714  210.89599609    4.90999985    2.23000002
   12.21611118  205.87800598    4.90999985    2.21000004
   12.21916580  199.96899414    4.90999985    2.26999998
   12.22249985  183.10299683    4.90999985    2.26999998
   12.22388840  182.01699829    4.90999985    2.26999998
   12.22611046  190.87399292    4.90999985    2.28999996
   12.22944355  194.71200562    4.90999985    2.34999990
   12.23249912  177.04299927    4.90999985    2.32999992
   12.23583317  169.82699585    4.90999985    2.40000010
   12.23888874  182.53500366    4.90999985    2.44000006
   12.24222279  182.85000610    4.90999985    2.36999989
   12.24555588  195.26699829    4.90999985    2.34999990
   12.24861145  191.32600403    4.90999985    2.34999990
   12.25194454  185.89599609    4.90999985    2.39000010
   12.25527763  173.57400513    4.90999985    2.39000010
   12.25749969  180.67100525    4.90999985    2.40000010
   12.25888920  171.86000061    4.90999985    2.40000010
   12.26222229  197.83700562    4.90999985    2.40000010
   12.26527786  208.07200623    4.90999985    2.36999989
   12.26861095  189.72500610    4.90999985    2.36999989
   12.27194405  199.26699829    4.90999985    2.40000010
   12.27499962  245.63800049    4.90999985    2.32999992
   12.27833271  236.54800415    4.90999985    2.32999992
   12.28166676  227.03999329    4.90999985    2.34999990
   12.28472233  249.17999268    4.90999985    2.34999990
   12.28805637  322.76599121    4.90999985    2.21000004
   12.29000092  265.52099609    4.90999985    2.17000008
   12.29138947  288.64801025    4.90999985    2.26999998
   12.29277802  292.13500977    4.90999985    2.25000000
   12.29416752  202.38299561    4.90999985    2.21000004
   12.29416752  322.76599121    4.90999985    2.21000004
   12.29416752  197.83700562    4.90999985    2.40000010
   12.29444504  208.07200623    4.90999985    2.36999989
   12.29444504  189.72500610    4.90999985    2.36999989
   12.29444504  199.26699829    4.90999985    2.40000010
   12.29472256  245.63800049    4.90999985    2.32999992
   12.29472256  236.54800415    4.90999985    2.32999992
   12.29500008  227.03999329    4.90999985    2.34999990
   12.29500008  249.17999268    4.90999985    2.34999990
   12.29555607  228.50199890    4.90999985    2.25000000
   12.29888916  226.47500610    4.90999985    2.40000010
   12.30194473  187.38200378    4.90999985    2.42000008
   12.30527782  212.23199463    4.90999985    2.46000004
   12.30833340  221.36700439    4.90999985    2.36999989
   12.31500053  221.36700439    4.90999985    2.28999996
   12.31916618  268.17199707    4.90999985    2.28999996
   12.32222176  230.31900024    4.90999985    2.26999998
   12.32555580  280.33898926    4.90999985    2.39000010
   12.32805538  242.90299988    4.90999985    2.32999992
   12.32916641  294.29400635    4.90999985    2.30999994
   12.33249950  251.65199280    4.90999985    2.23000002
   12.33583260  265.43798828    4.90999985    2.25000000
   12.33888817  221.83399963    4.90999985    2.25000000
   12.34222221  192.22399902    4.90999985    2.36999989
   12.34555531  199.80599976    4.90999985    2.39000010
   12.34861088  226.15800476    4.90999985    2.34999990
   12.35194492  269.62701416    4.90999985    2.28999996
   12.35777855  269.62701416    4.90999985    2.32999992
   12.36194515  213.24800110    4.90999985    2.36999989
   12.36500072  198.31799316    4.90999985    2.36999989
   12.36833382  202.79499817    4.90999985    2.39000010
   12.37166691  204.13600159    4.90999985    2.40000010
   12.37472248  194.75500488    4.90999985    2.40000010
   12.37805557  193.81500244    4.90999985    2.40000010
   12.38138866  196.63299561    4.90999985    2.40000010
   12.38444424  201.51199341    4.90999985    2.39000010
   12.38777733  200.01199341    4.90999985    2.40000010
   12.39111137  192.97099304    4.90999985    2.40000010
   12.39416695  196.60600281    4.90999985    2.44000006
   12.39472198  192.80499268    4.90999985    2.44000006
   12.40055561  192.80499268    4.90999985    2.48000002
   12.40472221  196.80200195    4.90999985    2.44000006
   12.40805531  180.06599426    4.90999985    2.44000006
   12.41111088  192.00000000    4.90999985    2.46000004
   12.41444397  180.88400269    4.90999985    2.48000002
   12.41777802  186.67700195    4.90999985    2.42000008
   12.42083359  191.96299744    4.90999985    2.44000006
   12.42416668  205.10099792    4.90999985    2.25000000
   12.42722225  195.58200073    4.90999985    2.42000008
   12.42805576  187.20300293    4.90999985    2.44000006
   12.43111134  190.08900452    4.90999985    2.39000010
   12.43416691  188.30999756    4.90999985    2.42000008
   12.43750000  199.80499268    4.90999985    2.48000002
   12.44333363  199.80499268    4.90999985    2.25000000
   12.44750023  246.07200623    4.90999985    2.34999990
   12.45083332  188.39700317    4.90999985    2.36999989
   12.45416641  191.69099426    4.90999985    2.42000008
   12.45722198  201.14900208    4.90999985    2.46000004
   12.46055508  202.36500549    4.90999985    2.44000006
   12.46138859  216.86000061    4.90999985    2.42000008
   12.46416664  220.11799622    4.90999985    2.34999990
   12.46722221  253.67199707    4.90999985    2.30999994
   12.47055531  271.51901245    4.90999985    2.30999994
   12.47388840  268.80899048    4.90999985    2.25000000
   12.47694397  300.04199219    4.90999985    2.26999998
   12.47916603  221.89399719    4.90999985    2.17000008
   12.47916603  271.51901245    4.90999985    2.30999994
   12.47916603  268.80899048    4.90999985    2.25000000
   12.47944355  300.04199219    4.90999985    2.26999998
   12.47944355  188.39700317    4.90999985    2.36999989
   12.47944355  191.69099426    4.90999985    2.42000008
   12.47972202  201.14900208    4.90999985    2.46000004
   12.47972202  202.36500549    4.90999985    2.44000006
   12.47972202  220.11799622    4.90999985    2.34999990
   12.47999954  253.67199707    4.90999985    2.30999994
   12.48194408  200.57899475    4.90999985    2.32999992
   12.48500061  197.36999512    4.90999985    2.40000010
   12.48833370  209.38099670    4.90999985    2.44000006
   12.49166679  204.87800598    4.90999985    2.30999994
   12.49472237  206.31799316    4.90999985    2.28999996
   12.50000000  206.31799316    4.90999985    2.28999996
   12.50388908  254.70700073    4.90999985    2.21000004
   12.50722218  434.86999512    4.90999985    2.09999990
   12.50916672  290.15798950    4.90999985    2.01999998
   12.51055527  329.20800781    4.90999985    2.05999994
   12.51194477  249.89100647    4.90999985    2.21000004
   12.51194477  200.57899475    4.90999985    2.32999992
   12.51222229  197.36999512    4.90999985    2.40000010
   12.51222229  209.38099670    4.90999985    2.44000006
   12.51222229  204.87800598    4.90999985    2.30999994
   12.51249981  206.31799316    4.90999985    2.28999996
   12.51249981  254.70700073    4.90999985    2.21000004
   12.51249981  434.86999512    4.90999985    2.09999990
   12.51305580  368.09100342    4.90999985    2.23000002
   12.51527786  446.57901001    4.90999985    2.00000000
   12.51638889  351.11199951    4.90999985    2.09999990
   12.51777744  384.30200195    4.90999985    2.13000011
   12.51916599  403.54998779    4.90999985    2.17000008
   12.52055550  362.67800903    4.90999985    2.13000011
   12.52194405  442.32598877    4.90999985    2.07999992
   12.52333355  407.54199219    4.90999985    2.03999996
   12.52472210  240.13999939    4.90999985    2.00000000
   12.52499962  368.09100342    4.90999985    2.23000002
   12.52555561  269.72500610    4.90999985    2.03999996
   12.52888870  104.16600037    4.90999985    1.88000000
   12.53194427  400.44799805    4.90999985    1.91999996
   12.53388977  435.00201416    4.90999985    1.98000002
   12.53527832  107.91899872    4.90999985    2.01999998
   12.53555584  269.72500610    4.90999985    2.03999996
   12.53555584  104.16600037    4.90999985    1.88000000
   12.53555584  400.44799805    4.90999985    1.91999996
   12.53666687  106.93099976    4.90999985    1.94000006
   12.54000092  407.47198486    4.90999985    1.94000006
   12.54194450  353.12500000    4.90999985    2.05999994
   12.54333401  106.93099976    4.90999985    1.94000006
   12.54333401  407.47198486    4.90999985    1.94000006
   12.54444504   81.71820068    4.90999985    1.80999994
   12.54777813  110.35099792    4.90999985    1.86000001
   12.55111122   95.26390076    4.90999985    1.96000004
   12.55416679  116.14600372    4.90999985    1.83000004
   12.55749989  161.45300293    4.90999985    1.91999996
   12.56416702  161.45300293    4.90999985    2.07999992
   12.56805515  227.56599426    4.90999985    2.30999994
   12.57138920  205.84599304    4.90999985    2.21000004
   12.57472229  347.17700195    4.90999985    2.36999989
   12.57666683  416.86401367    4.90999985    2.25000000
   12.57805538  354.97000122    4.90999985    2.05999994
   12.57944393   85.78240204    4.90999985    2.01999998
   12.57944393   81.71820068    4.90999985    1.80999994
   12.57944393  110.35099792    4.90999985    1.86000001
   12.57972240   95.26390076    4.90999985    1.96000004
   12.57972240  116.14600372    4.90999985    1.83000004
   12.57972240  161.45300293    4.90999985    1.91999996
   12.57999992  227.56599426    4.90999985    2.30999994
   12.57999992  205.84599304    4.90999985    2.21000004
   12.57999992  347.17700195    4.90999985    2.36999989
   12.58055592   63.02349854    4.90999985    2.01999998
   12.58388901   -1.00000000    4.90999985    1.76999998
   12.58722210   -1.00000000    4.90999985    1.46000004
   12.59027767   -1.00000000    4.90999985    1.51999998
   12.59361076   -1.00000000    4.90999985    1.64999998
   12.60027790   -1.00000000    4.90999985    1.76999998
   12.60416698   -1.00000000    4.90999985    1.61000001
   12.60750008   -1.00000000    4.90999985    1.61000001
   12.61083412   -1.00000000    4.90999985    1.63000000
   12.61444473   -1.00000000    4.90999985    1.75000000
   12.61777782   95.12850189    4.90999985    1.71000004
   12.62083340  131.35000610    4.90999985    1.98000002
   12.62416649  123.71099854    4.90999985    1.96000004
   12.62722206   -1.00000000    4.90999985    2.05999994
   12.63055611  152.67199707    4.90999985    1.76999998
   12.63388920  323.67599487    4.90999985    1.91999996
   12.63583279  315.34500122    4.90999985    2.15000010
   12.63722229  269.84600830    4.90999985    2.25000000
   12.63861084  259.94500732    4.90999985    2.26999998
   12.64000034  347.54000854    4.90999985    2.26999998
   12.64138889  364.67999268    4.90999985    2.21000004
   12.64277744  333.45599365    4.90999985    2.23000002
   12.64416695  243.93299866    4.90999985    2.17000008
   12.64416695   95.12850189    4.90999985    1.71000004
   12.64416695  131.35000610    4.90999985    1.98000002
   12.64444447  123.71099854    4.90999985    1.96000004
   12.64444447   -1.00000000    4.90999985    2.05999994
   12.64444447  152.67199707    4.90999985    1.76999998
   12.64472198  323.67599487    4.90999985    1.91999996
   12.64472198   -1.00000000    4.90999985    1.61000001
   12.64472198   -1.00000000    4.90999985    1.63000000
   12.64499950   -1.00000000    4.90999985    1.75000000
   12.64555550  250.01199341    4.90999985    2.25000000
   12.64861107  327.27600098    4.90999985    2.28999996
   12.65083313  404.52398682    4.90999985    2.21000004
   12.65194416  308.69198608    4.90999985    2.11999989
   12.65333271  212.94799805    4.90999985    1.98000002
   12.65361118  250.01199341    4.90999985    2.25000000
   12.65361118  327.27600098    4.90999985    2.28999996
   12.65416622  252.50300598    4.90999985    1.98000002
   12.65749931  125.25900269    4.90999985    1.98000002
   12.66055489   77.30629730    4.90999985    2.00000000
   12.66388893   -1.00000000    4.90999985    1.88000000
   12.66722298   80.76719666    4.90999985    1.69000006
   12.67027855   -1.00000000    4.90999985    1.86000001
   12.67444515   -1.00000000    4.90999985    1.69000006
   12.67861176   -1.00000000    4.90999985    1.44000006
   12.68194485   -1.00000000    4.90999985    1.60000002
   12.68500042   -1.00000000    4.90999985    1.75000000
   12.68861103   -1.00000000    4.90999985    1.64999998
   12.69166660   -1.00000000    4.90999985    1.50000000
   12.69499969   -1.00000000    4.90999985    1.46000004
   12.69833374   -1.00000000    4.90999985    1.58000004
   12.70138836   -1.00000000    4.90999985    1.60000002
   12.70472240   88.84230042    4.90999985    1.76999998
   12.70777798   -1.00000000    4.90999985    1.83000004
   12.71111107   -1.00000000    4.90999985    1.73000002
   12.71722221   -1.00000000    4.90999985    1.85000002
   12.72138882   -1.00000000    4.90999985    1.66999996
   12.72472191   -1.00000000    4.90999985    1.78999996
   12.72805500   85.40480042    4.90999985    1.75000000
   12.73111057   76.34829712    4.90999985    1.91999996
   12.73444462   75.71720123    4.90999985    1.91999996
   12.73750019  283.14700317    4.90999985    2.01999998
   12.74083328  100.82299805    4.90999985    1.94000006
   12.74416733  107.12100220    4.90999985    2.01999998
   12.74722290  374.02600098    4.90999985    2.09999990
   12.74944496  373.94500732    4.90999985    2.05999994
   12.75055599   65.43109894    4.90999985    2.01999998
   12.75083351   -1.00000000    4.90999985    1.78999996
   12.75083351   85.40480042    4.90999985    1.75000000
   12.75083351   76.34829712    4.90999985    1.91999996
   12.75111103   75.71720123    4.90999985    1.91999996
   12.75111103  283.14700317    4.90999985    2.01999998
   12.75111103  100.82299805    4.90999985    1.94000006
   12.75138855  107.12100220    4.90999985    2.01999998
   12.75138855  374.02600098    4.90999985    2.09999990
   12.75138855   -1.00000000    4.90999985    1.66999996
   12.75249958   -1.00000000    4.90999985    1.80999994
   12.75583363  118.01999664    4.90999985    1.73000002
   12.75916672  110.26699829    4.90999985    1.88000000
   12.76222229  185.72399902    4.90999985    2.05999994
   12.76555538  102.49299622    4.90999985    2.09999990
   12.77138901  102.49299622    4.90999985    1.83000004
   12.77555561  414.95599365    4.90999985    1.80999994
   12.77750015  394.17001343    4.90999985    2.21000004
   12.77888870  417.20401001    4.90999985    2.13000011
   12.78027725   85.24220276    4.90999985    2.07999992
   12.78027725   -1.00000000    4.90999985    1.80999994
   12.78055573  118.01999664    4.90999985    1.73000002
   12.78055573  110.26699829    4.90999985    1.88000000
   12.78055573  185.72399902    4.90999985    2.05999994
   12.78083324  102.49299622    4.90999985    2.09999990
   12.78083324  414.95599365    4.90999985    1.80999994
   12.78138828  142.08999634    4.90999985    2.13000011
   12.78472233   52.14500046    4.90999985    2.00000000
   12.78777790   -1.00000000    4.90999985    1.73000002
   12.79111195  495.42498779    4.90999985    1.88000000
   12.79305553  380.20999146    4.90999985    2.09999990
   12.79444504  311.38699341    4.90999985    2.17000008
   12.79583359  261.06900024    4.90999985    2.21000004
   12.79722309  322.56100464    4.90999985    2.25000000
   12.79861164  270.20901489    4.90999985    2.25000000
   12.80000019  406.79998779    4.90999985    2.17000008
   12.80138874  297.24798584    4.90999985    2.17000008
   12.80277824  122.32099915    4.90999985    2.11999989
   12.80277824  142.08999634    4.90999985    2.13000011
   12.80305576   52.14500046    4.90999985    2.00000000
   12.80305576   -1.00000000    4.90999985    1.73000002
   12.80305576  495.42498779    4.90999985    1.88000000
   12.80361176   80.61640167    4.90999985    2.01999998
   12.80694485  161.55099487    4.90999985    1.83000004
   12.81027794  445.83898926    4.90999985    1.96000004
   12.81222248   95.26989746    4.90999985    2.09999990
   12.81222248   80.61640167    4.90999985    2.01999998
   12.81250000  161.55099487    4.90999985    1.83000004
   12.81250000  445.83898926    4.90999985    1.96000004
   12.81444454  104.99600220    4.90999985    1.86000001
   12.81777763  111.07099915    4.90999985    1.91999996
   12.82111073  161.38499451    4.90999985    1.96000004
   12.82416630   86.87030029    4.90999985    1.94000006
   12.82750034   71.79720306    4.90999985    2.00000000
   12.83305550   71.79720306    4.90999985    1.89999998
   12.83722210  136.09199524    4.90999985    1.80999994
   12.84027767   93.74240112    4.90999985    1.86000001
   12.84361076   90.81569672    4.90999985    1.91999996
   12.84722233   97.34079742    4.90999985    1.85000002
   12.85055637   -1.00000000    4.90999985    1.91999996
   12.85388947   -1.00000000    4.90999985    1.61000001
   12.85694504   46.02989960    4.90999985    1.78999996
   12.86027813   -1.00000000    4.90999985    1.80999994
   12.86333370  172.75199890    4.90999985    1.89999998
   12.86666679  429.00900269    4.90999985    1.98000002
   12.86861134  323.89099121    4.90999985    2.07999992
   12.86999989  431.96701050    4.90999985    2.19000006
   12.87138939  439.89498901    4.90999985    2.09999990
   12.87277794  298.11401367    4.90999985    2.11999989
   12.87416649  253.53399658    4.90999985    2.17000008
   12.87555599  384.06500244    4.90999985    2.23000002
   12.87694454  350.03201294    4.90999985    2.25000000
   12.87833309   -1.00000000   -1.00000000   -1.00000000
   12.87833309   -1.00000000    4.90999985    1.91999996
   12.87861156   -1.00000000    4.90999985    1.61000001
   12.87861156   46.02989960    4.90999985    1.78999996
   12.87861156   -1.00000000    4.90999985    1.80999994
   12.87888908  172.75199890    4.90999985    1.89999998
   12.87888908  429.00900269    4.90999985    1.98000002
   12.87888908   93.74240112    4.90999985    1.86000001
   12.87916660   90.81569672    4.90999985    1.91999996
   12.87916660   97.34079742    4.90999985    1.85000002
   12.87972260  100.55799866    4.90999985    2.00000000
   12.88305569   -1.00000000    4.90999985    1.94000006
   12.88611126   -1.00000000    4.90999985    1.55999994
   12.88944435   38.48979950    4.90999985    1.60000002
   12.89277744   -1.00000000    4.90999985    1.80999994
   12.89916611   -1.00000000    4.90999985    1.63000000
   12.90333271   -1.00000000    4.90999985    1.53999996
   12.90638828   -1.00000000    4.90999985    1.66999996
   12.90972137   96.64009857    4.90999985    1.75000000
   12.91333294   -1.00000000    4.90999985    1.76999998
   12.91666698   64.79299927    4.90999985    1.78999996
   12.92000008   49.55250168    4.90999985    1.91999996
   12.92305565   49.40359879    4.90999985    1.83000004
   12.92638874  105.65100098    4.90999985    1.94000006
   12.92944431   82.53040314    4.90999985    1.94000006
   12.93277836  302.92999268    4.90999985    1.89999998
   12.93472195  322.54800415    4.90999985    2.01999998
   12.93611145  135.53399658    4.90999985    2.13000011
   12.93611145   64.79299927    4.90999985    1.78999996
   12.93638897   49.55250168    4.90999985    1.91999996
   12.93638897   49.40359879    4.90999985    1.83000004
   12.93638897  105.65100098    4.90999985    1.94000006
   12.93666649   82.53040314    4.90999985    1.94000006
   12.93666649  302.92999268    4.90999985    1.89999998
   12.93666649   -1.00000000    4.90999985    1.66999996
   12.93694496   96.64009857    4.90999985    1.75000000
   12.93694496   -1.00000000    4.90999985    1.76999998
   12.93805599   43.41550064    4.90999985    1.98000002
   12.94138908  110.08200073    4.90999985    1.85000002
   12.94444466  117.41000366    4.90999985    1.94000006
   12.94777775   33.62829971    4.90999985    1.89999998
   12.95111084  111.60900116    4.90999985    1.89999998
   12.95694447  111.60900116    4.90999985    1.71000004
   12.96111107   -1.00000000    4.90999985    1.85000002
   12.96416664   -1.00000000    4.90999985    1.66999996
   12.96749973   -1.00000000    4.90999985    1.50000000
   12.97111034   -1.00000000    4.90999985    1.55999994
   12.97444439   -1.00000000    4.90999985    1.33000004
   12.97777748   -1.00000000    4.90999985    1.63000000
   12.98083305   35.47100067    4.90999985    1.78999996
   12.98416710   -1.00000000    4.90999985    1.78999996
   12.98722267   78.80349731    4.90999985    1.91999996
   12.99055576   -1.00000000    4.90999985    1.71000004
   12.99388885   -1.00000000    4.90999985    1.58000004
   13.00388908   -1.00000000    4.90999985    1.50000000
   13.00694466   -1.00000000    4.90999985    1.39999998
   13.01027775   -1.00000000    4.90999985    1.76999998
   13.01361084   -1.00000000    4.90999985    1.48000002
   13.01666641   -1.00000000    4.90999985    1.66999996
   13.01999950   -1.00000000    4.90999985    1.46000004
   13.02305508   -1.00000000    4.90999985    1.50000000
   13.02638817   -1.00000000    4.90999985    1.51999998
   13.02972221   -1.00000000    4.90999985    1.63000000
   13.03277779   -1.00000000    4.90999985    1.44000006
   13.03611183   93.27169800    4.90999985    1.89999998
   13.03666687   80.15579987    4.90999985    1.89999998
   13.04250050   80.15579987    4.90999985    1.39999998
   13.04666710   -1.00000000    4.90999985    1.83000004
   13.05000019   -1.00000000    4.90999985    1.63000000
   13.05333328   -1.00000000    4.90999985    1.66999996
   13.05638885   -1.00000000    4.90999985    1.55999994
   13.05972195   -1.00000000    4.90999985    1.53999996
   13.06277752   -1.00000000    4.90999985    1.78999996
   13.06611156   -1.00000000    4.90999985    1.60000002
   13.06944466   -1.00000000    4.90999985    1.78999996
   13.06999969   78.47480011    4.90999985    1.78999996
   13.07305527   -1.00000000    4.90999985    1.71000004
   13.07611084   -1.00000000    4.90999985    1.69000006
   13.07944393   99.57540131    4.90999985    1.75000000
   13.08555508   99.57540131    4.90999985    1.96000004
   13.08972168   88.01300049    4.90999985    1.96000004
   13.09277725  118.20099640    4.90999985    1.88000000
   13.09611034  301.96200562    4.90999985    1.86000001
   13.09805489  266.89700317    4.90999985    2.28999996
   13.09944439  366.54199219    4.90999985    2.34999990
   13.10083389  153.90699768    4.90999985    2.26999998
   13.10083389   -1.00000000    4.90999985    1.69000006
   13.10083389   99.57540131    4.90999985    1.75000000
   13.10111141   88.01300049    4.90999985    1.96000004
   13.10111141  118.20099640    4.90999985    1.88000000
   13.10111141  301.96200562    4.90999985    1.86000001
   13.10138893   -1.00000000    4.90999985    1.78999996
   13.10138893   -1.00000000    4.90999985    1.60000002
   13.10138893   -1.00000000    4.90999985    1.78999996
   13.10166740   -1.00000000    4.90999985    1.71000004
   13.10222244  352.95599365    4.90999985    2.25000000
   13.10611153  113.08599854    4.90999985    1.71000004
   13.10944462   -1.00000000    4.90999985    1.69000006
   13.11250019   78.03829956    4.90999985    1.58000004
   13.11583328  118.39800262    4.90999985    1.96000004
   13.11916637  345.19299316    4.90999985    2.15000010
   13.12111092  266.03799438    4.90999985    2.01999998
   13.12222195  367.03100586    4.90999985    2.26999998
   13.12361145  264.23699951    4.90999985    2.15000010
   13.12500000  275.11599731    4.90999985    2.21000004
   13.12638855  341.17999268    4.90999985    2.34999990
   13.12777805  377.99099731    4.90999985    2.26999998
   13.12916660  313.68301392    4.90999985    2.13000011
   13.13055611   98.58170319    4.90999985    2.09999990
   13.13083363  113.08599854    4.90999985    1.71000004
   13.13083363   -1.00000000    4.90999985    1.69000006
   13.13111115   78.03829956    4.90999985    1.58000004
   13.13111115  118.39800262    4.90999985    1.96000004
   13.13111115  345.19299316    4.90999985    2.15000010
   13.13166714  146.86099243    4.90999985    2.13000011
   13.13500023  420.97198486    4.90999985    2.00000000
   13.13694477  107.94000244    4.90999985    2.09999990
   13.13722229  146.86099243    4.90999985    2.13000011
   13.13722229  420.97198486    4.90999985    2.00000000
   13.13916683  388.81100464    4.90999985    1.91999996
   13.14111137  413.89199829    4.90999985    2.28999996
   13.14249992  386.83700562    4.90999985    2.13000011
   13.14388847  254.97500610    4.90999985    2.25000000
   13.14527798  285.19601440    4.90999985    2.23000002
   13.14666653  244.88699341    4.90999985    2.15000010
   13.14666653  388.81100464    4.90999985    1.91999996
   13.14722252  208.42199707    4.90999985    2.15000010
   13.15055561  243.17799377    4.90999985    1.98000002
   13.15388870  333.57901001    4.90999985    2.25000000
   13.15583324  120.89800262    4.90999985    2.21000004
   13.15583324  208.42199707    4.90999985    2.15000010
   13.15611076  243.17799377    4.90999985    1.98000002
   13.15611076  333.57901001    4.90999985    2.25000000
   13.15805531  363.03900146    4.90999985    1.98000002
   13.15999985  228.74699402    4.90999985    2.09999990
   13.16194439   -1.00000000    4.90999985    2.05999994
   13.16527748   -1.00000000    4.90999985    2.00000000
   13.16861153   92.73580170    4.90999985    1.63000000
   13.17166710   81.93689728    4.90999985    1.80999994
   13.17500019  291.63800049    4.90999985    1.66999996
   13.18083382  291.63800049    4.90999985    2.00000000
   13.18500042   -1.00000000    4.90999985    1.53999996
   13.18833351   -1.00000000    4.90999985    1.33000004
   13.19166660   -1.00000000    4.90999985    1.85000002
   13.21111107   -1.00000000    4.90999985    1.78999996
   13.21444416   -1.00000000    4.90999985    1.73000002
   13.21749973   -1.00000000    4.90999985    1.73000002
   13.22388840   -1.00000000    4.90999985    1.80999994
   13.22805500   72.85659790    4.90999985    1.55999994
   13.23138809  261.83200073    4.90999985    1.71000004
   13.23472214   -1.00000000    4.90999985    1.96000004
   13.23777771   -1.00000000    4.90999985    1.75000000
   13.24111176  136.70599365    4.90999985    1.58000004
   13.24472237   -1.00000000    4.90999985    1.50000000
   13.24777794   63.20309830    4.90999985    1.60000002
   13.25111103  228.92999268    4.90999985    1.98000002
   13.25444412  207.08799744    4.90999985    2.03999996
   13.25749969   -1.00000000    4.90999985    2.01999998
   13.26083374  331.25500488    4.90999985    2.01999998
   13.26277733  116.41000366    4.90999985    2.11999989
   13.26305580  228.92999268    4.90999985    1.98000002
   13.26305580  207.08799744    4.90999985    2.03999996
   13.26305580   -1.00000000    4.90999985    2.01999998
   13.26333332  331.25500488    4.90999985    2.01999998
   13.26333332   -1.00000000    4.90999985    1.96000004
   13.26333332   -1.00000000    4.90999985    1.75000000
   13.26361084  136.70599365    4.90999985    1.58000004
   13.26361084   -1.00000000    4.90999985    1.50000000
   13.26361084   63.20309830    4.90999985    1.60000002
   13.26805496   63.20309830    4.90999985    2.13000011
   13.27222157  352.27200317    4.90999985    2.11999989
   13.27416611  187.09300232    4.90999985    2.15000010
   13.27611065  426.44500732    4.90999985    2.25000000
   13.27805519  336.13900757    4.90999985    2.05999994
   13.27944374  348.73001099    4.90999985    2.13000011
   13.28083324  347.47799683    4.90999985    2.05999994
   13.28222179  125.05000305    4.90999985    2.05999994
   13.28222179  426.44500732    4.90999985    2.25000000
   13.28277779   -1.00000000    4.90999985    2.05999994
   13.28611183  103.78099823    4.90999985    1.78999996
   13.28944492   -1.00000000    4.90999985    2.00000000
   13.29250050  130.74899292    4.90999985    1.89999998
   13.29583359  208.46299744    4.90999985    1.96000004
   13.29888916   54.46900177    4.90999985    2.09999990
   13.30305576   54.46900177    4.90999985    2.09999990
   13.30722237  171.14999390    4.90999985    2.13000011
   13.31055546  221.50199890    4.90999985    2.36999989
   13.31361103  193.63900757    4.90999985    2.01999998
   13.31611156  270.44198608    4.90999985    2.15000010
   13.31750011  236.50100708    4.90999985    2.09999990
   13.32055569  214.09100342    4.90999985    2.11999989
   13.32388878  298.78500366    4.90999985    2.30999994
   13.32694435  289.47100830    4.90999985    2.42000008
   13.33027744  189.10699463    4.90999985    2.51999998
   13.33361053  297.82598877    4.90999985    2.28999996
   13.33666611  191.64999390    4.90999985    2.07999992
   13.34000015  185.49099731    4.90999985    2.07999992
   13.34611034  185.49099731    4.90999985    1.89999998
   13.35000038  309.73098755    4.90999985    2.26999998
   13.35222244  202.07800293    4.90999985    2.17000008
   13.35222244  236.50100708    4.90999985    2.09999990
   13.35222244  214.09100342    4.90999985    2.11999989
   13.35249996  298.78500366    4.90999985    2.30999994
   13.35249996  289.47100830    4.90999985    2.42000008
   13.35249996  189.10699463    4.90999985    2.51999998
   13.35277843  297.82598877    4.90999985    2.28999996
   13.35277843  191.64999390    4.90999985    2.07999992
   13.35305595  185.49099731    4.90999985    2.07999992
   13.35305595  309.73098755    4.90999985    2.26999998
   13.35500050  198.99800110    4.90999985    2.48000002
   13.35833359  177.00399780    4.90999985    2.32999992
   13.36138916  167.54100037    4.90999985    2.44000006
   13.36472225  281.28201294    4.90999985    2.30999994
   13.36777782  228.25599670    4.90999985    2.28999996
   13.37305546  228.25599670    4.90999985    2.55999994
   13.37722206  182.74499512    4.90999985    2.09999990
   13.38027763  291.35800171    4.90999985    2.26999998
   13.38361073  254.12500000    4.90999985    2.17000008
   13.38611126  260.90399170    4.90999985    2.23000002
   13.38722229  290.15399170    4.90999985    2.30999994
   13.39055538  282.43798828    4.90999985    2.21000004
   13.39388847  237.08999634    4.90999985    2.44000006
   13.39694405  434.16598511    4.90999985    2.26999998
   13.39888859  170.63099670    4.90999985    2.19000006
   13.39916611  282.43798828    4.90999985    2.21000004
   13.39916611  237.08999634    4.90999985    2.44000006
   13.39944458  434.16598511    4.90999985    2.26999998
   13.39944458  281.28201294    4.90999985    2.30999994
   13.39944458  228.25599670    4.90999985    2.28999996
   13.39972210  182.74499512    4.90999985    2.09999990
   13.39972210  291.35800171    4.90999985    2.26999998
   13.39972210  254.12500000    4.90999985    2.17000008
   13.39999962  290.15399170    4.90999985    2.30999994
   13.40194416  210.24699402    4.90999985    2.40000010
   13.40499973  354.24200439    4.90999985    2.36999989
   13.40722179  199.69900513    4.90999985    2.26999998
   13.40722179  210.24699402    4.90999985    2.40000010
   13.40722179  354.24200439    4.90999985    2.36999989
   13.40916634  136.75799561    4.90999985    2.36999989
   13.41249943  183.00399780    4.90999985    2.28999996
   13.41583252  186.82000732    4.90999985    2.46000004
   13.41888905  145.11300659    4.90999985    2.46000004
   13.42222214  143.83700562    4.90999985    2.57999992
   13.42805576  143.83700562    4.90999985    2.53999996
   13.43194485  147.75300598    4.90999985    2.59999990
   13.43527794  158.13800049    4.90999985    2.53999996
   13.43861103  180.66600037    4.90999985    2.57999992
   13.44111156  190.34899902    4.90999985    2.51999998
   13.44222260  208.33200073    4.90999985    2.51999998
   13.44555569  182.72900391    4.90999985    2.53999996
   13.44861126  199.96699524    4.90999985    2.53999996
   13.45194435  193.05000305    4.90999985    2.44000006
   13.45527744  224.73599243    4.90999985    2.21000004
   13.45833302  215.93499756    4.90999985    2.32999992
   13.46166611  207.97000122    4.90999985    2.34999990
   13.46500015  248.40400696    4.90999985    2.40000010
   13.47083282  248.40400696    4.90999985    2.44000006
   13.47499943  134.49499512    4.90999985    2.50000000
   13.47805500  164.59500122    4.90999985    2.57999992
   13.48138809  156.32200623    4.90999985    2.48000002
   13.48472214  165.30799866    4.90999985    2.57999992
   13.48777771  153.09300232    4.90999985    2.57999992
   13.49111176  159.54899597    4.90999985    2.61999989
   13.49416733  177.61099243    4.90999985    2.59999990
   13.49750042  158.83099365    4.90999985    2.59999990
   13.50083351  172.61700439    4.90999985    2.53999996
   13.50388908  149.81900024    4.90999985    2.59999990
   13.50722218  146.19299316    4.90999985    2.57999992
   13.50777817  150.31399536    4.90999985    2.64000010
   13.51361084  150.31399536    4.90999985    2.57999992
   13.51777744  174.12899780    4.90999985    2.57999992
   13.52111053  190.37300110    4.90999985    2.53999996
   13.52416611  155.56100464    4.90999985    2.39000010
   13.52750015  165.65199280    4.90999985    2.46000004
   13.53055573  159.67199707    4.90999985    2.32999992
   13.53388977  169.68899536    4.90999985    2.44000006
   13.53722286  250.26400757    4.90999985    2.39000010
   13.54027843  245.01100159    4.90999985    2.13000011
   13.54111195  394.80499268    4.90999985    2.26999998
   13.54388905  242.93099976    4.90999985    2.26999998
   13.54722309  267.19900513    4.90999985    2.28999996
   13.55055618  242.02699280    4.90999985    2.23000002
   13.55638885  242.02699280    4.90999985    2.05999994
   13.56055546  287.88500977    4.90999985    2.11999989
   13.56388950  178.25900269    4.90999985    2.15000010
   13.56694412  329.31399536    4.90999985    2.30999994
   13.56916618  299.29998779    4.90999985    2.25000000
   13.57027817  313.33099365    4.90999985    2.21000004
   13.57166672  284.80999756    4.90999985    2.15000010
   13.57305527  199.63800049    4.90999985    2.34999990
   13.57333374  267.19900513    4.90999985    2.28999996
   13.57333374  242.02699280    4.90999985    2.23000002
   13.57333374  287.88500977    4.90999985    2.11999989
   13.57361126  178.25900269    4.90999985    2.15000010
   13.57361126  329.31399536    4.90999985    2.30999994
   13.57361126  169.68899536    4.90999985    2.44000006
   13.57388878  250.26400757    4.90999985    2.39000010
   13.57388878  245.01100159    4.90999985    2.13000011
   13.57388878  242.93099976    4.90999985    2.26999998
   13.57444477  205.29499817    4.90999985    2.40000010
   13.57777786  162.94299316    4.90999985    2.34999990
   13.58111095  188.52699280    4.90999985    2.25000000
   13.58416653  204.04400635    4.90999985    2.34999990
   13.58749962  260.87500000    4.90999985    2.28999996
   13.59388828  260.87500000    4.90999985    2.46000004
   13.59805489  183.15299988    4.90999985    2.50000000
   13.60138893  179.20199585    4.90999985    2.42000008
   13.60444450  206.60000610    4.90999985    2.59999990
   13.60694504  159.36199951    4.90999985    2.30999994
   13.60833359  177.57899475    4.90999985    2.39000010
   13.61166668  167.64999390    4.90999985    2.13000011
   13.61472225  169.07899475    4.90999985    2.51999998
   13.61805534  142.06300354    4.90999985    2.50000000
   13.62111092  161.98500061    4.90999985    2.32999992
   13.62444496  189.18400574    4.90999985    2.48000002
   13.62777805  173.34899902    4.90999985    2.46000004
   13.63083363  206.69700623    4.90999985    2.48000002
   13.63666630  206.69700623    4.90999985    2.40000010
   13.64083290  158.09100342    4.90999985    2.51999998
   13.64416695  148.76199341    4.90999985    2.55999994
   13.64750004  147.70399475    4.90999985    2.51999998
   13.65055561  150.36099243    4.90999985    2.59999990
   13.65388870  138.71899414    4.90999985    2.66000009
   13.65694427  174.20300293    4.90999985    2.55999994
   13.66027737  156.58200073    4.90999985    2.55999994
   13.66361046  144.32000732    4.90999985    2.59999990
   13.66666698  144.47000122    4.90999985    2.59999990
   13.67000008  141.10800171    4.90999985    2.57999992
   13.67333412  139.94099426    4.90999985    2.55999994
   13.67361164  133.18099976    4.90999985    2.55999994
   13.67972279  133.18099976    4.90999985    2.69000006
   13.68388939  131.41200256    4.90999985    2.67000008
   13.68694496  129.25700378    4.90999985    2.69000006
   13.69027805  131.52600098    4.90999985    2.66000009
   13.69361115  126.74800110    4.90999985    2.71000004
   13.69666672  136.91999817    4.90999985    2.71000004
   13.69999981  132.64599609    4.90999985    2.69000006
   13.70305538  133.56599426    4.90999985    2.67000008
   13.70638847  122.73799896    4.90999985    2.67000008
   13.70694447  119.91699982    4.90999985    2.71000004
   13.71000004  131.76300049    4.90999985    2.66000009
   13.71333313  134.00500488    4.90999985    2.61999989
   13.71638870  136.20799255    4.90999985    2.59999990
   13.72249985  136.20799255    4.90999985    2.64000010
   13.72666645  132.77200317    4.90999985    2.59999990
   13.85944462   -1.00000000   -1.00000000   -1.00000000
   13.95444393   -1.00000000   -1.00000000   -1.00000000
   14.05027771   -1.00000000   -1.00000000   -1.00000000
   14.08694458   76.93049622    4.90999985    2.55999994
   14.09000015  151.27200317    4.90999985    2.59999990
   14.09333324  190.44599915    4.90999985    2.55999994
   14.09638882  220.36000061    4.90999985    2.44000006
   14.09972191  150.17399597    4.90999985    2.11999989
   14.10305595   -1.00000000    4.90999985    1.86000001
   14.10722256   -1.00000000    4.90999985    2.28999996
   14.11111164  194.91799927    4.90999985    2.36999989
   14.11444473  339.79598999    4.90999985    2.30999994
   14.11638927  345.92800903    4.90999985    2.05999994
   14.11777782  398.14099121    4.90999985    2.19000006
   14.11916637  212.19099426    4.90999985    2.34999990
   14.11916637  151.27200317    4.90999985    2.59999990
   14.11944485  190.44599915    4.90999985    2.55999994
   14.11944485  220.36000061    4.90999985    2.44000006
   14.11944485  150.17399597    4.90999985    2.11999989
   14.11972237   -1.00000000    4.90999985    1.86000001
   14.11972237  194.91799927    4.90999985    2.36999989
   14.11972237  339.79598999    4.90999985    2.30999994
   14.12027836  183.80700684    4.90999985    2.15000010
   14.12361145  216.67799377    4.90999985    2.40000010
   14.12694454  117.93299866    4.90999985    2.09999990
   14.13000011  245.60600281    4.90999985    2.44000006
   14.13333321  197.85200500    4.90999985    2.28999996
   14.14000034  197.85200500    4.90999985    2.30999994
   14.14416695  144.94000244    4.90999985    2.36999989
   14.14722252  252.25399780    4.90999985    2.34999990
   14.15055561   92.68900299    4.90999985    2.17000008
   14.15305519  341.18099976    4.90999985    2.05999994
   14.15444374  218.75999451    4.90999985    2.36999989
   14.15749931  237.27000427    4.90999985    2.21000004
   14.16083336  208.50700378    4.90999985    2.21000004
   14.16416645  170.52200317    4.90999985    2.44000006
   14.16722298  197.00500488    4.90999985    2.46000004
   14.17055607  236.46099854    4.90999985    2.48000002
   14.17361164  169.65499878    4.90999985    2.48000002
   14.17694473  171.76899719    4.90999985    2.51999998
   14.18277836  171.76899719    4.90999985    2.51999998
   14.18694496  191.06100464    4.90999985    2.46000004
   14.19027805  212.97099304    4.90999985    2.46000004
   14.19333363  193.34199524    4.90999985    2.40000010
   14.19666672  244.93099976    4.90999985    2.39000010
   14.19999981  213.69099426    4.90999985    2.36999989
   14.20305538  248.99299622    4.90999985    2.40000010
   14.20638847  282.17199707    4.90999985    2.40000010
   14.20944405  265.33200073    4.90999985    2.32999992
   14.21277714  235.00300598    4.90999985    2.40000010
   14.21611118  223.80099487    4.90999985    2.40000010
   14.21916580   81.20490265    4.90999985    2.36999989
   14.21972179  158.36999512    4.90999985    2.28999996
   14.22583294  158.36999512    4.90999985    2.32999992
   14.22972202  180.31900024    4.90999985    1.78999996
   14.23305511  408.88900757    4.90999985    2.23000002
   14.23500061  215.90400696    4.90999985    2.23000002
   14.23527813  180.31900024    4.90999985    1.78999996
   14.23527813  408.88900757    4.90999985    2.23000002
   14.23527813  213.69099426    4.90999985    2.36999989
   14.23555565  248.99299622    4.90999985    2.40000010
   14.23555565  282.17199707    4.90999985    2.40000010
   14.23555565  265.33200073    4.90999985    2.32999992
   14.23583317  235.00300598    4.90999985    2.40000010
   14.23583317  223.80099487    4.90999985    2.40000010
   14.23583317   81.20490265    4.90999985    2.36999989
   14.23777771  280.94100952    4.90999985    2.34999990
   14.24111176  186.02000427    4.90999985    2.42000008
   14.24444485  211.95700073    4.90999985    2.25000000
   14.24750042  268.51098633    4.90999985    2.36999989
   14.25083351  353.05499268    4.90999985    2.44000006
   14.25277805  292.67001343    4.90999985    2.36999989
   14.25416660  280.86999512    4.90999985    2.28999996
   14.25555515  495.30398560    4.90999985    2.07999992
   14.25694466  102.32700348    4.90999985    2.23000002
   14.25694466  280.94100952    4.90999985    2.34999990
   14.25722218  186.02000427    4.90999985    2.42000008
   14.25722218  211.95700073    4.90999985    2.25000000
   14.25722218  268.51098633    4.90999985    2.36999989
   14.25749969  353.05499268    4.90999985    2.44000006
   14.25805569  399.36499023    4.90999985    2.19000006
   14.26000023  620.81896973    4.90999985    1.94000006
   14.26138878  458.05200195    4.90999985    2.13000011
   14.26277733   69.64959717    4.90999985    2.50000000
   14.26277733  399.36499023    4.90999985    2.19000006
   14.26333332  519.27001953    4.90999985    2.26999998
   14.26527786  163.68200684    4.90999985    2.25000000
   14.26749992  550.00402832    4.90999985    2.05999994
   14.26944447   90.62249756    4.90999985    2.28999996
   14.27138901   -1.00000000    4.90999985    1.96000004
   14.27472210   60.16609955    4.90999985    1.98000002
   14.27777767   88.14170074    4.90999985    2.39000010
   14.28111076  268.45098877    4.90999985    2.11999989
   14.28416729  534.70001221    4.90999985    2.01999998
   14.28638935  419.50399780    4.90999985    1.94000006
   14.28750038  336.47601318    4.90999985    2.32999992
   14.28888893  258.62899780    4.90999985    2.26999998
   14.29027843  551.05200195    4.90999985    2.42000008
   14.29166698  580.93200684    4.90999985    2.17000008
   14.29305553  309.97601318    4.90999985    2.30999994
   14.29444504  321.03500366    4.90999985    2.26999998
   14.29583359  297.74499512    4.90999985    2.25000000
   14.29722309  253.82899475    4.90999985    2.46000004
   14.29861164  257.77200317    4.90999985    2.42000008
   14.30000019  248.77299500    4.90999985    2.46000004
   14.30027771   -1.00000000    4.90999985    1.96000004
   14.30027771   60.16609955    4.90999985    1.98000002
   14.30055618   88.14170074    4.90999985    2.39000010
   14.30055618  268.45098877    4.90999985    2.11999989
   14.30055618  534.70001221    4.90999985    2.01999998
   14.30111122  270.50698853    4.90999985    2.50000000
   14.30444431  267.40798950    4.90999985    2.48000002
   14.30749989  244.84899902    4.90999985    2.48000002
   14.31083393  423.79699707    4.90999985    2.46000004
   14.31277752  383.46899414    4.90999985    2.34999990
   14.31416702  300.34500122    4.90999985    2.36999989
   14.31555557  488.00900269    4.90999985    2.23000002
   14.31694412  432.36599731    4.90999985    2.30999994
   14.31833363  459.48098755    4.90999985    2.25000000
   14.31972218  141.13499451    4.90999985    2.25000000
   14.31972218  270.50698853    4.90999985    2.50000000
   14.31999969  267.40798950    4.90999985    2.48000002
   14.31999969  244.84899902    4.90999985    2.48000002
   14.31999969  423.79699707    4.90999985    2.46000004
   14.32055569  129.35899353    4.90999985    2.19000006
   14.32388878  344.01300049    4.90999985    2.01999998
   14.32583332  351.99200439    4.90999985    2.15000010
   14.32722187  106.33300018    4.90999985    2.07999992
   14.32722187  129.35899353    4.90999985    2.19000006
   14.32750034  344.01300049    4.90999985    2.01999998
   14.32861137   97.82640076    4.90999985    2.34999990
   14.33166695   -1.00000000    4.90999985    2.26999998
   14.33500004   45.92869949    4.90999985    1.60000002
   14.33833313  112.61499786    4.90999985    1.94000006
   14.34138870  134.54600525    4.90999985    2.05999994
   14.34805489  134.54600525    4.90999985    2.21000004
   14.35222244   45.37720108    4.90999985    1.89999998
   14.35527802  182.34199524    4.90999985    1.86000001
   14.35861111   -1.00000000    4.90999985    2.13000011
   14.36111164  148.12399292    4.90999985    1.78999996
   14.36250019  144.63900757    4.90999985    2.07999992
   14.36555576   -1.00000000    4.90999985    1.80999994
   14.36888885   -1.00000000    4.90999985    2.09999990
   14.37194443   -1.00000000    4.90999985    2.13000011
   14.37527752   -1.00000000    4.90999985    1.75000000
   14.37861156   77.82019806    4.90999985    1.73000002
   14.38166714   93.93460083    4.90999985    1.89999998
   14.38500023   -1.00000000    4.90999985    1.85000002
   14.39083290   -1.00000000    4.90999985    1.51999998
   14.39499950   -1.00000000    4.90999985    1.50000000
   14.39833355   -1.00000000    4.90999985    1.36000001
   14.40138817   -1.00000000    4.90999985    1.38000000
   14.40472221   -1.00000000    4.90999985    1.58000004
   14.40805531   -1.00000000    4.90999985    1.26999998
   14.41111088   -1.00000000    4.90999985    1.55999994
   14.41444397   -1.00000000    4.90999985    1.78999996
   14.41777802   -1.00000000    4.90999985    1.71000004
   14.42083359   -1.00000000    4.90999985    1.76999998
   14.42416668   -1.00000000    4.90999985    1.85000002
   14.42722225   -1.00000000    4.90999985    1.75000000
   14.43777752   -1.00000000    4.90999985    1.76999998
   14.44111156   -1.00000000    4.90999985    1.86000001
   14.44444466   75.52439880    4.90999985    1.55999994
   14.44777775   -1.00000000    4.90999985    1.71000004
   14.45083332   49.09090042    4.90999985    1.78999996
   14.45416641   -1.00000000    4.90999985    1.71000004
   14.45722198   -1.00000000    4.90999985    1.94000006
   14.46055508   -1.00000000    4.90999985    1.50000000
   14.46416664   -1.00000000    4.90999985    1.38000000
   14.46722221   -1.00000000    4.90999985    1.85000002
