    HOUR (UT)   FLARE FACTOR    SKY TESTER    SUN TESTER
   11.46805477   -1.00000000   -1.00000000   -1.00000000
   11.49222279  297.98901367    0.01000000    0.28000000
   11.49527836  286.44198608    0.01000000    0.30000001
   11.49861145  259.80300903    0.01000000    0.30000001
   11.50194454  261.98699951    0.01000000    0.30000001
   11.50500011  248.24800110    0.01000000    0.30000001
   11.50833321  247.59199524    0.01000000    0.30000001
   11.51249981  247.59199524    0.01000000    0.30000001
   11.51666641  241.60000610    0.01000000    0.30000001
   11.51972198  229.76699829    0.01000000    0.30000001
   11.52305508  231.63800049    0.01000000    0.30000001
   11.52527714  243.58599854    0.01000000    0.30000001
   11.52666664  209.73800659    0.01000000    0.30000001
   11.52999973  226.02600098    4.90999985    1.73000002
   11.53305531  241.21899414    3.00000000    1.66999996
   11.53638935  188.73399353    3.00000000    1.69000006
   11.53972244  212.45700073    2.98000002    1.69000006
   11.54277802  231.54800415    2.96000004    1.71000004
   11.54611111  210.92799377    2.96000004    1.69000006
   11.54944515  227.71699524    2.93000007    1.71000004
   11.55527782  227.71699524    2.91000009    1.71000004
   11.55944443  220.07800293    2.89000010    1.71000004
   11.56250000  227.22799683    2.89000010    1.71000004
   11.56583309  201.25900269    2.89000010    1.73000002
   11.56916618  233.58700562    2.86999989    1.73000002
   11.57250023  210.17100525    2.86999989    1.73000002
   11.57555580  218.69299316    2.86999989    1.73000002
   11.57888889  226.20100403    2.84999990    1.75000000
   11.58222198  204.77999878    2.86999989    1.75000000
   11.58527756  198.09599304    2.84999990    1.75000000
   11.58861065  205.61300659    2.84999990    1.75000000
   11.59166622  205.59399414    2.84999990    1.76999998
   11.59222221  192.93499756    2.82999992    1.76999998
   11.59805489  192.93499756    2.82999992    1.76999998
   11.60222244  226.87600708    2.82999992    1.76999998
   11.60555553  210.03399658    2.80999994    1.78999996
   11.60861111  188.95599365    2.78999996    1.78999996
   11.61194515  202.20399475    2.76999998    1.78999996
   11.61527824  193.00700378    2.75000000    1.78999996
   11.61833382  190.07899475    2.75000000    1.78999996
   11.62166691  196.88900757    2.73000002    1.78999996
   11.62472248  182.28500366    2.71000004    1.80999994
   11.62555599  204.43499756    2.71000004    1.80999994
   11.62833309  213.27699280    2.69000006    1.80999994
   11.63166714  175.21899414    2.67000008    1.80999994
   11.63500023  176.68899536    2.66000009    1.80999994
   11.64111137  176.68899536    2.64000010    1.83000004
   11.64527798  222.82600403    2.61999989    1.83000004
   11.64833355  204.50799561    2.59999990    1.83000004
   11.65166664  184.97200012    2.57999992    1.85000002
   11.65499973  178.56300354    2.55999994    1.85000002
   11.65805531  191.98899841    2.53999996    1.85000002
   11.65916634  187.95899963    2.53999996    1.85000002
   11.66166592  195.72799683    2.53999996    1.85000002
   11.66499996  187.02200317    2.51999998    1.85000002
   11.66833401  193.35099792    2.50000000    1.85000002
   11.67138958  206.45599365    2.48000002    1.85000002
   11.67472267  185.56500244    2.48000002    1.86000001
   11.67805576  191.86599731    2.46000004    1.86000001
   11.68388939  191.86599731    2.44000006    1.86000001
   11.68805599  179.42900085    2.42000008    1.86000001
   11.69138908  169.75700378    2.40000010    1.88000000
   11.69250011  178.46899414    2.40000010    1.88000000
   11.69472218  190.10000610    2.39000010    1.88000000
   11.69805527  185.71800232    2.39000010    1.88000000
   11.70138836  166.17599487    2.39000010    1.88000000
   11.70444393  182.09599304    2.36999989    1.88000000
   11.70777798  182.61399841    2.34999990    1.89999998
   11.71111107  186.30200195    2.34999990    1.89999998
   11.71416664  179.16400146    2.34999990    1.91999996
   11.71722221  183.71099854    2.32999992    1.91999996
   11.72055531  204.93800354    2.32999992    1.91999996
   11.72666645  204.93800354    2.30999994    1.91999996
   11.73083305  177.70899963    2.30999994    1.91999996
   11.73388958  168.78700256    2.28999996    1.94000006
   11.73722267  168.04400635    2.28999996    1.94000006
   11.74055576  175.24499512    2.28999996    1.94000006
   11.74361134  172.20300293    2.26999998    1.94000006
   11.74694443  168.37100220    2.26999998    1.94000006
   11.75027752  172.95700073    2.25000000    1.94000006
   11.75333309  170.16900635    2.23000002    1.94000006
   11.75666714  169.49000549    2.23000002    1.94000006
   11.75888920  169.91499329    2.23000002    1.96000004
   11.76027775  167.60699463    2.21000004    1.96000004
   11.76361084  158.99499512    2.21000004    1.96000004
   11.76944447  158.99499512    2.19000006    1.96000004
   11.77361107  157.57299805    2.19000006    1.96000004
   11.77694416  161.20100403    2.17000008    1.98000002
   11.77999973  154.30599976    2.17000008    1.98000002
   11.78333378  160.22200012    2.17000008    1.98000002
   11.78666687  161.81199646    2.15000010    1.98000002
   11.78972244  163.62399292    2.15000010    2.00000000
   11.79222298  167.06199646    2.15000010    1.98000002
   11.79333401  149.00900269    2.15000010    2.00000000
   11.79666710  150.42199707    2.13000011    2.00000000
   11.79972267  140.39700317    2.13000011    2.00000000
   11.80305576  144.49899292    2.15000010    2.00000000
   11.80638885  152.01400757    2.17000008    2.00000000
   11.81222248  152.01400757    2.15000010    2.00000000
   11.81638908  149.74099731    2.13000011    2.01999998
   11.81972218  152.51100159    2.13000011    2.01999998
   11.82305527  153.70599365    2.13000011    2.00000000
   11.82555580  154.32400513    2.13000011    2.01999998
   11.82666683  146.92300415    2.13000011    2.01999998
   11.82999992  153.77499390    2.15000010    2.01999998
   11.83305550  149.65400696    2.15000010    2.01999998
   11.83638859  153.57800293    2.15000010    2.01999998
   11.83972168  148.24499512    2.11999989    2.03999996
   11.84277725  144.61099243    2.11999989    2.01999998
   11.84611034  155.93099976    2.11999989    2.03999996
   11.84916592  149.58299255    2.09999990    2.03999996
   11.85527802  149.58299255    2.09999990    2.03999996
   11.85944462  149.63299561    2.07999992    2.05999994
   11.86250019  145.56500244    2.07999992    2.05999994
   11.86583328  153.07899475    2.05999994    2.03999996
   11.86888885  132.53799438    2.07999992    2.03999996
   11.87222195  139.68099976    2.05999994    2.05999994
   11.87555599  142.12500000    2.05999994    2.05999994
   11.87861156  144.75900269    2.05999994    2.05999994
   11.88194466  138.13999939    2.03999996    2.05999994
   11.88527775  137.12899780    2.03999996    2.05999994
   11.88833332  153.40899658    2.03999996    2.05999994
   11.89166641  145.86999512    2.03999996    2.07999992
   11.89222240  135.00300598    2.03999996    2.07999992
   11.89805508  135.00300598    2.03999996    2.07999992
   11.90222168  147.88499451    2.03999996    2.09999990
   11.90555477  137.68499756    2.03999996    2.07999992
   11.90861034  130.00599670    2.05999994    2.07999992
   11.91194439  137.65199280    2.05999994    2.07999992
   11.91499996  131.03199768    2.05999994    2.07999992
   11.91833401  140.82200623    2.07999992    2.09999990
   11.92166710  129.88999939    2.07999992    2.09999990
   11.92472267  129.11199951    2.07999992    2.09999990
   11.92555618  135.70799255    2.09999990    2.09999990
   11.92833328  128.38999939    2.09999990    2.09999990
   11.93166733  144.19799805    2.09999990    2.09999990
   11.93472195  145.11000061    2.09999990    2.09999990
   11.94083309  145.11000061    2.09999990    2.09999990
   11.94499969  126.13999939    2.11999989    2.09999990
   11.94833374  115.58000183    2.13000011    2.09999990
   11.95138836  120.17400360    2.11999989    2.09999990
   11.95472240  133.67100525    2.13000011    2.11999989
   11.95805550  125.06500244    2.13000011    2.11999989
   11.95916653  143.03999329    2.13000011    2.11999989
   11.96138859  153.37300110    2.13000011    2.09999990
   11.96472168  125.81400299    2.13000011    2.11999989
   11.96777725  133.89700317    2.13000011    2.11999989
   11.97111034  146.92900085    2.13000011    2.11999989
   11.97444439  130.25700378    2.13000011    2.11999989
   11.97749996  147.00700378    2.13000011    2.11999989
   11.98388958  147.00700378    2.15000010    2.11999989
   11.98777771  127.10099792    2.13000011    2.11999989
   11.99111176  121.32499695    2.11999989    2.11999989
   11.99250031  122.75399780    2.11999989    2.13000011
   11.99472237  127.03099823    2.11999989    2.13000011
   11.99805546  151.38400269    2.09999990    2.13000011
   12.00111103  122.12699890    2.11999989    2.13000011
   12.00444412  145.59100342    2.13000011    2.13000011
   12.00777817  143.45700073    2.15000010    2.13000011
   12.01083374  145.78700256    2.17000008    2.13000011
   12.01416683  133.15400696    2.17000008    2.13000011
   12.01749992  128.01899719    2.15000010    2.13000011
   12.02055550  133.06199646    2.13000011    2.15000010
   12.02666664  133.06199646    2.11999989    2.15000010
   12.03083324  143.24299622    2.11999989    2.17000008
   12.03388977  122.11299896    2.11999989    2.15000010
   12.03722286  124.36199951    2.09999990    2.17000008
   12.04055595  137.04600525    2.09999990    2.17000008
   12.04361153  120.36199951    2.11999989    2.17000008
   12.04694462  126.83999634    2.13000011    2.17000008
   12.05000019  126.38500214    2.15000010    2.15000010
   12.05333328  136.66400146    2.15000010    2.15000010
   12.05666733  122.29399872    2.15000010    2.17000008
   12.05916691  120.77799988    2.15000010    2.15000010
   12.06027794  124.44499969    2.15000010    2.15000010
   12.06361103  118.67800140    2.15000010    2.17000008
   12.06944466  118.67800140    2.13000011    2.17000008
   12.07361126  127.01399994    2.17000008    2.17000008
   12.07666683  133.43099976    2.17000008    2.17000008
   12.07999992  117.99299622    2.17000008    2.17000008
   12.08333302  131.08999634    2.15000010    2.17000008
   12.08638859  126.63800049    2.17000008    2.19000006
   12.08972168  131.12500000    2.15000010    2.17000008
   12.09249973  133.91499329    2.15000010    2.19000006
   12.09333324  117.41799927    2.13000011    2.19000006
   12.09666634  122.29199982    2.15000010    2.19000006
   12.09972191  120.34200287    2.13000011    2.19000006
   12.10305595  129.62100220    2.13000011    2.19000006
   12.10638905  131.16999817    2.13000011    2.19000006
   12.11222267  131.16999817    2.13000011    2.19000006
   12.11638927  127.04399872    2.13000011    2.19000006
   12.11972237  123.47499847    2.15000010    2.19000006
   12.12277794  116.80500031    2.19000006    2.21000004
   12.12583351  122.15699768    2.19000006    2.19000006
   12.12638855  126.87999725    2.17000008    2.21000004
   12.12972260  127.83200073    2.17000008    2.21000004
   12.13277817  126.79399872    2.15000010    2.21000004
   12.13611126  124.48200226    2.13000011    2.19000006
   12.13944435  119.71900177    2.13000011    2.21000004
   12.14249992  124.09899902    2.13000011    2.21000004
   12.14583302  122.08000183    2.13000011    2.21000004
   12.14916611  117.51399994    2.11999989    2.21000004
   12.15499973  117.51399994    2.05999994    2.23000002
   12.15916634  128.81599426    2.05999994    2.23000002
   12.16249943  128.13200378    2.03999996    2.23000002
   12.16583252  124.47200012    2.03999996    2.23000002
   12.16888905  125.18900299    2.03999996    2.25000000
   12.17222214  125.88500214    2.01999998    2.23000002
   12.17527771  126.63899994    2.00000000    2.25000000
   12.17861176  131.31900024    2.00000000    2.23000002
   12.18194485  125.93000031    2.00000000    2.23000002
   12.18500042  117.79199982    2.00000000    2.25000000
   12.18833351  119.34899902    2.00000000    2.25000000
   12.19166660  123.07599640    4.90999985    2.28999996
   12.19250011  119.23899841    4.90999985    2.30999994
   12.19805527  119.23899841    4.90999985    2.32999992
   12.20222187  120.13800049    4.90999985    2.32999992
   12.20527744  124.33000183    4.90999985    2.32999992
   12.20861053  120.19699860    4.90999985    2.32999992
   12.21166611  128.59500122    4.90999985    2.34999990
   12.21500015  117.36000061    4.90999985    2.34999990
   12.21833324  117.95899963    4.90999985    2.34999990
   12.22138882  125.32499695    4.90999985    2.34999990
   12.22472191  114.18699646    4.90999985    2.34999990
   12.22583294  122.47399902    4.90999985    2.36999989
   12.22833252  126.74199677    4.90999985    2.34999990
   12.23166656  115.44000244    4.90999985    2.34999990
   12.23500061  134.34399414    4.90999985    2.34999990
   12.24083328  134.34399414    4.90999985    2.34999990
   12.24499989  115.18000031    4.90999985    2.36999989
   12.24805546  118.61399841    4.90999985    2.36999989
   12.25138855  127.59700012    4.90999985    2.36999989
   12.25472260  111.26799774    4.90999985    2.36999989
   12.25805569  120.69100189    4.90999985    2.36999989
   12.25916672  116.28600311    4.90999985    2.36999989
   12.26138878  126.05500031    4.90999985    2.34999990
   12.26472187  123.61299896    4.90999985    2.36999989
   12.26805496  132.63699341    4.90999985    2.36999989
   12.27111053  127.48699951    4.90999985    2.36999989
   12.27444458  120.59100342    4.90999985    2.36999989
   12.27750015  135.94200134    4.90999985    2.36999989
   12.28361130  135.94200134    4.90999985    2.36999989
   12.28777790  132.70899963    4.90999985    2.36999989
   12.29111195  130.30299377    4.90999985    2.36999989
   12.29250050  124.50399780    4.90999985    2.36999989
   12.29444504  118.87000275    4.90999985    2.36999989
   12.29777813  121.99400330    4.90999985    2.39000010
   12.30111122  125.68299866    4.90999985    2.39000010
   12.30416679  124.88800049    4.90999985    2.39000010
   12.30749989  124.63500214    4.90999985    2.39000010
   12.31055546  127.11100006    4.90999985    2.39000010
   12.31388950  125.68000031    4.90999985    2.39000010
   12.31722260  120.76699829    4.90999985    2.39000010
   12.32027817  124.86699677    4.90999985    2.39000010
   12.32638836  124.86699677    4.90999985    2.39000010
   12.33055592  125.54499817    4.90999985    2.39000010
   12.33388901  125.03199768    4.90999985    2.39000010
   12.33722210  123.20500183    4.90999985    2.39000010
   12.34027767  136.39799500    4.90999985    2.39000010
   12.34361076  135.42900085    4.90999985    2.39000010
   12.34694386  129.46200562    4.90999985    2.39000010
   12.35000038  130.39700317    4.90999985    2.40000010
   12.35333347  141.55799866    4.90999985    2.40000010
   12.35666752  128.56300354    4.90999985    2.40000010
   12.35916710  145.16099548    4.90999985    2.40000010
   12.36000061  140.67100525    4.90999985    2.39000010
   12.36333370  138.87500000    4.90999985    2.40000010
   12.36944485  138.87500000    4.90999985    2.40000010
   12.37361145  129.68899536    4.90999985    2.40000010
   12.37666702  141.54800415    4.90999985    2.40000010
   12.38000011  132.68200684    4.90999985    2.40000010
   12.38305569  128.77699280    4.90999985    2.40000010
   12.38638878  134.48899841    4.90999985    2.40000010
   12.38972187  129.52000427    4.90999985    2.42000008
   12.39249992  139.13800049    4.90999985    2.42000008
   12.39305496  136.48100281    4.90999985    2.42000008
   12.39638901  134.73500061    4.90999985    2.42000008
   12.39972210  139.66700745    4.90999985    2.42000008
   12.40277767  132.25700378    4.90999985    2.42000008
   12.40611076  132.53300476    4.90999985    2.42000008
   12.41222191  132.53300476    4.90999985    2.44000006
   12.41638851  134.94200134    4.90999985    2.44000006
   12.41944504  145.89700317    4.90999985    2.44000006
   12.42277813  127.98200226    4.90999985    2.42000008
   12.42583370  131.90100098    4.90999985    2.42000008
   12.42638874  136.94200134    4.90999985    2.42000008
   12.42972279  134.41499329    4.90999985    2.44000006
   12.43305588  140.91700745    4.90999985    2.42000008
   12.43611145  142.25000000    4.90999985    2.44000006
   12.43944454  141.99400330    4.90999985    2.44000006
   12.44250011  138.96099854    4.90999985    2.42000008
   12.44583321  147.78999329    4.90999985    2.44000006
   12.44916630  131.74899292    4.90999985    2.44000006
   12.45499992  131.74899292    4.90999985    2.42000008
   12.45916653  145.93899536    4.90999985    2.44000006
   12.46249962  135.40899658    4.90999985    2.44000006
   12.46555519  132.06799316    4.90999985    2.46000004
   12.46888828  148.11599731    4.90999985    2.46000004
   12.47222137  143.62100220    4.90999985    2.46000004
   12.47527695  146.64500427    4.90999985    2.44000006
   12.47861099  131.36799622    4.90999985    2.46000004
   12.48166656  148.36900330    4.90999985    2.46000004
   12.48500061  145.61300659    4.90999985    2.46000004
   12.48833370  135.02200317    4.90999985    2.46000004
   12.49138927  138.15699768    4.90999985    2.46000004
   12.49250031  137.17900085    4.90999985    2.46000004
   12.51305580  137.17900085    4.90999985    2.46000004
   12.51722240  140.89399719    4.90999985    2.46000004
   12.52055550  130.51699829    4.90999985    2.46000004
   12.52361107  144.10299683    4.90999985    2.46000004
   12.52583313  136.86900330    4.90999985    2.46000004
   12.52722168  142.50399780    4.90999985    2.48000002
   12.53055573  140.54699707    4.90999985    2.46000004
   12.53388977  160.72099304    4.90999985    2.46000004
   12.53694534  136.17399597    4.90999985    2.46000004
   12.54027843  137.26499939    4.90999985    2.46000004
   12.54361153  147.06500244    4.90999985    2.46000004
   12.54666710  144.21000671    4.90999985    2.46000004
   12.55000019  151.42900085    4.90999985    2.46000004
   12.55583382  151.42900085    4.90999985    2.48000002
   12.56000042  144.07899475    4.90999985    2.48000002
   12.56333351  139.19599915    4.90999985    2.48000002
   12.56638908  140.72000122    4.90999985    2.48000002
   12.56972218  141.18699646    4.90999985    2.46000004
   12.57305527  142.30200195    4.90999985    2.46000004
   12.57611084  151.32000732    4.90999985    2.46000004
   12.57944393  144.54299927    4.90999985    2.46000004
   12.58249950  145.18600464    4.90999985    2.46000004
   12.58583260  147.33099365    4.90999985    2.46000004
   12.58916664  136.60400391    4.90999985    2.46000004
   12.59222221  139.63200378    4.90999985    2.46000004
   12.59277725  139.18800354    4.90999985    2.46000004
   12.59861088  139.18800354    4.90999985    2.48000002
   12.60277843  131.50999451    4.90999985    2.48000002
   12.60611153  132.22300720    4.90999985    2.48000002
   12.60944462  137.83799744    4.90999985    2.48000002
   12.61250019  131.01199341    4.90999985    2.48000002
   12.61583328  140.04400635    4.90999985    2.48000002
   12.61888885  154.60600281    4.90999985    2.48000002
   12.62222195  134.65899658    4.90999985    2.48000002
   12.62555599  133.99499512    4.90999985    2.48000002
   12.62611103  142.99200439    4.90999985    2.48000002
   12.62916660  141.16799927    4.90999985    2.48000002
   12.63249969  155.01199341    4.90999985    2.48000002
   12.63555527  148.26400757    4.90999985    2.48000002
   12.64166641  148.26400757    4.90999985    2.48000002
   12.64583302  131.16499329    4.90999985    2.48000002
   12.64888859  136.13099670    4.90999985    2.48000002
   12.65222168  135.26400757    4.90999985    2.48000002
   12.65527725  136.24699402    4.90999985    2.48000002
   12.65861034  137.66499329    4.90999985    2.48000002
   12.65944386  140.65699768    4.90999985    2.48000002
   12.66222191  136.30700684    4.90999985    2.48000002
   12.66555500  144.47200012    4.90999985    2.48000002
   12.66861153  140.27999878    4.90999985    2.48000002
   12.67194462  135.98699951    4.90999985    2.48000002
   12.67500019  139.39900208    4.90999985    2.50000000
   12.67833328  136.95899963    4.90999985    2.50000000
   12.68444443  136.95899963    4.90999985    2.48000002
   12.68861103  129.52200317    4.90999985    2.50000000
   12.69166660  140.86799622    4.90999985    2.50000000
   12.69277763  125.35500336    4.90999985    2.50000000
   12.69555569  123.23500061    4.90999985    2.50000000
   12.69888878  133.55599976    4.90999985    2.50000000
   12.70194435  131.27999878    4.90999985    2.50000000
   12.70527744  120.02500153    4.90999985    2.50000000
   12.70833302  115.38899994    4.90999985    2.50000000
   12.71166611  118.76899719    4.90999985    2.50000000
   12.71500015  131.99899292    4.90999985    2.50000000
   12.71805477  123.83599854    4.90999985    2.50000000
   12.72138882  126.74500275    4.90999985    2.50000000
   12.72722149  126.74500275    4.90999985    2.50000000
   12.73138809  121.64700317    4.90999985    2.50000000
   12.73472214  122.39299774    4.90999985    2.50000000
   12.73777771  121.23699951    4.90999985    2.50000000
   12.74111176  126.02700043    4.90999985    2.50000000
   12.74444485  122.74800110    4.90999985    2.51999998
   12.74750042  122.84600067    4.90999985    2.51999998
   12.75083351  118.90399933    4.90999985    2.51999998
   12.75388908  124.40799713    4.90999985    2.50000000
   12.75722218  120.99199677    4.90999985    2.51999998
   12.75944424  120.16999817    4.90999985    2.51999998
   12.76083374  131.52299500    4.90999985    2.51999998
   12.76416683  119.91500092    4.90999985    2.51999998
   12.76999950  119.91500092    4.90999985    2.51999998
   12.77416611  126.49700165    4.90999985    2.51999998
   12.77750015  112.95099640    4.90999985    2.51999998
   12.78083324  123.94100189    4.90999985    2.53999996
   12.78388977  118.90599823    4.90999985    2.51999998
   12.78722286  119.26999664    4.90999985    2.51999998
   12.79027843  121.82399750    4.90999985    2.51999998
   12.79277802  116.08699799    4.90999985    2.51999998
   12.79416752  117.15499878    4.90999985    2.51999998
   12.79750061  125.59799957    4.90999985    2.51999998
   12.80055618  116.19699860    4.90999985    2.51999998
   12.80388927  121.43900299    4.90999985    2.51999998
   12.80694485  111.68000031    4.90999985    2.53999996
   12.81305599  111.68000031    4.90999985    2.53999996
   12.81722260  117.61399841    4.90999985    2.53999996
   12.82027817  113.40299988    4.90999985    2.53999996
   12.82361126  117.51000214    4.90999985    2.53999996
   12.82611084  115.94300079    4.90999985    2.51999998
   12.82722187  115.75399780    4.90999985    2.53999996
   12.83055592  119.28600311    4.90999985    2.53999996
   12.83361053  118.04499817    4.90999985    2.51999998
   12.83694458  119.81800079    4.90999985    2.53999996
   12.84000015  113.93000031    4.90999985    2.53999996
   12.84333324  115.66799927    4.90999985    2.53999996
   12.84666634  115.85099792    4.90999985    2.53999996
   12.85000038  118.48899841    4.90999985    2.53999996
   12.85583401  118.48899841    4.90999985    2.53999996
   12.86000061  117.50900269    4.90999985    2.53999996
   12.86305618  124.11199951    4.90999985    2.53999996
   12.86638927  121.50599670    4.90999985    2.53999996
   12.86972237  113.19899750    4.90999985    2.53999996
   12.87277794  123.44499969    4.90999985    2.53999996
   12.87611103  119.43000031    4.90999985    2.55999994
   12.87944412  114.99199677    4.90999985    2.53999996
   12.88249969  114.39800262    4.90999985    2.53999996
   12.88583279  122.58599854    4.90999985    2.53999996
   12.88888836  113.83599854    4.90999985    2.53999996
   12.89222240  118.51499939    4.90999985    2.55999994
   12.89277744  118.60299683    4.90999985    2.55999994
   12.89861107  118.60299683    4.90999985    2.53999996
   12.90277767  114.47599792    4.90999985    2.55999994
   12.90611076  122.51899719    4.90999985    2.55999994
   12.90916634  118.66799927    4.90999985    2.55999994
   12.91249943  116.86100006    4.90999985    2.55999994
   12.91555500  123.35700226    4.90999985    2.55999994
   12.91888905  112.93199921    4.90999985    2.55999994
   12.92222214  117.30500031    4.90999985    2.55999994
   12.92527771  109.78299713    4.90999985    2.55999994
   12.92611122  113.73999786    4.90999985    2.55999994
   12.92888927  112.03399658    4.90999985    2.55999994
   12.93222237  115.23300171    4.90999985    2.55999994
   12.93527794  108.36299896    4.90999985    2.55999994
   12.94138908  108.36299896    4.90999985    2.55999994
   12.94555569  112.31300354    4.90999985    2.55999994
   12.94888878  116.21700287    4.90999985    2.55999994
   12.95194435  109.99500275    4.90999985    2.55999994
   12.95527744  104.77200317    4.90999985    2.55999994
   12.95861053  114.19000244    4.90999985    2.55999994
   12.95944405  109.69499969    4.90999985    2.55999994
   12.96222210  109.01000214    4.90999985    2.57999992
   12.96555519  115.53800201    4.90999985    2.57999992
   12.96861076  105.37899780    4.90999985    2.57999992
   12.97194386  107.24199677    4.90999985    2.57999992
   12.97527695  111.18199921    4.90999985    2.57999992
   12.97833252  110.00900269    4.90999985    2.57999992
   12.98444462  110.00900269    4.90999985    2.57999992
   12.98833370  104.28199768    4.90999985    2.57999992
   12.99166679  107.80799866    4.90999985    2.57999992
   12.99277782  104.70700073    4.90999985    2.57999992
   12.99527836  105.84500122    4.90999985    2.57999992
   12.99861145  105.87200165    4.90999985    2.57999992
   13.00166702  103.87000275    4.90999985    2.57999992
   13.00500011  102.77899933    4.90999985    2.59999990
   13.00833321  106.07800293    4.90999985    2.59999990
   13.01138878   98.78320313    4.90999985    2.59999990
   13.01472187  107.37899780    4.90999985    2.59999990
   13.01805496  105.85399628    4.90999985    2.59999990
   13.02111053  111.11199951    4.90999985    2.59999990
   13.02722168  111.11199951    4.90999985    2.59999990
   13.03138828  102.16500092    4.90999985    2.59999990
   13.03444481   99.78479767    4.90999985    2.57999992
   13.03777790  105.64700317    4.90999985    2.59999990
   13.04111195  102.36100006    4.90999985    2.59999990
   13.04416752  102.83499908    4.90999985    2.59999990
   13.04750061  107.82099915    4.90999985    2.59999990
   13.05055618  102.27600098    4.90999985    2.59999990
   13.05388927  114.09400177    4.90999985    2.59999990
   13.05722237  107.70899963    4.90999985    2.59999990
   13.05944443  109.30899811    4.90999985    2.59999990
   13.06083393  106.82700348    4.90999985    2.59999990
   13.06416702  104.62699890    4.90999985    2.57999992
   13.06999969  104.62699890    4.90999985    2.59999990
   13.07416630  104.58000183    4.90999985    2.59999990
   13.07750034  109.36199951    4.90999985    2.59999990
   13.08055592  105.88800049    4.90999985    2.59999990
   13.08388901  100.09300232    4.90999985    2.61999989
   13.08694458  104.48799896    4.90999985    2.61999989
   13.09027767  101.68599701    4.90999985    2.59999990
   13.09277725  103.83599854    4.90999985    2.59999990
   13.09388828  103.31199646    4.90999985    2.59999990
   13.09722233   97.88939667    4.90999985    2.59999990
   13.10055637  101.09500122    4.90999985    2.61999989
   13.10361195  103.98600006    4.90999985    2.59999990
   13.10694504  102.19400024    4.90999985    2.59999990
   13.11277771  102.19400024    4.90999985    2.61999989
   13.11694431  101.63400269    4.90999985    2.61999989
   13.12027836  101.83899689    4.90999985    2.61999989
   13.12333393   99.17680359    4.90999985    2.61999989
   13.12611103  101.06199646    4.90999985    2.59999990
   13.12694454  101.92900085    4.90999985    2.59999990
   13.13027763  105.08100128    4.90999985    2.59999990
   13.13333321  102.47299957    4.90999985    2.61999989
   13.13666630  106.16300201    4.90999985    2.61999989
   13.14000034  102.30500031    4.90999985    2.61999989
   13.14305496  103.41500092    4.90999985    2.61999989
   13.14638901  103.90799713    4.90999985    2.61999989
   13.14944458  103.41699982    4.90999985    2.61999989
   13.15583324  103.41699982    4.90999985    2.61999989
   13.15972137  106.62500000    4.90999985    2.61999989
   13.16305542  103.11199951    4.90999985    2.61999989
   13.16638851  102.71199799    4.90999985    2.61999989
   13.16944504   99.51560211    4.90999985    2.55999994
   13.17277813   96.86399841    4.90999985    2.55999994
   13.17611122   98.80380249    4.90999985    2.53999996
   13.17916679  105.25499725    2.59999990    2.51999998
   13.18249989  104.73999786    1.53999996    2.53999996
   13.18555546  101.29399872    1.53999996    2.53999996
   13.18888855   98.29519653    1.53999996    2.53999996
   13.19222260   99.01339722    1.53999996    2.53999996
   13.19277763  101.83300018    1.53999996    2.53999996
   13.19861126  101.83300018    1.51999998    2.53999996
   13.20277786  104.17500305    1.50000000    2.53999996
   13.20583344  102.26100159    1.50000000    2.53999996
   13.20916653  102.83699799    1.50000000    2.53999996
   13.21249962  100.21600342    1.50000000    2.53999996
   13.21555519  102.60700226    1.50000000    2.55999994
   13.21888828  102.63500214    1.50000000    2.53999996
   13.22194386  100.40499878    1.50000000    2.55999994
   13.22527695   99.71839905    1.50000000    2.55999994
   13.22611046  101.41999817    1.50000000    2.53999996
   13.22888851  104.54900360    1.51999998    2.55999994
   13.23222160   99.87529755    1.53999996    2.55999994
   13.23527813   98.71379852    1.53999996    2.53999996
   13.24138927   98.71379852    1.53999996    2.53999996
   13.24555588  104.04000092    1.50000000    2.53999996
   13.24888897  101.72499847    1.50000000    2.53999996
   13.25194454  102.19799805    1.48000002    2.53999996
   13.25527763   96.61139679    1.48000002    2.55999994
   13.25861073  105.33699799    1.48000002    2.53999996
   13.25972176   97.54380035    1.48000002    2.53999996
   13.26194477  103.42099762    1.46000004    2.55999994
   13.26527786   98.25669861    1.48000002    2.55999994
   13.26833344  102.82800293    1.48000002    2.55999994
   13.27166653  100.22599792    1.48000002    2.55999994
   13.27499962   99.47979736    1.46000004    2.53999996
   13.27805519   99.99919891    1.46000004    2.53999996
   13.28416729   99.99919891    1.46000004    2.53999996
   13.28833389  106.37799835    1.46000004    2.55999994
   13.29166698  107.90599823    1.46000004    2.55999994
   13.29305553  100.99299622    1.46000004    2.55999994
   13.29527855  106.01200104    1.46000004    2.55999994
   13.29861164  103.55699921    1.46000004    2.55999994
   13.30166721  110.18399811    1.46000004    2.55999994
   13.30500031  102.50900269    1.48000002    2.55999994
   13.30833340  103.21900177    1.48000002    2.55999994
   13.31138897  108.90299988    1.46000004    2.57999992
   13.31472206  104.56300354    1.46000004    2.55999994
   13.31805515  105.42900085    1.46000004    2.55999994
   13.32111073  105.96299744    1.46000004    2.55999994
   13.32722187  105.96299744    1.46000004    2.55999994
   13.33111095  102.21800232    1.46000004    2.55999994
   13.33444405  102.63500214    1.44000006    2.57999992
   13.33777714   95.17109680    1.39999998    2.55999994
   13.34083271  101.14600372    1.39999998    2.57999992
   13.34416676  102.22699738    1.38000000    2.57999992
   13.34749985  100.31199646    1.38000000    2.57999992
   13.35055637   96.95899963    1.36000001    2.55999994
   13.35388947   99.74949646    1.36000001    2.57999992
   13.35722256  101.37599945    1.38000000    2.57999992
   13.35972214  102.10700226    1.36000001    2.57999992
   13.36055565  101.83899689    1.36000001    2.57999992
   13.36388969  101.47299957    1.36000001    2.57999992
   13.36999989  101.47299957    1.33000004    2.57999992
   13.37416649  103.98400116    1.34000003    2.57999992
   13.37722206  105.27500153    1.34000003    2.57999992
   13.38055611  102.70300293    1.34000003    2.57999992
   13.38388920  102.27500153    1.33000004    2.59999990
   13.38694477  107.36299896    1.33000004    2.57999992
   13.39027786   97.09649658    1.33000004    2.59999990
   13.39305496  106.79699707    1.33000004    2.57999992
   13.39388847  101.58999634    1.33000004    2.57999992
   13.39722252  102.60199738    1.33000004    2.59999990
   13.40055561  104.97799683    1.33000004    2.57999992
   13.40361118   98.85230255    1.30999994    2.59999990
   13.40694427  104.56900024    1.30999994    2.57999992
   13.41277695  104.56900024    1.33000004    2.59999990
   13.41694450   96.36799622    1.33000004    2.57999992
   13.42027855   96.87660217    1.34000003    2.59999990
   13.42333412   97.07579803    1.34000003    2.57999992
   13.42638874   99.79290009    1.36000001    2.57999992
   13.42694473  100.05799866    1.36000001    2.57999992
   13.43027782   98.95709991    1.36000001    2.57999992
   13.43361092   98.49929810    1.36000001    2.57999992
   13.43666649  101.14099884    1.36000001    2.57999992
   13.44000053  100.47699738    1.36000001    2.57999992
   13.44305515  101.14700317    1.36000001    2.57999992
   13.44638920  104.12699890    1.34000003    2.57999992
   13.44972229  105.56600189    1.36000001    2.57999992
   13.45555496  105.56600189    1.34000003    2.57999992
   13.45972157  105.78900146    1.36000001    2.57999992
   13.46305561  108.46099854    1.36000001    2.59999990
   13.46611118  106.76899719    1.36000001    2.57999992
   13.46944427   99.76419830    1.38000000    2.59999990
   13.47277737  102.59300232    1.38000000    2.59999990
   13.47583294  101.58200073    1.38000000    2.57999992
   13.47916603   98.33419800    1.38000000    2.57999992
   13.48249912   98.30249786    1.39999998    2.59999990
   13.48555565   96.46350098    1.39999998    2.57999992
   13.48888874   98.94460297    1.39999998    2.57999992
   13.49194431   94.61799622    1.39999998    2.57999992
   13.49305534   98.97530365    1.39999998    2.57999992
   13.49861145   98.97530365    1.41999996    2.57999992
   13.50249958   90.91490173    1.41999996    2.59999990
   13.50583363   93.15419769    1.41999996    2.59999990
   13.50916672   98.35949707    1.41999996    2.59999990
   13.52666664   96.95400238    1.39999998    2.59999990
   13.52916622   94.95970154    1.39999998    2.59999990
   13.53222179   97.38899994    1.39999998    2.59999990
   13.53555584   98.65339661    1.38000000    2.59999990
   13.54138947   98.65339661    1.36000001    2.59999990
   13.54555607   95.07109833    1.36000001    2.59999990
   13.54888916   96.10569763    1.36000001    2.59999990
   13.55222225  101.03700256    1.38000000    2.59999990
   13.55527782   95.95929718    1.36000001    2.59999990
   13.55861092   97.08409882    1.34000003    2.59999990
   13.56000042   91.00350189    1.34000003    2.59999990
   13.56222248   92.77400208    1.34000003    2.59999990
   13.56555557   98.55200195    1.34000003    2.59999990
   13.56888866  100.83399963    1.36000001    2.59999990
   13.57194424   94.91809845    1.36000001    2.59999990
   13.57527733   92.72090149    1.38000000    2.59999990
   13.57861137   94.24440002    1.38000000    2.59999990
   13.58444405   94.24440002    1.36000001    2.59999990
   13.58861065   92.78520203    1.36000001    2.59999990
   13.59166622   91.89610291    1.36000001    2.59999990
   13.59333324   97.44860077    1.36000001    2.59999990
   13.59527779  101.06700134    1.36000001    2.59999990
   13.59861088   97.56079865    1.36000001    2.59999990
   13.60194492   95.83580017    1.34000003    2.59999990
   13.60500050   94.47879791    1.36000001    2.59999990
   13.60833359   98.48829651    1.36000001    2.59999990
   13.61166668   92.61519623    1.36000001    2.59999990
   13.61472225   93.53690338    1.36000001    2.61999989
   13.61805534   94.00520325    1.36000001    2.59999990
   13.62138939   94.38310242    1.36000001    2.59999990
   13.62722206   94.38310242    1.34000003    2.59999990
   13.63138866   94.51670074    1.33000004    2.59999990
   13.63444424   97.93029785    1.33000004    2.59999990
   13.63777733   96.31330109    1.33000004    2.61999989
   13.64111137  102.81300354    1.33000004    2.61999989
   13.64416695  101.63999939    1.30999994    2.61999989
   13.64750004  100.67099762    1.30999994    2.61999989
   13.65083313   96.59909821    1.26999998    2.61999989
   13.65388870   98.02770233    1.26999998    2.59999990
   13.65722179   96.17189789    1.25000000    2.61999989
   13.65999985   99.78540039    1.25000000    2.61999989
   13.66083336   99.14399719    1.23000002    2.61999989
   13.66416645  100.88099670    1.23000002    2.61999989
   13.67000008  100.88099670    1.21000004    2.61999989
   13.67416668   98.00219727    1.21000004    2.61999989
   13.67750072   97.31099701    1.21000004    2.64000010
   13.68055630   99.62770081    1.21000004    2.61999989
   13.68388939   93.77069855    1.21000004    2.61999989
   13.68722248  100.28299713    1.23000002    2.61999989
   13.69027805   99.84880066    1.23000002    2.61999989
   13.69333363   94.86640167    1.23000002    2.61999989
   13.69388866   94.87789917    1.23000002    2.61999989
   13.69722271   95.61579895    1.23000002    2.61999989
   13.70055580   94.86920166    1.23000002    2.61999989
   13.70361137   94.18840027    1.21000004    2.61999989
   13.70694447   93.70059967    1.21000004    2.61999989
   13.71277714   93.70059967    1.21000004    2.61999989
   13.71694374   97.65730286    1.19000006    2.64000010
   13.72027779  103.05200195    1.21000004    2.61999989
   13.72361088   98.00240326    1.23000002    2.61999989
   13.72666645   95.94879913    1.23000002    2.61999989
   13.72694397   95.22429657    1.23000002    2.61999989
   13.73027706   95.51809692    1.23000002    2.61999989
   13.73361111   97.66429901    1.25000000    2.61999989
   13.73666668   94.45719910    1.25000000    2.64000010
   13.74000072   99.61849976    1.25000000    2.61999989
   13.74333382   92.59660339    1.26999998    2.64000010
   13.74638939   97.11840057    1.26999998    2.64000010
   13.74972248   99.76809692    1.26999998    2.61999989
   13.75583363   99.76809692    1.30999994    2.64000010
   13.76000023  102.38300323    1.33000004    2.64000010
   13.76027775   94.27339935    1.33000004    2.64000010
   13.76361084  106.54699707    1.33000004    2.61999989
   13.76694393  102.48600006    1.33000004    2.61999989
   13.76999950  100.70600128    1.30999994    2.64000010
   13.77333355  100.63099670    1.30999994    2.64000010
   13.77666664  104.23300171    1.25000000    2.61999989
   13.77972221  100.38200378    1.25000000    2.64000010
   13.78305531  101.88899994    1.23000002    2.64000010
   13.78638935  102.05400085    1.21000004    2.64000010
   13.78944492  105.64800262    1.21000004    2.64000010
   13.79277802   99.80390167    1.21000004    2.64000010
   13.79333401  100.34799957    1.21000004    2.64000010
   13.79861164  100.34799957    1.19000006    2.64000010
   13.80277824  102.84300232    1.21000004    2.64000010
   13.80583382   98.77500153    1.19000006    2.64000010
   13.80916691  102.91300201    1.16999996    2.64000010
   13.81250000   98.30370331    1.16999996    2.64000010
   13.81555557  100.95600128    1.14999998    2.64000010
   13.81888866   99.60299683    1.14999998    2.64000010
   13.82194424   98.44229889    1.16999996    2.64000010
   13.82527733  105.56400299    1.14999998    2.64000010
   13.82666683  101.66200256    1.14999998    2.64000010
   13.82888889   99.83419800    1.14999998    2.64000010
   13.83222198  103.70099640    1.14999998    2.66000009
   13.83555508  100.19300079    1.13000000    2.64000010
   13.84138870  100.19300079    1.13000000    2.66000009
   13.84555531  100.93499756    1.13000000    2.64000010
   13.84888840  100.03099823    1.14999998    2.64000010
   13.85194492   98.90640259    1.14999998    2.64000010
   13.85527802  101.74099731    1.13000000    2.64000010
   13.85833359   99.15139771    1.16999996    2.64000010
   13.86000061  100.06700134    1.16999996    2.64000010
   13.86222267   98.07060242    1.19000006    2.64000010
   13.86527824   99.45169830    1.19000006    2.64000010
   13.86861134   97.75060272    1.21000004    2.64000010
   13.87166691   99.69799805    1.21000004    2.64000010
   13.87500000   96.70120239    1.23000002    2.64000010
   13.87833309   99.20950317    1.23000002    2.64000010
   13.88416672   99.20950317    1.23000002    2.64000010
   13.88833332   99.65260315    1.23000002    2.64000010
   13.89166641   98.63159943    1.26999998    2.64000010
   13.89333344  101.14700317    1.26999998    2.64000010
   13.89499950  106.87100220    1.28999996    2.64000010
   13.89833355   97.63909912    1.26999998    2.64000010
   13.90166664  104.64099884    1.28999996    2.64000010
   13.90472221  104.37899780    1.26999998    2.64000010
   13.90805531  100.99700165    1.26999998    2.64000010
   13.91138840  103.49099731    1.26999998    2.64000010
   13.91444397  103.01799774    1.25000000    2.64000010
   13.91777802  101.73600006    1.25000000    2.64000010
   13.92111111   97.31179810    1.25000000    2.64000010
   13.92722225   97.31179810    1.25000000    2.66000009
   13.93111134   96.55130005    1.25000000    2.64000010
   13.93444443  100.96099854    1.25000000    2.66000009
   13.93777752   99.71980286    1.25000000    2.64000010
   13.94083309  103.45600128    1.26999998    2.64000010
   13.94416714   99.56800079    1.28999996    2.64000010
   13.94750023  100.56500244    1.28999996    2.64000010
   13.95055580   98.44570160    1.30999994    2.64000010
   13.95388889   99.84470367    1.28999996    2.64000010
   13.95722198   99.79550171    1.28999996    2.66000009
   13.96000004  100.11599731    1.28999996    2.64000010
   13.96055508   99.21779633    1.28999996    2.64000010
   13.96388912  100.15899658    1.28999996    2.64000010
   13.96999931  100.15899658    1.26999998    2.64000010
   13.97416592  102.18000031    1.26999998    2.66000009
   13.97722149   99.51820374    1.26999998    2.64000010
   13.98055553   97.57070160    1.25000000    2.64000010
   13.98361111  102.20400238    1.23000002    2.66000009
   13.98694515   96.67079926    1.21000004    2.66000009
   13.99027824  101.60800171    1.21000004    2.66000009
   13.99333382  105.05699921    1.21000004    2.64000010
   13.99361134   99.56670380    1.21000004    2.64000010
   13.99694443  101.94000244    1.21000004    2.66000009
   14.00027752  102.21299744    1.21000004    2.64000010
   14.00333309  104.36900330    1.21000004    2.66000009
   14.00666714  103.59400177    1.21000004    2.66000009
   14.01277733  103.59400177    1.19000006    2.66000009
   14.01694393  106.28299713    1.19000006    2.66000009
   14.01999950  109.23799896    1.19000006    2.66000009
   14.02333355  105.68800354    1.19000006    2.66000009
   14.02666664  106.12699890    1.19000006    2.66000009
   14.02722168  105.56900024    1.19000006    2.66000009
   14.03027725  100.90499878    1.21000004    2.66000009
   14.03361130  101.22399902    1.23000002    2.66000009
   14.03666687  103.14099884    1.25000000    2.66000009
   14.04000092  108.65100098    1.25000000    2.66000009
   14.04333401  106.64299774    1.23000002    2.66000009
   14.04638958  107.54499817    1.23000002    2.66000009
   14.04972267  106.03900146    1.25000000    2.66000009
   14.05555534  106.03900146    1.25000000    2.66000009
   14.05972195  109.92299652    1.26999998    2.66000009
   14.06027794  110.70899963    1.26999998    2.66000009
   14.06361103  105.64800262    1.28999996    2.66000009
   14.06666660  111.75099945    1.26999998    2.66000009
   14.06999969  109.42199707    1.28999996    2.66000009
   14.07333374  107.12500000    1.26999998    2.66000009
   14.07638836  109.88700104    1.28999996    2.66000009
   14.07972240  105.71199799    1.28999996    2.66000009
   14.08305550  109.15799713    1.26999998    2.66000009
   14.08611107  109.62899780    1.28999996    2.66000009
   14.08944416  105.58999634    1.23000002    2.66000009
   14.09277725  104.78700256    1.21000004    2.66000009
   14.09361076  107.60700226    1.23000002    2.66000009
   14.09861088  107.60700226    1.21000004    2.66000009
   14.10249996  117.47100067    1.21000004    2.67000008
   14.10583401  111.37899780    1.21000004    2.66000009
   14.10916710  107.93299866    1.19000006    2.66000009
   14.11222267  110.70099640    1.21000004    2.66000009
   14.11555576  110.72899628    1.21000004    2.66000009
   14.11888885  101.80100250    1.19000006    2.66000009
   14.12194443  111.51799774    1.19000006    2.66000009
   14.12527752  110.41600037    1.19000006    2.66000009
   14.12694454  111.29100037    1.19000006    2.66000009
   14.12888908  110.03700256    1.19000006    2.66000009
   14.13194466  116.88700104    1.19000006    2.66000009
   14.13527775  111.06199646    1.14999998    2.67000008
   14.14138889  111.06199646    1.16999996    2.66000009
   14.14555550  110.12899780    1.16999996    2.66000009
   14.14861107  103.49400330    1.16999996    2.66000009
   14.15194416  110.65599823    1.16999996    2.66000009
   14.15499973  105.16600037    1.14999998    2.66000009
   14.15833282  109.25900269    1.14999998    2.66000009
   14.16027737  102.96099854    1.13000000    2.67000008
   14.16194439  108.11900330    1.13000000    2.67000008
   14.16527748  106.12100220    1.11000001    2.67000008
   14.16833401  105.90899658    1.09000003    2.67000008
   14.17166710  113.46600342    1.07000005    2.67000008
   14.17472267  119.94999695    1.07000005    2.67000008
   14.17805576  112.43399811    1.03999996    2.67000008
   14.18416691  112.43399811    1.01999998    2.67000008
   14.18833351  111.45600128    1.00000000    2.67000008
   14.19138908  106.55599976    1.00000000    2.67000008
   14.19361115  105.56500244    1.00000000    2.67000008
   14.19527817  113.20200348    1.00000000    2.67000008
   14.19833374  108.73899841    1.00000000    2.67000008
   14.20166683  106.74400330    1.00000000    2.69000006
   14.20499992  109.26399994    1.00000000    2.69000006
   14.20805550  112.94899750    1.00000000    2.69000006
   14.21138859  108.04299927    1.00000000    2.67000008
   14.21444416  108.51599884    1.01999998    2.69000006
   14.21777725  109.73400116    1.01999998    2.67000008
   14.22111034  110.99900055    1.05999994    2.69000006
   14.22694397  110.99900055    1.11000001    2.67000008
   14.23111057  114.08399963    1.13000000    2.67000008
   14.23444462  105.69599915    1.13000000    2.67000008
   14.23750019  116.93599701    1.13000000    2.67000008
   14.24083328  116.58599854    1.11000001    2.67000008
   14.24416733  126.17600250    1.09000003    2.67000008
   14.24722290  111.17299652    1.09000003    2.67000008
   14.25055599  104.73300171    1.11000001    2.67000008
   14.25388908  119.85600281    1.11000001    2.67000008
   14.25694466  109.42199707    1.13000000    2.67000008
   14.26027775  106.88899994    1.13000000    2.67000008
   14.26083374  108.56400299    1.13000000    2.67000008
   14.26388931  111.85800171    1.13000000    2.66000009
   14.26999950  111.85800171    1.09000003    2.67000008
   14.27388859  112.04100037    1.11000001    2.67000008
   14.27722168  116.54499817    1.14999998    2.69000006
   14.28055573  111.41400146    1.16999996    2.67000008
   14.28361130  111.95700073    1.23000002    2.67000008
   14.28694534  115.11900330    1.23000002    2.66000009
   14.29000092  120.55400085    1.25000000    2.67000008
   14.29333401  109.06700134    1.25000000    2.66000009
   14.29416752  117.19899750    1.25000000    2.67000008
   14.29694462  105.79299927    1.23000002    2.67000008
   14.30027771  114.01300049    1.23000002    2.66000009
   14.30361176  112.35700226    1.23000002    2.66000009
   14.30666733  110.13099670    1.23000002    2.67000008
   14.31277752  110.13099670    1.21000004    2.67000008
   14.31694412  116.86199951    1.23000002    2.66000009
   14.31999969  106.57199860    1.21000004    2.67000008
   14.32333374  109.48100281    1.21000004    2.67000008
   14.32638836  105.47899628    1.19000006    2.67000008
   14.32750034  110.68699646    1.19000006    2.67000008
   14.33027744  110.17400360    1.16999996    2.67000008
   14.33333302  111.76499939    1.16999996    2.67000008
   14.33666611  119.61299896    1.16999996    2.67000008
   14.33972168  114.39399719    1.14999998    2.67000008
   14.34305477  113.21299744    1.11000001    2.67000008
   14.34638882  117.54799652    1.11000001    2.67000008
   14.34944439  117.45099640    1.13000000    2.67000008
   14.35555553  117.45099640    1.11000001    2.67000008
   14.35972214  111.77300262    1.14999998    2.67000008
   14.36083412  114.09300232    1.14999998    2.67000008
   14.36333370  111.23100281    1.14999998    2.67000008
   14.36638927  109.62599945    1.14999998    2.67000008
   14.36972237  107.85299683    1.13000000    2.67000008
   14.37277794  114.23200226    1.13000000    2.67000008
   14.37611103  110.06999969    1.11000001    2.67000008
   14.37944412  113.45600128    1.13000000    2.67000008
   14.38277817  116.14499664    1.13000000    2.69000006
   14.38583279  114.74400330    1.16999996    2.67000008
   14.38916683  113.61399841    1.21000004    2.67000008
   14.39249992  109.34200287    1.21000004    2.67000008
   14.39416695  109.99099731    1.21000004    2.67000008
   14.39833355  109.99099731    1.16999996    2.67000008
   14.40249920  115.63600159    1.14999998    2.67000008
   14.40583324  114.81500244    1.16999996    2.67000008
   14.40888882  114.36499786    1.14999998    2.67000008
   14.41222191  113.78399658    1.13000000    2.69000006
   14.41555500  115.12300110    1.11000001    2.69000006
   14.41888905  113.37899780    1.11000001    2.69000006
   14.42194462  114.40100098    1.09000003    2.67000008
   14.42527771  113.67500305    1.09000003    2.69000006
   14.42750072  109.94100189    1.09000003    2.69000006
   14.42916679  113.48899841    1.11000001    2.69000006
   14.43222237  113.26000214    1.11000001    2.69000006
   14.43555546  111.20400238    1.11000001    2.67000008
   14.44138908  111.20400238    1.09000003    2.69000006
   14.44527817  125.65100098    1.09000003    2.69000006
   14.44861126  115.37999725    1.19000006    2.71000004
   14.45194435  117.54599762    1.19000006    2.67000008
   14.45499992  116.87500000    1.23000002    2.67000008
   14.45833302  124.20500183    1.23000002    2.69000006
   14.46083355  115.18000031    1.21000004    2.69000006
   14.46222210  115.90899658    1.21000004    2.69000006
   14.46527767  117.84999847    1.19000006    2.69000006
   14.46861076  126.68699646    1.19000006    2.69000006
   14.47166634  120.60800171    1.14999998    2.69000006
   14.47499943  125.82700348    1.14999998    2.69000006
   14.47833252  123.97499847    1.16999996    2.69000006
   14.48416710  123.97499847    1.26999998    2.69000006
   14.48833370  118.21199799    1.28999996    2.67000008
   14.49138927  116.07199860    1.28999996    2.67000008
   14.49416733  118.08200073    1.26999998    2.67000008
   14.49527836  119.17099762    1.26999998    2.67000008
   14.49833393  117.88800049    1.19000006    2.69000006
   14.50166702  123.73999786    1.19000006    2.67000008
   14.50472260  121.76599884    1.19000006    2.67000008
   14.50805569  126.79900360    1.19000006    2.67000008
   14.51138878  119.86199951    1.19000006    2.69000006
   14.51444435  117.63899994    1.21000004    2.67000008
   14.51777744  121.28299713    1.19000006    2.67000008
   14.52111053  126.26399994    1.28999996    2.67000008
   14.52694416  126.26399994    1.30999994    2.67000008
   14.54555607  118.61699677    1.26999998    2.67000008
   14.54861164  128.68899536    1.26999998    2.67000008
   14.55194473  125.76100159    1.21000004    2.67000008
   14.55500031  121.45099640    1.19000006    2.69000006
   14.55833340  124.39499664    1.16999996    2.69000006
   14.56166649  130.33200073    1.13000000    2.69000006
   14.56472206  131.66799927    1.11000001    2.69000006
   14.57027817  131.66799927    1.03999996    2.69000006
   14.57416630  116.90399933    1.03999996    2.69000006
   14.57750034  110.82399750    1.03999996    2.69000006
   14.57861137  128.14799500    1.03999996    2.69000006
   14.58111095  129.30299377    1.13000000    2.71000004
   14.58444405  111.01599884    1.13000000    2.69000006
   14.58749962  124.19999695    1.21000004    2.69000006
   14.59083271  129.45199585    1.21000004    2.67000008
   14.59416676  126.91799927    1.21000004    2.67000008
   14.59722233  129.17700195    1.21000004    2.67000008
   14.60055637  120.60800171    1.19000006    2.69000006
   14.60388947  113.88200378    1.19000006    2.69000006
   14.60694504  112.52799988    1.19000006    2.67000008
   14.61305618  112.52799988    1.21000004    2.69000006
   14.61722279  124.92099762    1.21000004    2.67000008
   14.62027836  128.67900085    1.19000006    2.69000006
   14.62361145  127.26799774    1.21000004    2.69000006
   14.62666702  122.89700317    1.19000006    2.69000006
   14.63000011  133.14199829    1.19000006    2.69000006
   14.63333321  123.91300201    1.21000004    2.67000008
   14.63638878  127.24700165    1.23000002    2.69000006
   14.63972187  131.34199524    1.25000000    2.69000006
   14.64305496  118.42700195    1.25000000    2.69000006
   14.64527798  121.40599823    1.25000000    2.69000006
   14.64666653  117.35399628    1.28999996    2.67000008
   14.64999962  128.51100159    1.28999996    2.67000008
   14.65583324  128.51100159    1.26999998    2.69000006
   14.65999985  116.42700195    1.21000004    2.69000006
   14.66305542  119.09300232    1.14999998    2.69000006
   14.66638851  120.14399719    1.14999998    2.69000006
   14.66972256  119.70800018    1.11000001    2.71000004
   14.67277813  118.73100281    1.11000001    2.69000006
   14.67611122  124.97499847    1.14999998    2.69000006
   14.67861176  127.42099762    1.16999996    2.69000006
   14.67972279  124.00700378    1.14999998    2.69000006
   14.68305588  122.98999786    1.14999998    2.69000006
   14.68611145  119.17900085    1.13000000    2.69000006
   14.68944454  118.03399658    1.13000000    2.71000004
   14.69277763  116.04000092    1.14999998    2.69000006
   14.69861126  116.04000092    1.16999996    2.69000006
   14.70277786  123.79100037    1.16999996    2.69000006
   14.70611095  117.73300171    1.16999996    2.69000006
   14.70916653  128.09500122    1.13000000    2.69000006
   14.71194458  121.75000000    1.09000003    2.71000004
   14.71277714  121.44300079    1.09000003    2.71000004
   14.71611118  120.63800049    1.03999996    2.69000006
   14.71944427  120.35399628    1.03999996    2.69000006
   14.72249985  123.53900146    1.03999996    2.69000006
   14.72583294  118.01000214    1.03999996    2.71000004
   14.72888851  120.19300079    1.05999994    2.71000004
   14.73222160  123.19000244    1.05999994    2.71000004
   14.73555565  115.11199951    1.05999994    2.71000004
   14.74138927  115.11199951    1.09000003    2.69000006
   14.74555588  122.42400360    1.09000003    2.69000006
   14.74888897  125.34100342    1.11000001    2.69000006
   14.75222206  132.80000305    1.11000001    2.71000004
   14.75555515  121.23100281    1.13000000    2.71000004
   14.75861073  126.78199768    1.13000000    2.69000006
   14.76194477  123.61100006    1.14999998    2.71000004
   14.76527786  114.58399963    1.14999998    2.71000004
   14.76833344  116.94999695    1.14999998    2.69000006
   14.77166653  117.93099976    1.14999998    2.69000006
   14.77472210  127.14099884    1.14999998    2.71000004
   14.77805519  129.02099609    1.11000001    2.69000006
   14.77861118  126.86299896    1.11000001    2.69000006
   14.78444481  126.86299896    1.13000000    2.69000006
   14.78861141  115.39199829    1.14999998    2.69000006
   14.79166698  127.62000275    1.09000003    2.71000004
   14.79500008  126.43499756    1.07000005    2.71000004
   14.79833412  120.54599762    1.07000005    2.71000004
   14.80138874  124.74099731    1.09000003    2.71000004
   14.80472279  122.08499908    1.09000003    2.71000004
   14.80777836  130.91600037    1.09000003    2.71000004
   14.81111145  126.66000366    1.09000003    2.71000004
   14.81194496  125.47699738    1.09000003    2.71000004
   14.81472206  131.94200134    1.11000001    2.71000004
   14.81777763  131.17300415    1.13000000    2.71000004
   14.82111073  129.38099670    1.07000005    2.71000004
   14.82722187  129.38099670    1.07000005    2.71000004
   14.83138847  126.00099945    1.07000005    2.71000004
   14.83444405  130.70300293    1.07000005    2.71000004
   14.83777714  131.44799805    1.05999994    2.71000004
   14.84111118  132.01100159    1.03999996    2.71000004
   14.84416676  129.52000427    1.03999996    2.71000004
   14.84527779  123.84400177    1.03999996    2.71000004
   14.84805489  121.13999939    1.03999996    2.71000004
   14.85111141  118.43199921    1.09000003    2.71000004
   14.85444450  118.53399658    1.11000001    2.71000004
   14.85777855  122.45899963    1.19000006    2.69000006
   14.86083412  124.56900024    1.23000002    2.69000006
   14.95666695   -1.00000000   -1.00000000   -1.00000000
   15.09305477   -1.00000000   -1.00000000   -1.00000000
   15.25166702   -1.00000000   -1.00000000   -1.00000000
   15.29500008  148.62100220    1.01999998    2.73000002
   15.29833412  139.18200684    1.01999998    2.73000002
   15.30138874  141.13000488    0.98000002    2.73000002
   15.30472279  141.57200623    0.95999998    2.73000002
   15.30777836  132.24000549    0.95999998    2.73000002
   15.31111145  133.55000305    0.95999998    2.73000002
   15.31527805  133.55000305    0.95999998    2.73000002
   15.31944466  146.21800232    0.98000002    2.73000002
   15.32250023  151.87800598    0.98000002    2.75000000
   15.32583332  140.14900208    1.01999998    2.73000002
   15.32833290  139.82200623    1.00000000    2.73000002
   15.32944393  147.29600525    1.01999998    2.73000002
   15.33277798  148.36900330    1.05999994    2.73000002
   15.33611107  139.53700256    1.09000003    2.73000002
   15.33916664  142.68499756    1.09000003    2.73000002
   15.34249973  136.44700623    1.05999994    2.73000002
   15.34583282  137.61199951    1.05999994    2.73000002
   15.34888840  143.65800476    1.05999994    2.73000002
   15.35222244  144.23899841    1.03999996    2.73000002
   15.35805607  144.23899841    1.00000000    2.75000000
   15.36222267  133.66400146    1.00000000    2.75000000
   15.36555576  151.45700073    1.00000000    2.73000002
   15.36861134  142.72500610    1.00000000    2.73000002
   15.37194443  135.66000366    1.00000000    2.73000002
   15.37527752  139.13400269    1.01999998    2.73000002
   15.37833309  137.86799622    1.01999998    2.73000002
   15.38166714  138.41099548    1.01999998    2.73000002
   15.38500023  139.43499756    1.01999998    2.73000002
   15.38805580  144.95599365    1.01999998    2.73000002
   15.39138889  141.72200012    1.00000000    2.75000000
   15.39444447  140.82299805    1.01999998    2.73000002
   15.39499950  137.58799744    1.01999998    2.75000000
   15.40083313  137.58799744    1.00000000    2.73000002
   15.40499973  147.51400757    1.01999998    2.73000002
   15.40833282  143.15899658    1.00000000    2.73000002
   15.41166592  141.70799255    1.01999998    2.73000002
   15.41472149  131.20700073    1.00000000    2.73000002
   15.41805553  142.80700684    1.00000000    2.73000002
   15.42111111  145.58099365    0.98000002    2.75000000
   15.42444515  136.26899719    1.00000000    2.75000000
   15.42777824  140.08900452    0.98000002    2.75000000
   15.42833328  137.57800293    0.98000002    2.75000000
   15.43138885  136.01800537    1.00000000    2.75000000
   15.43472195  132.19900513    1.00000000    2.73000002
   15.43777752  138.01899719    0.98000002    2.73000002
   15.44388866  138.01899719    1.00000000    2.73000002
   15.44805527  129.66200256    1.01999998    2.73000002
   15.45111084  135.57299805    1.05999994    2.73000002
   15.45444393  138.74200439    1.05999994    2.73000002
   15.45749950  142.60299683    1.05999994    2.75000000
   15.46083355  140.78300476    1.03999996    2.73000002
   15.46166611  137.24400330    1.03999996    2.75000000
   15.46444416  145.39199829    1.03999996    2.75000000
   15.46777725  137.63600159    1.03999996    2.75000000
   15.47083282  134.41200256    1.01999998    2.75000000
   15.47416592  144.02699280    1.00000000    2.73000002
   15.47749996  142.05599976    1.00000000    2.73000002
   15.48055553  138.35899353    0.98000002    2.73000002
   15.48666668  138.35899353    0.98000002    2.73000002
   15.49083328  147.39900208    0.95999998    2.75000000
   15.49416733  140.98199463    0.95999998    2.75000000
   15.49499989  142.99000549    0.95999998    2.75000000
   15.49777794  145.32099915    0.95999998    2.75000000
   15.50111103  141.52799988    1.00000000    2.73000002
   15.50416660  145.46099854    1.00000000    2.73000002
   15.50749969  140.88000488    1.00000000    2.73000002
   15.51083374  142.86399841    0.98000002    2.75000000
   15.51388931  140.31599426    1.00000000    2.73000002
   15.51722240  152.24600220    1.05999994    2.75000000
   15.52027798  127.24800110    1.05999994    2.73000002
   15.52361107  135.50700378    1.09000003    2.73000002
   15.52972221  135.50700378    1.11000001    2.75000000
   15.53388977  140.95700073    1.13000000    2.73000002
   15.53694534  138.37600708    1.11000001    2.73000002
   15.54027843  146.85800171    1.09000003    2.73000002
   15.54333401  144.87399292    1.11000001    2.73000002
   15.54666710  143.71099854    1.11000001    2.73000002
   15.55000019  140.16499329    1.11000001    2.71000004
   15.55333328  146.13200378    1.11000001    2.73000002
   15.55638885  150.40699768    1.07000005    2.73000002
   15.55972195  141.08099365    1.05999994    2.73000002
   15.56166649  147.94599915    1.01999998    2.75000000
   15.56333351  145.84599304    1.01999998    2.75000000
   15.56666660  137.38099670    0.98000002    2.75000000
   15.57222176  137.38099670    0.92000002    2.75000000
   15.57638836  142.86900330    0.95999998    2.75000000
   15.57972240  144.50100708    0.98000002    2.75000000
   15.58305550  148.21499634    0.98000002    2.75000000
   15.58611107  147.96499634    0.98000002    2.75000000
   15.58944416  133.89599609    0.98000002    2.73000002
   15.59277725  141.68299866    0.95999998    2.75000000
   15.59499931  139.57600403    0.95999998    2.73000002
   15.59638882  139.14100647    0.98000002    2.75000000
   15.59972191  146.90199280    0.98000002    2.75000000
   15.60277843  147.97700500    1.00000000    2.75000000
   15.60611153  142.23399353    1.00000000    2.75000000
   15.60944462  140.11300659    0.95999998    2.73000002
   15.61527824  140.11300659    0.95999998    2.75000000
   15.61944485  148.30700684    0.94000000    2.75000000
   15.62250042  137.79200745    0.92000002    2.75000000
   15.62583351  153.56799316    0.92000002    2.75000000
   15.62861156  142.23599243    0.92000002    2.75000000
   15.62944412  143.19799805    0.92000002    2.76999998
   15.63277817  143.87100220    0.92000002    2.75000000
   15.63583279  141.16700745    0.92000002    2.75000000
   15.63916683  141.85400391    0.92000002    2.75000000
   15.64249992  143.27099609    0.92000002    2.75000000
   15.64555550  134.85699463    0.92000002    2.75000000
   15.64888859  145.85499573    0.92000002    2.75000000
   15.65222168  140.64199829    0.92000002    2.75000000
   15.65805531  140.64199829    0.89999998    2.76999998
   15.66222191  139.79499817    0.89999998    2.75000000
   15.66527748  144.65899658    0.88000000    2.75000000
   15.66861153  147.67300415    0.86000001    2.75000000
   15.67194462  135.10099792    0.86000001    2.75000000
   15.67500019  137.02499390    0.88000000    2.75000000
   15.67833328  136.38299561    0.89999998    2.75000000
   15.68166733  133.04899597    0.89999998    2.75000000
   15.68472195  138.59800720    0.88000000    2.75000000
   15.68805599  141.71800232    0.88000000    2.75000000
   15.69111156  135.58200073    0.86000001    2.75000000
   15.69444466  135.00100708    0.86000001    2.75000000
   15.69527817  135.28100586    0.86000001    2.75000000
   15.70083332  135.28100586    0.86000001    2.75000000
   15.70499992  133.45700073    0.86000001    2.75000000
   15.70833302  144.31300354    0.86000001    2.75000000
   15.71138859  143.83000183    0.86000001    2.75000000
   15.71472168  154.58999634    0.83999997    2.75000000
   15.71777725  143.22799683    0.95999998    2.75000000
   15.72111034  159.97500610    0.95999998    2.75000000
   15.72444439  139.86199951    1.01999998    2.75000000
   15.72749996  149.40400696    1.03999996    2.75000000
   15.72861099  149.43200684    1.03999996    2.73000002
   15.73111057  144.68099976    1.07000005    2.73000002
   15.73444462  138.19200134    1.09000003    2.75000000
   15.73750019  144.42500305    1.13000000    2.75000000
   15.74361134  144.42500305    1.13000000    2.75000000
   15.74777794  142.94900513    1.13000000    2.73000002
   15.75111103  148.91000366    1.14999998    2.75000000
   15.75444412  143.73800659    1.14999998    2.75000000
   15.75749969  151.19599915    1.14999998    2.73000002
   15.76083374  153.16600037    1.14999998    2.73000002
   15.76194477  146.88400269    1.14999998    2.73000002
   15.76444435  140.40499878    1.14999998    2.73000002
   15.76777744  142.76499939    1.13000000    2.73000002
   15.77083302  151.12800598    1.13000000    2.73000002
   15.77416611  138.77499390    1.13000000    2.73000002
   15.77750015  142.58799744    1.11000001    2.75000000
   15.78055573  156.09199524    1.11000001    2.73000002
   15.78666687  156.09199524    1.11000001    2.73000002
   15.79055595  148.03599548    1.13000000    2.73000002
   15.79388905  147.70799255    1.13000000    2.73000002
   15.79527855  149.79100037    1.13000000    2.73000002
   15.79750061  159.35600281    1.13000000    2.75000000
   15.80083370  144.70799255    1.13000000    2.73000002
   15.80388927  146.90600586    1.11000001    2.75000000
   15.80722237  146.13299561    1.13000000    2.73000002
   15.81055546  142.66799927    1.09000003    2.75000000
   15.81361103  140.23599243    1.13000000    2.75000000
   15.81694412  137.38499451    1.13000000    2.75000000
   15.82027817  147.03799438    1.21000004    2.73000002
   15.82333374  134.16000366    1.23000002    2.73000002
   15.82944393  134.16000366    1.26999998    2.75000000
   15.83361053  140.71899414    1.25000000    2.73000002
   15.83666611  137.78100586    1.23000002    2.73000002
   15.84000015  149.78100586    1.23000002    2.73000002
   15.84333324  144.86000061    1.23000002    2.73000002
   15.84638882  145.67999268    1.21000004    2.73000002
   15.84972191  154.82400513    1.21000004    2.73000002
   15.85305595  147.35000610    1.21000004    2.75000000
   15.85611153  141.80299377    1.26999998    2.73000002
   15.85944462  146.90299988    1.28999996    2.73000002
   15.86194515  137.92900085    1.30999994    2.73000002
   15.86305618  143.70899963    1.33000004    2.73000002
   15.86638927  142.72500610    1.28999996    2.75000000
   15.87222195  142.72500610    1.26999998    2.73000002
   15.87638855  144.75700378    1.23000002    2.73000002
   15.87972260  144.56399536    1.23000002    2.73000002
   15.88277817  159.13999939    1.16999996    2.75000000
   15.88611126  141.84300232    1.14999998    2.73000002
   15.88944435  150.15699768    1.16999996    2.75000000
   15.89249992  145.02099609    1.14999998    2.75000000
   15.89527798  151.41999817    1.07000005    2.75000000
   15.89611053  145.29899597    1.07000005    2.75000000
   15.89944458  141.19500732    1.07000005    2.75000000
   15.90249920  146.45500183    1.03999996    2.75000000
   15.90583324  142.25300598    1.03999996    2.75000000
   15.90916634  143.80200195    1.03999996    2.75000000
   15.91499996  143.80200195    1.01999998    2.75000000
   15.91916656  140.69999695    1.05999994    2.75000000
   15.92250061  147.75100708    1.13000000    2.75000000
   15.92555618  143.47200012    1.13000000    2.75000000
   15.92861176  139.18699646    1.11000001    2.75000000
   15.92916679  142.68099976    1.11000001    2.75000000
   15.93249989  141.85000610    1.05999994    2.75000000
   15.93583298  141.47700500    1.03999996    2.75000000
   15.93888855  137.72900391    1.07000005    2.75000000
   15.94222260  145.19700623    1.07000005    2.75000000
   15.94527817  137.91499329    1.07000005    2.75000000
   15.94861126  134.25000000    1.05999994    2.75000000
   15.95194435  142.91299438    1.05999994    2.75000000
   15.95805550  142.91299438    1.13000000    2.75000000
   15.96194458  136.93499756    1.13000000    2.75000000
   15.96527767  137.49200439    1.13000000    2.75000000
   15.96861076  146.25399780    1.13000000    2.75000000
   15.97166634  138.83500671    1.09000003    2.75000000
   15.97499943  140.02000427    1.07000005    2.75000000
   15.97833252  132.41700745    0.98000002    2.76999998
   15.98138809  139.52499390    0.95999998    2.76999998
   15.98472214  145.88900757    0.94000000    2.76999998
   15.98777771  139.59300232    0.80000001    2.76999998
   15.99111176  150.20599365    0.81999999    2.76999998
   15.99444485  140.44099426    0.79000002    2.76999998
   15.99527836  142.80000305    0.79000002    2.76999998
   16.00083351  142.80000305    0.73000002    2.76999998
   16.00499916  136.71899414    0.73000002    2.76999998
   16.00805473  142.89999390    0.70999998    2.76999998
   16.01138878  139.38000488    0.69000000    2.76999998
   16.01472282  148.90899658    0.67000002    2.76999998
   16.01777840  143.34100342    0.69000000    2.78999996
   16.02111053  139.47599792    0.69000000    2.76999998
   16.02416611  144.12699890    0.70999998    2.76999998
   16.02750015  138.20500183    0.70999998    2.78999996
   16.02861023  146.38900757    0.73000002    2.76999998
   16.03111076  134.29600525    0.73000002    2.76999998
   16.03444481  139.93499756    0.75000000    2.76999998
   16.03777695  136.41200256    0.75000000    2.76999998
   16.04361153  136.41200256    0.81999999    2.76999998
   16.04777718  146.21000671    0.86000001    2.75000000
   16.05111122  139.13999939    0.92000002    2.76999998
   16.05416679  141.32400513    0.92000002    2.76999998
   16.05749893  138.30200195    0.98000002    2.75000000
   16.06083298  142.09199524    1.00000000    2.75000000
   16.06194305  147.66000366    1.00000000    2.75000000
   16.06416512  134.89599609    1.00000000    2.75000000
   16.06750107  143.04699707    1.00000000    2.75000000
   16.07083511  148.59899902    1.07000005    2.75000000
   16.07389069  138.41400146    1.05999994    2.75000000
   16.07722282  145.36500549    1.05999994    2.75000000
   16.08027840  135.75399780    1.07000005    2.75000000
   16.08638954  135.75399780    1.07000005    2.75000000
   16.09055710  139.40699768    1.01999998    2.76999998
   16.09388924  142.18400574    1.00000000    2.75000000
   16.09527779  141.93400574    1.00000000    2.75000000
   16.09749985  140.87800598    0.98000002    2.75000000
   16.10083389  151.11999512    0.94000000    2.75000000
   16.10416794  144.14700317    0.94000000    2.76999998
   16.10722351  137.63900757    0.92000002    2.76999998
   16.11055565  141.65699768    0.92000002    2.76999998
   16.11361122  143.24099731    0.94000000    2.76999998
   16.11694527  133.40499878    0.94000000    2.75000000
   16.12027740  133.76300049    0.98000002    2.76999998
   16.12333298  134.59199524    0.98000002    2.76999998
   16.12944412  134.59199524    0.88000000    2.78999996
   16.13333321  139.03999329    0.81999999    2.78999996
   16.13666725  129.44999695    0.81999999    2.76999998
   16.13999939  142.39500427    0.81999999    2.76999998
   16.14305496  156.03799438    0.88000000    2.76999998
   16.14638901  143.80499268    0.86000001    2.76999998
   16.14972115  145.35899353    0.83999997    2.76999998
   16.15277672  135.13200378    0.81999999    2.76999998
   16.15611076  131.64700317    0.80000001    2.76999998
   16.15916634  150.10899353    0.81999999    2.76999998
   16.16194344  128.01800537    0.89999998    2.76999998
   16.16277695  142.93299866    0.88000000    2.78999996
   16.16611099  137.49499512    0.88000000    2.76999998
   16.17222214  137.49499512    0.88000000    2.76999998
   16.17638779  145.39999390    0.81999999    2.76999998
   16.17944336  144.97399902    0.89999998    2.78999996
   16.18277740  133.46000671    1.07000005    2.76999998
   16.18610954  145.33399963    1.23000002    2.76999998
   16.18916512  140.14500427    1.33000004    2.76999998
   16.19249916  148.06599426    0.76999998    2.78999996
   16.19527626  149.68699646    0.70999998    2.78999996
   16.19610977  144.10899353    0.70999998    2.78999996
   16.19944382  154.31399536    0.70999998    2.78999996
   16.20277786  147.32400513    0.73000002    2.78999996
   16.20583344  150.75999451    0.76999998    2.76999998
   16.20916748  148.73500061    0.76999998    2.76999998
   16.21500015  148.73500061    0.81999999    2.76999998
   16.21916771  145.40400696    0.79000002    2.78999996
   16.22249985  139.91499329    0.79000002    2.76999998
   16.22555542  144.77200317    0.76999998    2.76999998
   16.22861099  142.84599304    0.76999998    2.76999998
   16.22916794  142.84199524    0.79000002    2.78999996
   16.23250008  144.92100525    0.80000001    2.76999998
   16.23583412  138.62399292    0.79000002    2.76999998
   16.23888969  149.52699280    0.79000002    2.78999996
   16.24222183  153.28100586    0.86000001    2.76999998
   16.24527740  155.86900330    0.86000001    2.76999998
   16.24861145  158.44200134    0.81999999    2.76999998
   16.25194359  168.35099792    0.81999999    2.78999996
   16.25777817  168.35099792    0.89999998    2.78999996
   16.26194382  160.30200195    0.89999998    2.78999996
   16.26527786  152.36399841    0.94000000    2.76999998
   16.26833344  151.24800110    0.92000002    2.78999996
   16.27166557  143.45399475    0.94000000    2.78999996
   16.27499962  152.68800354    0.89999998    2.76999998
   16.27805519  159.48699951    0.89999998    2.76999998
   16.28138924  152.63400269    0.92000002    2.76999998
   16.28472137  157.50300598    0.88000000    2.76999998
   16.28777695  159.53100586    0.88000000    2.78999996
   16.29111099  154.56199646    0.86000001    2.76999998
   16.29416656  145.51199341    0.83999997    2.76999998
   16.29527664  154.67700195    0.80000001    2.78999996
   16.31583214  154.67700195    0.61000001    2.78999996
   16.32000160  156.40199280    0.61000001    2.78999996
   16.32333374  159.09399414    0.63000000    2.78999996
   16.32638931  151.61799622    0.63000000    2.78999996
   16.32861137  152.76899719    0.63000000    2.78999996
   16.33027840  152.21800232    0.63000000    2.80999994
   16.33333397  159.95100403    0.69000000    2.78999996
   16.33666801  154.04499817    0.69000000    2.78999996
   16.34000015  151.44999695    0.83999997    2.78999996
   16.34305573  153.60299683    0.81999999    2.78999996
   16.34638977  149.52699280    0.81999999    2.76999998
   16.34972191  141.04800415    0.83999997    2.78999996
   16.35277748  153.63699341    0.81999999    2.76999998
   16.35861206  153.63699341    0.83999997    2.76999998
   16.36277771  160.01899719    0.83999997    2.76999998
   16.36611176  146.59100342    0.83999997    2.76999998
   16.36916733  156.10099792    0.81999999    2.78999996
   16.37249947  153.82000732    0.80000001    2.78999996
   16.37555504  152.80400085    0.81999999    2.78999996
   16.37888908  161.39500427    0.86000001    2.78999996
   16.38222313  159.77200317    0.86000001    2.76999998
   16.38527679  161.44900513    0.86000001    2.76999998
   16.38861084  163.03599548    0.80000001    2.78999996
   16.39194489  156.25000000    0.83999997    2.76999998
   16.39500046  150.31100464    0.86000001    2.76999998
   16.39555550  164.32299805    0.86000001    2.76999998
   16.40138817  164.32299805    0.88000000    2.76999998
   16.40555573  160.50599670    0.94000000    2.78999996
   16.40888786  164.75599670    0.94000000    2.78999996
   16.41194344  163.99499512    0.94000000    2.76999998
   16.41527748  167.32299805    0.98000002    2.78999996
   16.41860962  163.41400146    1.01999998    2.76999998
   16.42166519  164.39199829    1.01999998    2.76999998
   16.42499924  181.39100647    0.92000002    2.76999998
   16.42833328  167.63099670    0.89999998    2.76999998
   16.42888832  162.75700378    0.86000001    2.78999996
   16.43194389  163.73100281    0.81999999    2.78999996
   16.43499947  162.49299622    0.81999999    2.78999996
   16.43833160  162.57499695    0.80000001    2.78999996
   16.44416618  162.57499695    0.80000001    2.78999996
   16.44833183  167.36300659    0.80000001    2.78999996
   16.45166779  166.91000366    0.80000001    2.78999996
   16.45499992  171.03199768    0.70999998    2.78999996
   16.45805550  175.22300720    0.73000002    2.78999996
   16.46138954  175.96200562    0.73000002    2.78999996
   16.46222305  179.03100586    0.70999998    2.78999996
   16.46500015  172.74499512    0.70999998    2.78999996
   16.46805573  173.57699585    0.69000000    2.78999996
   16.47138977  160.14199829    0.67000002    2.78999996
   16.47472191  179.10800171    0.67000002    2.78999996
   16.47777748  169.61300659    0.67000002    2.78999996
   16.48111153  181.83900452    0.67000002    2.78999996
   16.48722267  181.83900452    0.73000002    2.78999996
   16.49138832  176.96699524    0.73000002    2.78999996
   16.49444389  172.35200500    0.75000000    2.78999996
   16.49555588  174.72500610    0.75000000    2.78999996
   16.49805641  172.21400452    0.81999999    2.78999996
   16.50111198  185.64900208    0.81999999    2.76999998
   16.50444412  177.11799622    0.98000002    2.76999998
   16.50777817  169.76899719    1.05999994    2.76999998
   16.51083374  172.83500671    1.05999994    2.78999996
   16.51416588  183.74200439    1.05999994    2.76999998
   16.51749992  169.80599976    1.01999998    2.76999998
   16.52055550  178.72000122    1.00000000    2.76999998
   16.52388954  175.46200562    1.01999998    2.76999998
   16.53000069  175.46200562    1.01999998    2.76999998
   16.53416634  179.55799866    1.03999996    2.76999998
   16.53750038  179.53900146    1.05999994    2.76999998
   16.54055595  175.14700317    1.00000000    2.76999998
   16.54388809  183.57499695    0.98000002    2.78999996
   16.54694366  177.57099915    1.03999996    2.76999998
   16.55027771  165.31599426    1.01999998    2.78999996
   16.55360985  181.56799316    0.94000000    2.78999996
   16.55666542  169.22300720    0.92000002    2.78999996
   16.55999947  178.64100647    0.94000000    2.78999996
   16.56222153  175.62800598    0.95999998    2.78999996
   16.56361008  176.63600159    0.95999998    2.78999996
   16.56666756  168.55400085    0.94000000    2.76999998
   16.57277870  168.55400085    0.95999998    2.76999998
   16.57694626  176.09800720    0.89999998    2.78999996
   16.58027840  170.61500549    0.89999998    2.78999996
   16.58333397  173.87500000    0.89999998    2.78999996
   16.58666801  162.42900085    0.86000001    2.78999996
   16.59000015  172.73899841    0.83999997    2.78999996
   16.59305573  171.65899658    0.83999997    2.78999996
   16.59555626  169.08500671    0.81999999    2.78999996
   16.59666824  180.95700073    0.81999999    2.78999996
   16.59972191  171.61199951    0.81999999    2.78999996
   16.60305595  173.67199707    0.80000001    2.78999996
   16.60639000  158.67399597    0.80000001    2.78999996
   16.60944557  188.50500488    0.80000001    2.78999996
   16.61555672  188.50500488    0.86000001    2.78999996
   16.61972237  185.26300049    0.86000001    2.78999996
   16.62305641  177.02299500    0.86000001    2.76999998
   16.62638855  178.38499451    0.88000000    2.78999996
   16.62888908  177.80499268    0.92000002    2.76999998
   16.63000107  180.38699341    0.92000002    2.76999998
   16.63305473  176.57699585    1.00000000    2.76999998
   16.63638878  184.86900330    1.00000000    2.76999998
   16.63972282  178.65800476    1.00000000    2.78999996
   16.64277840  180.43800354    1.00000000    2.76999998
   16.64611053  169.71800232    1.00000000    2.76999998
   16.64944458  169.73599243    0.98000002    2.78999996
   16.65250015  180.24000549    0.98000002    2.76999998
   16.65861130  180.24000549    0.98000002    2.76999998
   16.66277695  177.38999939    1.00000000    2.78999996
   16.66583252  178.58299255    0.98000002    2.76999998
   16.66916656  166.29400635    0.94000000    2.78999996
   16.67222214  176.49400330    0.86000001    2.78999996
   16.67555428  179.30700684    0.83999997    2.78999996
   16.67888832  180.19400024    0.83999997    2.78999996
   16.68194389  169.66000366    0.83999997    2.78999996
   16.68527603  178.81500244    0.83999997    2.78999996
   16.68861008  170.96699524    0.80000001    2.78999996
   16.69166565  178.05400085    0.79000002    2.78999996
   16.69499969  180.21299744    0.79000002    2.78999996
   16.69555473  182.77999878    0.79000002    2.78999996
   16.70138931  182.77999878    0.79000002    2.78999996
   16.70555687  170.82299805    0.81999999    2.78999996
   16.70888901  174.13600159    0.86000001    2.78999996
   16.71194458  171.58000183    0.89999998    2.78999996
   16.71527863  173.21699524    0.95999998    2.76999998
   16.71833420  172.85200500    0.95999998    2.78999996
   16.72166634  172.69500732    0.98000002    2.76999998
   16.72500038  172.19400024    1.00000000    2.76999998
   16.72805595  182.05599976    1.03999996    2.78999996
   16.72888947  167.83900452    1.03999996    2.76999998
   16.73166656  174.43299866    1.05999994    2.76999998
   16.73500061  172.32400513    1.07000005    2.76999998
   16.73805618  169.97099304    1.03999996    2.76999998
   16.74416733  169.97099304    1.05999994    2.76999998
   16.74833298  174.07299805    1.07000005    2.76999998
   16.75166702  176.43299866    1.07000005    2.76999998
   16.75472260  177.26699829    1.09000003    2.76999998
   16.75805473  169.83700562    1.09000003    2.78999996
   16.76138878  171.78999329    1.07000005    2.78999996
   16.76222229  173.53799438    1.09000003    2.76999998
   16.76499939  167.93099976    1.05999994    2.76999998
   16.76833344  184.45199585    1.03999996    2.78999996
   16.77138901  173.77699280    1.01999998    2.78999996
   16.77472115  164.93099976    1.00000000    2.78999996
   16.77777672  172.90699768    1.00000000    2.78999996
   16.78111076  174.16299438    1.00000000    2.78999996
   16.78694344  174.16299438    1.05999994    2.78999996
   16.79111099  173.39700317    1.07000005    2.78999996
   16.79444313  173.29600525    1.05999994    2.78999996
   16.79555511  169.42700195    1.05999994    2.78999996
   16.79805565  177.25900269    1.00000000    2.78999996
   16.80138779  170.52699280    1.00000000    2.76999998
   16.80444336  172.57099915    1.00000000    2.78999996
   16.80777740  173.10000610    1.00000000    2.78999996
   16.81083298  172.86799622    0.94000000    2.78999996
   16.81416512  180.86999512    0.92000002    2.78999996
   16.81750107  172.03799438    0.89999998    2.78999996
   16.82055664  165.91499329    0.83999997    2.78999996
   16.82389069  179.59399414    0.86000001    2.78999996
   16.83000183  179.59399414    0.88000000    2.78999996
   16.83416748  172.13800049    0.89999998    2.78999996
   16.83722305  176.84300232    0.83999997    2.78999996
   16.84055710  177.53799438    0.81999999    2.78999996
   16.84361267  169.26400757    0.81999999    2.78999996
   16.84694481  173.31399536    0.83999997    2.78999996
   16.85027885  168.79899597    0.88000000    2.78999996
   16.85333443  175.49200439    0.86000001    2.78999996
   16.85666656  164.59100342    0.88000000    2.78999996
   16.86000061  161.19700623    0.98000002    2.78999996
   16.86222267  169.55299377    1.03999996    2.78999996
   16.86361122  166.38999939    1.03999996    2.78999996
   16.86694527  171.12500000    1.00000000    2.78999996
   16.87277794  171.12500000    1.01999998    2.78999996
   16.87694550  168.97300720    1.01999998    2.76999998
   16.88000107  166.76199341    1.01999998    2.78999996
   16.88333321  174.06700134    1.00000000    2.78999996
   16.88666725  168.57499695    1.00000000    2.78999996
   16.88972282  168.53199768    0.89999998    2.78999996
   16.89305496  174.76800537    0.88000000    2.78999996
   16.89555550  167.38800049    0.88000000    2.78999996
   16.89666748  179.55499268    0.88000000    2.78999996
   16.89999962  176.06300354    0.92000002    2.78999996
   16.90305519  176.41099548    0.92000002    2.78999996
   16.90638924  178.80799866    0.92000002    2.78999996
   16.90972137  170.35099792    0.95999998    2.76999998
   16.91555595  170.35099792    0.94000000    2.76999998
   16.91972160  171.70500183    1.03999996    2.78999996
   16.92305565  178.95899963    1.05999994    2.76999998
   16.92611122  169.21600342    1.07000005    2.76999998
   16.92888832  161.14500427    1.03999996    2.76999998
   16.92972183  162.86300659    1.03999996    2.76999998
   16.93305397  162.00999451    1.03999996    2.78999996
   16.93610954  162.25700378    1.00000000    2.78999996
   16.93944359  158.20199585    1.00000000    2.76999998
   16.94277763  171.89300537    0.95999998    2.78999996
   16.94583321  168.53300476    0.95999998    2.76999998
   16.94916534  161.13099670    1.00000000    2.78999996
   16.95250130  155.98699951    1.01999998    2.76999998
   16.95833397  155.98699951    1.01999998    2.76999998
   16.96250153  163.80700684    0.98000002    2.78999996
   16.96583366  163.51300049    0.94000000    2.78999996
   16.96916771  161.92700195    0.94000000    2.78999996
   16.97222328  166.43699646    0.98000002    2.78999996
   16.97555542  163.39300537    1.00000000    2.78999996
   16.97861099  158.13600159    1.09000003    2.76999998
   16.98194504  164.13699341    1.11000001    2.78999996
   16.98527718  161.09199524    1.11000001    2.78999996
   16.98833275  167.97700500    1.07000005    2.76999998
   16.99166679  165.49800110    1.07000005    2.78999996
   16.99500084  157.56799316    1.05999994    2.78999996
   16.99555588  163.10200500    1.05999994    2.78999996
   17.00138855  163.10200500    1.01999998    2.78999996
   17.00555611  157.41600037    1.00000000    2.76999998
   17.00861168  161.55900574    0.98000002    2.76999998
   17.01194382  156.51499939    0.95999998    2.78999996
   17.01499939  160.55999756    0.98000002    2.78999996
   17.01833344  158.49699402    0.98000002    2.78999996
   17.02166557  166.71000671    0.94000000    2.78999996
   17.02499962  160.09300232    0.95999998    2.78999996
   17.02805519  169.11399841    0.94000000    2.78999996
   17.02888870  149.86799622    0.95999998    2.78999996
   17.03166580  162.68499756    0.95999998    2.78999996
   17.03499985  159.42199707    0.98000002    2.78999996
   17.03805542  150.20799255    1.00000000    2.78999996
   17.04416656  150.20799255    0.98000002    2.78999996
   17.04833221  155.05700684    0.98000002    2.78999996
   17.05138779  155.61300659    0.95999998    2.78999996
   17.05472183  155.72599792    0.95999998    2.78999996
   17.05805397  154.39300537    0.92000002    2.78999996
   17.06110954  154.37300110    0.92000002    2.78999996
   17.06222153  150.01899719    0.92000002    2.78999996
   17.06472206  151.69099426    0.92000002    2.78999996
   17.06805611  149.41400146    0.94000000    2.78999996
   17.07139015  148.22399902    0.95999998    2.78999996
   17.07444572  144.86599731    1.00000000    2.76999998
   17.07777786  163.27099609    1.00000000    2.76999998
   17.08111191  155.37300110    0.94000000    2.78999996
   17.08694458  155.37300110    0.89999998    2.78999996
   17.09111214  147.61700439    0.89999998    2.76999998
   17.09444427  149.88000488    0.88000000    2.78999996
   17.09583473  156.27799988    0.86000001    2.78999996
   17.09805679  148.55099487    0.86000001    2.78999996
   17.10138893  152.75300598    0.86000001    2.78999996
   17.10444450  106.42800140    0.86000001    2.78999996
   17.10777855  158.85699463    0.88000000    2.78999996
   17.11111069  146.57200623    0.88000000    2.78999996
   17.11416626  146.95399475    0.88000000    2.78999996
   17.11750031  143.67700195    1.01999998    2.76999998
   17.12083435  154.83500671    1.00000000    2.78999996
   17.12388992  148.15899658    1.00000000    2.76999998
   17.12972260  148.15899658    0.98000002    2.76999998
   17.13388824  146.88800049    0.89999998    2.78999996
   17.13722229  145.78300476    0.88000000    2.78999996
   17.14055634  151.12899780    0.88000000    2.78999996
   17.14361191  149.44900513    0.89999998    2.78999996
   17.14694405  148.29400635    0.89999998    2.78999996
   17.14999962  144.56599426    0.92000002    2.78999996
   17.15333366  139.63600159    0.94000000    2.78999996
   17.15666580  151.04499817    0.95999998    2.78999996
   17.15972137  153.30900574    0.94000000    2.78999996
   17.16222191  149.29200745    0.94000000    2.78999996
   17.16333389  157.84100342    0.94000000    2.78999996
   17.16666603  155.96600342    0.95999998    2.78999996
   17.17277718  155.96600342    0.92000002    2.78999996
   17.17694473  148.15199280    0.92000002    2.78999996
   17.18000031  154.73199463    0.94000000    2.78999996
   17.18333244  152.79600525    0.92000002    2.78999996
   17.18638802  158.13200378    0.95999998    2.78999996
   17.18972206  153.61399841    0.95999998    2.78999996
   17.19305420  154.80499268    0.95999998    2.78999996
   17.19555473  152.23399353    0.95999998    2.76999998
   17.19666672  149.39599609    0.95999998    2.76999998
   17.20000076  147.90100098    0.94000000    2.78999996
   17.20305634  149.34300232    0.92000002    2.78999996
   17.20639038  147.17900085    0.92000002    2.78999996
   17.20972252  146.05299377    0.92000002    2.78999996
   17.21555710  146.05299377    0.88000000    2.78999996
   17.21972275  142.23199463    0.88000000    2.78999996
   17.22277832  138.66299438    0.88000000    2.78999996
   17.22611237  145.81799316    0.86000001    2.78999996
   17.22916794  144.95300293    0.86000001    2.80999994
   17.22972298  151.50000000    0.86000001    2.80999994
   17.23305511  153.55900574    0.86000001    2.80999994
   17.23611069  144.42999268    0.83999997    2.78999996
   17.23944473  244.54899597    0.83999997    2.78999996
   17.24277878  148.79499817    0.86000001    2.78999996
   17.24583435  151.23199463    0.89999998    2.78999996
   17.24916649  159.71600342    0.89999998    2.78999996
   17.25250053  152.22200012    0.92000002    2.78999996
   17.25833321  152.22200012    0.89999998    2.78999996
   17.26250076  147.36199951    0.92000002    2.78999996
   17.26583290  146.30799866    0.92000002    2.78999996
   17.26888847  154.74899292    0.92000002    2.78999996
   17.27222252  139.28399658    0.94000000    2.78999996
   17.27527809  154.14900208    0.94000000    2.78999996
   17.27861023  142.33000183    0.94000000    2.78999996
   17.28194427  141.11700439    1.05999994    2.78999996
   17.28499985  140.52799988    1.05999994    2.78999996
   17.28833199   -1.00000000    1.03999996    2.78999996
   17.29166603   -1.00000000    1.03999996    2.78999996
   17.29472160  146.93699646    1.03999996    2.76999998
   17.29583359  146.92300415    1.03999996    2.78999996
   17.30111122  146.92300415    1.09000003    2.78999996
   17.30527687  146.61000061    1.07000005    2.78999996
   17.30861092  147.88400269    1.07000005    2.78999996
   17.31166649  145.79899597    1.07000005    2.76999998
   17.32944489  138.01899719    1.16999996    2.76999998
   17.33166695  136.28900146    1.16999996    2.76999998
   17.33500099  111.38899994    1.14999998    2.76999998
   17.33833313   -1.00000000    1.14999998    2.78999996
   17.34416771   -1.00000000    1.16999996    2.76999998
   17.34861183  142.44900513    1.16999996    2.76999998
   17.35166740  134.00999451    1.13000000    2.76999998
   17.35499954  143.03599548    1.11000001    2.78999996
   17.35833359  140.78399658    1.09000003    2.78999996
   17.36138916  139.27099609    1.09000003    2.78999996
   17.36250114  140.09599304    1.03999996    2.76999998
   17.36499977  138.05000305    1.01999998    2.76999998
   17.36833382  139.88099670    1.00000000    2.76999998
   17.37138939  137.63499451    0.98000002    2.78999996
   17.37472153  134.87500000    1.00000000    2.76999998
   17.37805557  143.59700012    1.00000000    2.78999996
   17.38111115  136.01699829    1.00000000    2.78999996
   17.39111137  136.36900330    1.00000000    2.78999996
   17.39444351  128.43200684    1.03999996    2.78999996
   17.39583397  134.74200439    1.05999994    2.78999996
   17.39805603  134.27299500    1.05999994    2.78999996
   17.40138817  139.43400574    1.09000003    2.76999998
   17.40444374  137.79499817    1.13000000    2.78999996
   17.40777779  131.62500000    1.13000000    2.76999998
   17.41083336  132.23300171    1.16999996    2.76999998
   17.41416550  133.37100220    1.14999998    2.76999998
   17.41749954  135.01199341    1.11000001    2.78999996
   17.42055511  131.89900208    1.11000001    2.78999996
   17.42388916  135.49200439    1.09000003    2.78999996
   17.43000031  135.49200439    1.07000005    2.78999996
   17.43416595  135.38600159    1.07000005    2.78999996
   17.43722153  133.74000549    1.07000005    2.76999998
   17.44055557  132.27499390    1.05999994    2.76999998
   17.44361115  132.60200500    1.03999996    2.76999998
   17.44694328  139.53399658    1.03999996    2.76999998
   17.45027924  126.06600189    1.01999998    2.78999996
   17.45333481  132.10400391    1.00000000    2.78999996
   17.45666695  131.63999939    0.98000002    2.78999996
   17.46000099  133.06599426    1.00000000    2.78999996
   17.46361160   -1.00000000    0.98000002    2.78999996
   17.46666718   -1.00000000    1.00000000    2.78999996
   17.47277832   -1.00000000    0.95999998    2.78999996
   17.47694588  127.85299683    0.95999998    2.76999998
   17.48027802  126.19699860    0.98000002    2.78999996
   17.48333359  130.34300232    0.98000002    2.78999996
   17.48666763  121.03099823    0.98000002    2.78999996
   17.48972321  133.57800293    0.98000002    2.78999996
   17.49305534  123.73600006    1.00000000    2.78999996
   17.49583435  124.84600067    1.00000000    2.78999996
   17.49666786  125.52899933    1.00000000    2.78999996
   17.50000000  129.55499268    1.01999998    2.78999996
   17.50305557  135.01100159    1.01999998    2.78999996
   17.50638962  132.92300415    1.01999998    2.78999996
   17.50972176   -1.00000000    1.01999998    2.78999996
   17.51555634   -1.00000000    1.00000000    2.78999996
   17.51972198  139.97500610    1.00000000    2.78999996
   17.52305603  130.42700195    1.00000000    2.78999996
   17.52611160  126.22100067    0.98000002    2.78999996
   17.52916718  129.86900330    0.98000002    2.78999996
   17.52972221  132.89999390    0.98000002    2.78999996
   17.53305435  129.46800232    1.00000000    2.78999996
   17.53610992  128.78500366    1.01999998    2.78999996
   17.53944397  135.21899414    1.01999998    2.78999996
   17.54277802  101.22100067    1.01999998    2.78999996
   17.54583359  129.99299622    1.03999996    2.78999996
   17.54916573  302.46200562    1.01999998    2.76999998
   17.55111122  344.29400635    1.01999998    2.78999996
   17.55249977  135.21899414    1.01999998    2.78999996
   17.55249977  101.22100067    1.01999998    2.78999996
   17.55249977  129.99299622    1.03999996    2.78999996
   17.55277634  302.46200562    1.01999998    2.76999998
   17.55277634  130.42700195    1.00000000    2.78999996
   17.55305481  126.22100067    0.98000002    2.78999996
   17.55305481  132.89999390    0.98000002    2.78999996
   17.55305481  129.46800232    1.00000000    2.78999996
   17.55333328  128.78500366    1.01999998    2.78999996
   17.55444336   -1.00000000    1.01999998    2.78999996
   17.55749893   -1.00000000    1.05999994    2.76999998
   17.56083298   -1.00000000    1.07000005    2.78999996
   17.56416512  136.10099792    1.07000005    2.78999996
   17.56722260  141.42700195    1.07000005    2.78999996
   17.57305717  141.42700195    1.05999994    2.78999996
   17.57722282  132.53700256    1.05999994    2.78999996
   17.58055687  130.89999390    1.05999994    2.78999996
   17.58388901   -1.00000000    1.05999994    2.78999996
   17.58750153   -1.00000000    1.05999994    2.78999996
   17.59055710   -1.00000000    1.05999994    2.78999996
   17.59388924   -1.00000000    1.05999994    2.76999998
   17.59722328  137.13699341    1.05999994    2.76999998
   17.60027885  137.54899597    1.03999996    2.76999998
   17.60361099  134.58500671    1.03999996    2.78999996
   17.60666656  135.95899963    1.03999996    2.78999996
   17.61000061  134.52799988    1.05999994    2.78999996
   17.61611176  134.52799988    1.07000005    2.78999996
   17.62027740  143.07600403    1.05999994    2.78999996
   17.62333298  129.92700195    1.07000005    2.78999996
   17.62666702   -1.00000000    1.07000005    2.78999996
   17.63000107  134.64799500    1.07000005    2.76999998
   17.63333321  133.75300598    1.07000005    2.78999996
   17.63638878  126.71299744    1.16999996    2.76999998
   17.63972282  135.82099915    1.16999996    2.76999998
   17.64305496  133.93200684    1.21000004    2.76999998
   17.64611053  132.09199524    1.21000004    2.76999998
   17.64944458  138.12300110    1.21000004    2.76999998
   17.65277672  136.50900269    1.21000004    2.76999998
   17.65305519  143.00700378    1.21000004    2.76999998
   17.66305542   -1.00000000    1.23000002    2.76999998
   17.66611099   -1.00000000    1.28999996    2.78999996
   17.66944313   -1.00000000    1.30999994    2.76999998
   17.67249870   -1.00000000    1.30999994    2.76999998
   17.67583275  142.85099792    1.30999994    2.76999998
   17.67916679  134.78900146    1.34000003    2.76999998
   17.68222237  133.21699524    1.36000001    2.76999998
   17.68555450  130.30799866    1.36000001    2.76999998
   17.68638802  132.49800110    1.36000001    2.76999998
   17.68916512  133.97000122    1.36000001    2.76999998
   17.69249916  138.21099854    1.36000001    2.76999998
   17.69555473  137.49299622    1.36000001    2.76999998
   17.70166779  137.49299622    1.38000000    2.76999998
   17.70583344   -1.00000000    1.38000000    2.76999998
   17.70916748   -1.00000000    1.38000000    2.78999996
   17.71222305   -1.00000000    1.36000001    2.76999998
   17.71555710   -1.00000000    1.33000004    2.76999998
   17.71888924   -1.00000000    1.33000004    2.76999998
   17.72222328   -1.00000000    1.30999994    2.76999998
   17.72555542   -1.00000000    1.28999996    2.76999998
   17.72861099   -1.00000000    1.28999996    2.76999998
   17.73194504   -1.00000000    1.28999996    2.76999998
   17.73500061   -1.00000000    1.26999998    2.78999996
   17.73833275   -1.00000000    1.26999998    2.78999996
   17.74861145   -1.00000000    1.23000002    2.78999996
   17.75194359   -1.00000000    1.21000004    2.78999996
   17.75305557  108.78500366    1.21000004    2.78999996
   17.75527763  127.72499847    1.26999998    2.76999998
   17.75861168  130.41600037    1.26999998    2.76999998
   17.76166725  134.73500061    1.26999998    2.76999998
   17.76499939  139.55299377    1.28999996    2.76999998
   17.76833344  132.10800171    1.28999996    2.76999998
   17.77138901  137.54800415    1.28999996    2.76999998
   17.77472115  150.07099915    1.33000004    2.76999998
   17.77805519  135.70399475    1.34000003    2.76999998
   17.78111076  143.33399963    1.34000003    2.76999998
   17.78750038  143.33399963    1.34000003    2.76999998
   17.79166603  140.09800720    1.36000001    2.76999998
   17.79472160  142.41799927    1.36000001    2.76999998
   17.79805565  149.87300110    1.34000003    2.76999998
   17.80111122  138.64799500    1.34000003    2.76999998
   17.80444336  139.54400635    1.36000001    2.76999998
   17.80777740  147.15899658    1.36000001    2.76999998
   17.81083298  140.11599731    1.34000003    2.76999998
   17.81416512  141.60299683    1.36000001    2.76999998
   17.81750107  136.64999390    1.36000001    2.76999998
   17.81972313  129.77799988    1.36000001    2.78999996
   17.82083511  134.69599915    1.34000003    2.78999996
   17.82416725  137.55099487    1.34000003    2.76999998
   17.83027840  137.55099487    1.33000004    2.76999998
   17.83444595  122.90100098    1.28999996    2.76999998
   17.83750153  140.02900696    1.28999996    2.76999998
   17.84083366  138.34599304    1.28999996    2.76999998
   17.84416771  144.66000366    1.30999994    2.78999996
   17.84722328  135.79800415    1.30999994    2.76999998
   17.85055542  138.83299255    1.30999994    2.76999998
   17.85333443  150.98599243    1.33000004    2.76999998
   17.85416794  142.69599915    1.33000004    2.76999998
   17.85750008  137.94599915    1.33000004    2.75000000
   17.86055565  139.35200500    1.33000004    2.76999998
   17.86388969  131.39399719    1.33000004    2.76999998
   17.86722183  139.41200256    1.30999994    2.78999996
   17.87305641  139.41200256    1.33000004    2.76999998
   17.87722206  142.79499817    1.36000001    2.75000000
   17.88055611  133.71899414    1.41999996    2.76999998
   17.88361168  134.49200439    1.41999996    2.76999998
   17.88666725  136.03500366    1.46000004    2.76999998
   17.88722229  125.15799713    1.46000004    2.76999998
   17.89055634  140.73699951    1.51999998    2.76999998
   17.89361191  137.24800110    1.55999994    2.76999998
   17.89694405  134.20300293    1.55999994    2.76999998
   17.90027809  132.91900635    1.55999994    2.75000000
   17.90333366  135.93699646    1.58000004    2.76999998
   17.90666580  138.19200134    1.55999994    2.75000000
   17.90999985  133.75500488    1.53999996    2.76999998
   17.91583252  133.75500488    1.46000004    2.76999998
   17.92000008  134.32299805    1.46000004    2.76999998
   17.92333221  133.12300110    1.46000004    2.76999998
   17.92666626  130.89900208    1.46000004    2.76999998
   17.92972183  141.90899658    1.44000006    2.76999998
   17.93305397  139.31399536    1.48000002    2.76999998
   17.93610954  126.32900238    1.46000004    2.75000000
   17.93944359  140.79299927    1.46000004    2.75000000
   17.94277763  134.94000244    1.41999996    2.76999998
   17.94583321  138.38400269    1.39999998    2.76999998
   17.94916534  146.22399902    1.38000000    2.76999998
   17.95250130  154.37399292    1.38000000    2.76999998
   17.95333481  144.63699341    1.36000001    2.76999998
   17.95888901  144.63699341    1.38000000    2.76999998
   17.96305656  146.15400696    1.39999998    2.76999998
   17.96611214  145.75500488    1.39999998    2.76999998
   17.96944427  144.98899841    1.39999998    2.76999998
   17.97277832  144.58999634    1.39999998    2.76999998
   17.97583389  151.63499451    1.46000004    2.76999998
   17.97916794  144.80400085    1.48000002    2.76999998
   17.98222351  147.03199768    1.48000002    2.76999998
   17.98555565  144.51800537    1.50000000    2.76999998
   17.98666763  138.74299622    1.51999998    2.76999998
   17.98916626  147.25799561    1.51999998    2.76999998
   17.99250031  158.65199280    1.53999996    2.76999998
   17.99583435  143.83799744    1.53999996    2.76999998
   18.00166702  143.83799744    1.51999998    2.76999998
   18.00583267  143.52900696    1.51999998    2.76999998
   18.00888824  139.95300293    1.50000000    2.76999998
   18.01222229  141.32600403    1.50000000    2.76999998
   18.01555634  138.92799377    1.50000000    2.76999998
   18.01861000  145.39999390    1.50000000    2.76999998
   18.02000046  149.03900146    1.50000000    2.76999998
   18.02222252  145.20700073    1.48000002    2.76999998
   18.02555466  141.97399902    1.50000000    2.76999998
   18.02888870  138.51199341    1.50000000    2.76999998
   18.03194427  146.74400330    1.50000000    2.76999998
   18.03527641  136.60099792    1.48000002    2.76999998
   18.03833199  138.01499939    1.48000002    2.76999998
   18.04444313  138.01499939    1.48000002    2.76999998
   18.04861069  139.42999268    1.50000000    2.76999998
   18.05194283  137.47000122    1.48000002    2.76999998
   18.05333328  137.38400269    1.48000002    2.76999998
   18.05527687  146.92100525    1.48000002    2.76999998
   18.05861092  140.61399841    1.50000000    2.78999996
   18.06194305  130.61700439    1.48000002    2.76999998
   18.06499863  139.00500488    1.48000002    2.76999998
   18.06833458  140.10800171    1.48000002    2.76999998
   18.07139015  135.20100403    1.50000000    2.76999998
   18.07472229  133.56700134    1.50000000    2.76999998
   18.07805634  142.84100342    1.48000002    2.76999998
   18.08111191  141.44099426    1.50000000    2.75000000
   18.08750153  141.44099426    1.50000000    2.76999998
   18.09138870  146.17900085    1.50000000    2.76999998
   18.09472275  139.60499573    1.60000002    2.76999998
   18.09805679  139.34300232    1.60000002    2.76999998
   18.10111237  141.46600342    1.60000002    2.76999998
   18.10444450  129.58200073    1.58000004    2.75000000
   18.10777855  140.26300049    1.66999996    2.75000000
   18.11083412  136.02799988    1.75000000    2.75000000
   18.11416626  146.48899841    1.78999996    2.75000000
   18.11722183  142.80200195    1.78999996    2.75000000
   18.12000084  142.29600525    1.76999998    2.75000000
   18.12083435  143.22799683    1.75000000    2.75000000
   18.12416649  146.92300415    1.73000002    2.75000000
   18.13027763  146.92300415    1.75000000    2.75000000
   18.13444519  134.20500183    1.76999998    2.75000000
   18.13750076  129.91700745    1.78999996    2.75000000
   18.14083290  146.75500488    1.78999996    2.75000000
   18.14388847  153.82499695    1.78999996    2.75000000
   18.14722252  144.85499573    1.83000004    2.75000000
   18.15055466  145.78199768    1.80999994    2.75000000
   18.15333366  148.56100464    1.85000002    2.75000000
   18.15388870  146.63000488    1.85000002    2.75000000
   18.15722275  145.58099365    1.88000000    2.75000000
   18.16055489  149.49299622    1.86000001    2.75000000
   18.16361046  147.57699585    1.88000000    2.75000000
   18.16694450  142.68899536    1.88000000    2.75000000
   18.17305565  142.68899536    1.89999998    2.75000000
   18.17722130  143.75700378    2.03999996    2.75000000
   18.18027687  147.55599976    2.09999990    2.75000000
   18.18361092  139.53700256    2.07999992    2.73000002
   18.18666649  139.19000244    2.01999998    2.75000000
   18.18722153  137.99400330    2.01999998    2.75000000
   18.19055557  138.45599365    2.00000000    2.75000000
   18.19388771  144.54699707    2.00000000    2.75000000
   18.19694328  142.39999390    1.98000002    2.75000000
   18.20027924  148.50199890    1.98000002    2.75000000
   18.20333481  144.79800415    1.94000006    2.75000000
   18.20666695  135.69000244    1.89999998    2.75000000
   18.21000099  139.40100098    1.91999996    2.73000002
   18.21583366  139.40100098    1.91999996    2.75000000
   18.22000122  148.76300049    1.91999996    2.75000000
   18.22333336  144.26600647    1.94000006    2.75000000
   18.22638893  138.94700623    1.98000002    2.75000000
   18.22972298  147.25500488    1.98000002    2.73000002
   18.23305511  146.18600464    1.98000002    2.75000000
   18.23611069  139.01699829    1.98000002    2.75000000
   18.23944473  147.83200073    2.00000000    2.75000000
   18.24250031  132.23599243    2.01999998    2.75000000
   18.24583435  137.59100342    2.05999994    2.75000000
   18.24916649  147.70599365    2.05999994    2.73000002
   18.25222206  140.94700623    2.01999998    2.73000002
   18.25333405  144.18600464    2.01999998    2.75000000
   18.25861168  144.18600464    2.01999998    2.75000000
   18.26277733  147.09800720    2.01999998    2.73000002
   18.26611137  142.92100525    1.94000006    2.75000000
   18.26944351  138.22799683    1.94000006    2.75000000
   18.27249908  138.53100586    1.94000006    2.75000000
   18.27583313  133.00700378    1.91999996    2.75000000
   18.27888870  146.78900146    2.00000000    2.73000002
   18.28222275  139.87600708    2.07999992    2.73000002
   18.28555489  146.08099365    2.05999994    2.75000000
   18.28666687  138.28300476    2.01999998    2.75000000
   18.28888893  139.74899292    2.01999998    2.75000000
   18.29222107  138.02000427    2.00000000    2.75000000
   18.29555511  137.03100586    2.00000000    2.75000000
   18.30166626  137.03100586    2.01999998    2.75000000
   18.30583191  140.98199463    2.01999998    2.75000000
   18.30888748  127.03299713    2.05999994    2.75000000
   18.31222153  150.30299377    2.09999990    2.75000000
   18.31527710  130.98300171    2.13000011    2.73000002
   18.31861115  145.60899353    2.17000008    2.75000000
   18.32000160  144.61900330    2.19000006    2.75000000
   18.32222366  147.96800232    2.21000004    2.75000000
   18.32555580  137.10800171    2.25000000    2.75000000
   18.32888985  151.62199402    2.25000000    2.73000002
   18.35027885  151.62199402    2.19000006    2.73000002
   18.35444450  137.69700623    2.19000006    2.73000002
   18.35750008  133.45799255    2.21000004    2.73000002
   18.36083412  139.34199524    2.21000004    2.73000002
   18.36388969  136.63299561    2.19000006    2.73000002
   18.36722183  142.46899414    2.26999998    2.75000000
   18.37055588  144.70700073    2.30999994    2.75000000
   18.37361145  128.39900208    2.30999994    2.73000002
   18.37694550  149.41299438    2.23000002    2.75000000
   18.38027763  132.84500122    2.19000006    2.73000002
   18.38333321  133.62300110    2.17000008    2.75000000
   18.38666725  128.34700012    2.15000010    2.73000002
   18.38722229  139.04800415    2.15000010    2.73000002
   18.39277840  139.04800415    2.21000004    2.73000002
   18.39694405  140.92799377    2.25000000    2.73000002
   18.40027809  130.42199707    2.26999998    2.73000002
   18.40361023  137.76699829    2.26999998    2.73000002
   18.40666580  140.06199646    2.30999994    2.73000002
   18.40999985  140.55200195    2.28999996    2.73000002
   18.41305542  136.31399536    2.26999998    2.73000002
   18.41638756  131.14700317    2.28999996    2.75000000
   18.41972160  141.07099915    2.30999994    2.73000002
   18.42055511  130.98300171    2.28999996    2.73000002
   18.42305565  135.45700073    2.25000000    2.73000002
   18.42638779  141.13900757    2.23000002    2.75000000
   18.42972183  136.19999695    2.23000002    2.73000002
   18.43583298  136.19999695    2.23000002    2.75000000
   18.43999863  138.36199951    2.23000002    2.73000002
   18.44305420  133.39599609    2.23000002    2.75000000
   18.44638824  141.42799377    2.23000002    2.75000000
   18.44944382  147.53500366    2.23000002    2.73000002
   18.45277786  145.41299438    2.25000000    2.73000002
   18.45388985  144.09199524    2.25000000    2.73000002
   18.45639038  148.91799927    2.26999998    2.75000000
   18.45972252  139.83299255    2.28999996    2.73000002
   18.46305656  152.61199951    2.28999996    2.73000002
   18.46611214  155.25999451    2.34999990    2.71000004
   18.46944427  150.61900330    2.42000008    2.73000002
   18.47277832  136.24899292    2.48000002    2.73000002
   18.47861099  136.24899292    2.64000010    2.71000004
   18.48277855  137.74000549    2.71000004    2.71000004
   18.48583412  145.15299988    2.73000002    2.71000004
   18.48722267  138.65800476    2.73000002    2.71000004
   18.48944473  138.26100159    2.73000002    2.71000004
   18.49277878  143.67100525    2.71000004    2.71000004
   18.49611092  139.22099304    2.69000006    2.73000002
   18.49916649  143.45700073    2.66000009    2.73000002
   18.50250053  145.10499573    2.59999990    2.71000004
   18.50555611  140.22999573    2.55999994    2.73000002
   18.50888824  145.27600098    2.51999998    2.73000002
   18.51222229  144.13999939    2.48000002    2.73000002
   18.51527786  144.10200500    2.50000000    2.73000002
   18.52138901  144.10200500    2.55999994    2.73000002
   18.52555466  150.55599976    2.55999994    2.71000004
   18.52888870  146.81700134    2.50000000    2.73000002
   18.53194427  151.86999512    2.46000004    2.73000002
   18.53527641  134.19900513    2.44000006    2.73000002
   18.53861046  131.66999817    2.44000006    2.73000002
   18.54166603  136.81700134    2.46000004    2.75000000
   18.54500008  156.27200317    2.46000004    2.73000002
   18.54833221  153.37399292    2.42000008    2.73000002
   18.55138779  148.13099670    2.40000010    2.75000000
   18.55388832  142.48100281    2.40000010    2.75000000
   18.55499840  159.55099487    2.39000010    2.73000002
   18.55833244  145.97700500    2.40000010    2.73000002
   18.56444359  145.97700500    2.46000004    2.73000002
   18.56833458  153.52900696    2.48000002    2.73000002
   18.57166672  144.58700562    2.46000004    2.73000002
   18.57500076  140.95700073    2.46000004    2.73000002
   18.57805634  147.73500061    2.46000004    2.73000002
   18.58139038  150.17500305    2.48000002    2.73000002
   18.58472252  143.70799255    2.57999992    2.71000004
   18.58722305  136.90499878    2.57999992    2.71000004
   18.58805656  130.69900513    2.57999992    2.73000002
   18.59138870  142.51800537    2.61999989    2.71000004
   18.59472275  148.04600525    2.64000010    2.73000002
   18.59777832  146.82099915    2.64000010    2.71000004
   18.60111237  140.61700439    2.64000010    2.73000002
   18.60722351  140.61700439    2.64000010    2.71000004
   18.61138916  146.85200500    2.64000010    2.71000004
   18.61444473  145.22999573    2.64000010    2.75000000
   18.61777878  130.11399841    2.67000008    2.73000002
   18.62055588  134.72200012    2.71000004    2.73000002
   18.62138939  137.27900696    2.71000004    2.71000004
   18.62472153  143.79899597    2.69000006    2.71000004
   18.62805557  141.04400635    2.67000008    2.73000002
   18.63111115  132.87699890    2.67000008    2.71000004
   18.63444519  140.47599792    2.67000008    2.73000002
   18.63750076  136.39900208    2.67000008    2.73000002
   18.64083290  143.53500366    2.66000009    2.71000004
   18.64416695  144.44999695    2.61999989    2.73000002
   18.64999962  144.44999695    2.53999996    2.73000002
   18.65416718  128.11700439    2.50000000    2.73000002
   18.65722275  140.78500366    2.48000002    2.73000002
   18.66055489  134.19799805    2.48000002    2.73000002
   18.66388893  137.19900513    2.50000000    2.73000002
   18.66722107  141.20199585    2.55999994    2.71000004
   18.67027664  136.71899414    2.55999994    2.73000002
   18.67361069  137.19900513    2.51999998    2.71000004
   18.67666626  128.66499329    2.50000000    2.71000004
   18.68000031  129.25399780    2.51999998    2.73000002
   18.68333244  129.83200073    2.61999989    2.73000002
   18.68638802  133.58500671    2.67000008    2.71000004
   18.68722153  139.54100037    2.67000008    2.71000004
   18.69277763  139.54100037    2.67000008    2.71000004
   18.69694328  128.22999573    2.71000004    2.71000004
   18.70027924  135.82600403    2.67000008    2.73000002
   18.70333481  132.78399658    2.71000004    2.71000004
   18.70666695  136.91099548    2.76999998    2.71000004
   18.71000099  129.68400574    2.78999996    2.71000004
   18.71305656  136.65199280    2.80999994    2.71000004
   18.71638870  137.46000671    2.89000010    2.71000004
   18.71944427  132.11000061    2.94000006    2.71000004
   18.72055626  137.29400635    2.96000004    2.71000004
   18.72305679  134.37300110    2.96000004    2.71000004
   18.72638893  137.03100586    2.96000004    2.71000004
   18.72972298  139.47399902    2.98000002    2.71000004
   18.73555565  139.47399902    3.01999998    2.71000004
   18.73972321  139.44799805    3.07999992    2.71000004
   18.74305534  142.64900208    3.09999990    2.69000006
   18.74638939  132.20899963    3.05999994    2.71000004
   18.74944496  139.27999878    3.00000000    2.71000004
   18.75277710  109.97100067    2.96000004    2.71000004
   18.75388908  130.14700317    2.96000004    2.71000004
   18.75611115  138.52200317    2.94000006    2.71000004
   18.75944519  133.27900696    2.89000010    2.71000004
   18.76277733  140.89700317    2.91000009    2.71000004
   18.76583290  144.52799988    2.89000010    2.71000004
   18.76916695  131.22000122    2.89000010    2.71000004
   18.77249908  138.69099426    2.89000010    2.71000004
   18.77861023  138.69099426    2.93000007    2.71000004
   18.78277779  134.97900391    2.91000009    2.71000004
   18.78583336  131.92500305    2.89000010    2.71000004
   18.78722191  127.83599854    2.91000009    2.71000004
   18.78944397  133.27400208    2.89000010    2.71000004
   18.79277802  134.83700562    2.94000006    2.71000004
   18.79611015  142.17199707    2.94000006    2.71000004
   18.79916573  128.60600281    2.96000004    2.71000004
   18.80249977  132.23300171    2.98000002    2.71000004
   18.80583191  137.86900330    3.05999994    2.71000004
   18.80888748  137.06100464    3.11999989    2.69000006
   18.81222153  134.52099609    3.16000009    2.71000004
   18.81527710  133.97700500    3.16000009    2.69000006
   18.82139015  133.97700500    3.16000009    2.69000006
   18.82555580  133.72999573    3.20000005    2.69000006
   18.82861137  127.36199951    3.20000005    2.69000006
   18.83194542  136.13200378    3.21000004    2.69000006
   18.83527756  135.82400513    3.25000000    2.71000004
   18.83833313  131.28300476    3.26999998    2.69000006
   18.84166718  131.53500366    3.25000000    2.69000006
   18.84500122  126.49600220    3.26999998    2.69000006
   18.84805679  128.29299927    3.28999996    2.69000006
   18.85138893  140.17300415    3.32999992    2.69000006
   18.85388947  119.33999634    3.36999989    2.69000006
   18.85472298  138.56700134    3.34999990    2.69000006
   18.85805511  130.12600708    3.32999992    2.71000004
   18.86416626  130.12600708    3.30999994    2.69000006
   18.86833382  129.47900391    3.32999992    2.71000004
   18.87166595  128.35099792    3.26999998    2.71000004
   18.87472153  136.61099243    3.21000004    2.69000006
   18.87805557  132.29699707    3.21000004    2.69000006
   18.88138962  133.50500488    3.23000002    2.69000006
   18.88444519  137.26699829    3.25000000    2.69000006
   18.88722229  128.92100525    3.25000000    2.69000006
   18.88805580  127.36599731    3.26999998    2.69000006
   18.89138794  116.77400208    3.30999994    2.69000006
   18.89472198  117.48400116    3.39000010    2.69000006
   18.89777756  130.73500061    3.43000007    2.69000006
   18.90111160  122.03199768    3.43000007    2.69000006
   18.90722275  122.03199768    3.45000005    2.69000006
   18.91110992  127.69799805    3.51999998    2.69000006
   18.91444397  131.03500366    3.57999992    2.69000006
   18.91777802  130.72300720    3.59999990    2.69000006
   18.92055511  131.45700073    3.57999992    2.69000006
   18.92111015  129.53399658    3.55999994    2.69000006
   18.92444420  125.66799927    3.51999998    2.69000006
   18.92777634  138.14199829    3.50000000    2.69000006
   18.93083191  133.02699280    3.45000005    2.67000008
   18.93416595  133.97700500    3.46000004    2.69000006
   18.93750000  123.79799652    3.45000005    2.69000006
   18.94055557  129.87500000    3.45000005    2.69000006
   18.94388771  130.32899475    3.41000009    2.69000006
   18.95000076  130.32899475    3.32999992    2.69000006
   18.95416832  137.35800171    3.26999998    2.69000006
   18.95722389  136.93899536    3.25000000    2.69000006
   18.96055603  132.77699280    3.23000002    2.69000006
   18.96361160  135.55000305    3.21000004    2.69000006
   18.96694565  131.56900024    3.21000004    2.69000006
   18.97027779  133.29899597    3.21000004    2.69000006
   18.97333336  127.58499908    3.21000004    2.69000006
   18.97666740  129.42199707    3.21000004    2.69000006
   18.98000145  128.48199463    3.21000004    2.69000006
   18.98305511  128.01699829    3.21000004    2.69000006
   18.98638916  136.19500732    3.21000004    2.69000006
   18.98722267  130.27200317    3.21000004    2.69000006
   18.99277878  130.27200317    3.26999998    2.69000006
   18.99694443  134.51499939    3.34999990    2.69000006
   19.00027847  124.76499939    3.43000007    2.69000006
   19.00333405  126.48100281    3.46000004    2.69000006
   19.00666618  131.31300354    3.48000002    2.69000006
   19.00972176  131.33099365    3.51999998    2.69000006
   19.01305580  127.01499939    3.57999992    2.69000006
   19.01638794  136.41700745    3.61999989    2.69000006
   19.01944351  137.08200073    3.64000010    2.67000008
   19.02055550  135.71899414    3.64000010    2.67000008
   19.02333260  132.19900513    3.61999989    2.69000006
   19.02638817  135.39399719    3.59999990    2.69000006
   19.02972221  133.86199951    3.59999990    2.69000006
   19.03555489  133.86199951    3.68000007    2.67000008
   19.03972244  140.59800720    3.72000003    2.67000008
   19.04305458  133.73800659    3.86999989    2.67000008
   19.04611015  136.79899597    3.95000005    2.67000008
   19.04944420  144.49000549    3.97000003    2.67000008
   19.05277634  138.55200195    3.97000003    2.67000008
   19.05388832  136.79600525    3.95000005    2.67000008
   19.05638885  132.32000732    3.86999989    2.67000008
   19.05944443  135.47399902    3.84999990    2.69000006
   19.06277657  127.63500214    3.89000010    2.67000008
   19.06583214  132.10299683    3.89000010    2.67000008
   19.06916809  136.57200623    3.86999989    2.67000008
   19.07250023  139.33500671    3.80999994    2.67000008
   19.07833481  139.33500671    3.86999989    2.67000008
   19.08250046  141.24299622    3.89000010    2.67000008
   19.08583450  146.09300232    3.91000009    2.67000008
   19.08722305  141.75599670    3.91000009    2.67000008
   19.08944511  138.14199829    3.91000009    2.67000008
   19.09250069  144.11300659    3.86999989    2.67000008
   19.09583473  133.31300354    3.76999998    2.67000008
   19.09889030  147.20799255    3.80999994    2.67000008
   19.10222244  135.19999695    3.82999992    2.67000008
   19.10555649  142.68200684    3.82999992    2.67000008
   19.10861206  133.95399475    3.82999992    2.67000008
   19.11194420  139.28599548    3.80999994    2.67000008
   19.11527824  133.00999451    3.89000010    2.67000008
   19.12138939  133.00999451    3.97000003    2.67000008
   19.12555504  140.89199829    4.01999998    2.67000008
   19.12861061  136.94400024    4.13999987    2.66000009
   19.13194466  146.21000671    4.17999983    2.67000008
   19.13500023  141.68800354    4.21999979    2.66000009
   19.13833237  149.40199280    4.26999998    2.66000009
   19.14166641  144.45199585    4.90999985    2.64000010
   19.14472198  142.91499329    4.90999985    2.66000009
   19.14805603  158.16900635    4.90999985    2.57999992
   19.15138817  161.07499695    4.90999985    2.25000000
   19.15388870  143.39700317    4.90999985    2.64000010
   19.15499878  135.86199951    4.90999985    2.66000009
   19.15805435  138.54699707    4.90999985    2.67000008
   19.16416550  138.54699707    4.30999994    2.66000009
   19.16833305  134.58700562    4.11999989    2.67000008
   19.17138863  150.18200684    4.00000000    2.67000008
   19.17472076  146.77400208    3.89000010    2.67000008
   19.17805481  145.95500183    3.91000009    2.67000008
   19.18111038  139.20300293    4.00000000    2.67000008
   19.18444443  142.22399902    3.99000001    2.67000008
   19.18722153  143.88099670    4.01999998    2.67000008
   19.18805504  141.86199951    4.01999998    2.66000009
   19.19111061  133.43800354    4.00000000    2.67000008
   19.19444275  138.56900024    3.97000003    2.67000008
   19.19749832  139.75599670    3.89000010    2.67000008
   19.20083427  144.21699524    3.86999989    2.67000008
   19.20694542  144.21699524    3.80999994    2.67000008
   19.21111107  144.25300598    3.78999996    2.66000009
   19.21444511  142.19099426    3.80999994    2.67000008
   19.21750069  152.80999756    3.82999992    2.67000008
   19.22055626  141.81599426    3.82999992    2.67000008
   19.22138977  133.51499939    3.80999994    2.67000008
   19.22444534  142.16700745    3.72000003    2.67000008
   19.22777748  139.00399780    3.66000009    2.67000008
   19.23083305  137.19099426    3.68000007    2.67000008
   19.23416710  135.50799561    3.75000000    2.67000008
   19.23750114  144.74299622    3.76999998    2.67000008
   19.24055672  139.57899475    3.80999994    2.67000008
   19.24388885  143.13900757    3.76999998    2.67000008
   19.25000000  143.13900757    3.73000002    2.67000008
   19.25388908  136.85699463    3.72000003    2.67000008
   19.25722313  139.47999573    3.72000003    2.67000008
   19.26055527   91.61139679    3.73000002    2.67000008
   19.26361084  132.73800659    3.78999996    2.67000008
   19.26694489  138.58900452    3.80999994    2.66000009
   19.27000046  142.53199768    3.80999994    2.67000008
   19.27333260  145.07099915    3.78999996    2.67000008
   19.27666664  134.43400574    3.82999992    2.67000008
   19.27972221  139.24000549    3.86999989    2.66000009
   19.28305435  140.41000366    3.95000005    2.67000008
   19.28638840  140.88900757    3.95000005    2.67000008
   19.28722191  126.39900208    3.97000003    2.66000009
   19.29277802  126.39900208    4.05999994    2.66000009
   19.29694366  138.34599304    4.05999994    2.66000009
   19.29999924  137.03300476    4.07999992    2.67000008
   19.30333328  128.97599792    4.09999990    2.66000009
   19.30638885  137.77000427    4.11999989    2.66000009
   19.30972099  137.62399292    4.13999987    2.66000009
   19.31305504  142.25999451    4.11999989    2.66000009
   19.31611061  137.57400513    4.13999987    2.66000009
   19.31944466  131.77299500    4.17999983    2.66000009
   19.32055664  130.19000244    4.19999981    2.66000009
   19.32305717  135.66999817    4.13999987    2.66000009
   19.32611275  134.44000244    4.13999987    2.67000008
   19.32944489  135.64100647    4.19999981    2.67000008
   19.33555603  135.64100647    4.17999983    2.64000010
   19.33972359  131.92999268    4.17999983    2.66000009
   19.34277916  133.87500000    4.13999987    2.66000009
   19.34611130  133.92700195    4.19999981    2.66000009
   19.36361122  129.47599792    4.07999992    2.66000009
   19.36611176  133.08900452    4.05999994    2.66000009
   19.36944389  137.84700012    4.05999994    2.67000008
   19.37249947  137.33900452    4.05999994    2.66000009
   19.37861061  137.33900452    4.01999998    2.66000009
   19.38277817  125.26799774    4.03999996    2.66000009
   19.38583374  131.09800720    4.03999996    2.66000009
   19.38916588  121.48300171    4.03999996    2.66000009
   19.39249992  127.45300293    4.03999996    2.67000008
   19.39555550  132.24499512    4.03999996    2.66000009
   19.39694405  123.98600006    4.03999996    2.66000009
   19.39944458  123.11399841    4.03999996    2.66000009
   19.40250015  122.44300079    4.07999992    2.64000010
   19.40583229  132.95599365    4.09999990    2.66000009
   19.40916634  132.30599976    4.13999987    2.64000010
   19.41222191  131.38400269    4.09999990    2.66000009
   19.41555595  133.09199524    4.13999987    2.66000009
   19.42138863  133.09199524    4.19999981    2.66000009
   19.42555428  125.69699860    4.23999977    2.66000009
   19.42888832  127.75299835    4.26000023    2.66000009
   19.43027687  122.71499634    4.26999998    2.66000009
   19.43249893  134.24600220    4.26999998    2.66000009
   19.43555450  122.74700165    4.26999998    2.64000010
   19.43888855  133.28399658    4.28999996    2.64000010
   19.44222069  134.48199463    4.28999996    2.64000010
   19.44527626  132.55700684    4.26000023    2.66000009
   19.44861031  123.98500061    4.26999998    2.66000009
   19.45194435  134.94400024    4.32999992    2.64000010
   19.45499992  126.64299774    4.36999989    2.64000010
   19.45833397  134.61700439    4.44999981    2.64000010
   19.46416664  134.61700439    4.48999977    2.64000010
   19.46833420  138.85000610    4.48999977    2.64000010
   19.47166634  136.73899841    4.40999985    2.64000010
   19.47472191  127.51899719    4.38999987    2.64000010
   19.47805595  135.06399536    4.38999987    2.64000010
   19.48139000  130.00199890    4.36999989    2.64000010
   19.48444557  126.16699982    4.34999990    2.64000010
   19.48777771  132.10099792    4.34999990    2.64000010
   19.49111176  130.67500305    4.30999994    2.64000010
   19.49416733  129.37100220    4.28999996    2.64000010
   19.49694443  125.48899841    4.26000023    2.64000010
   19.49777794  123.56900024    4.23999977    2.66000009
   19.50083351  128.06700134    4.19999981    2.66000009
   19.50722313  128.06700134    4.13999987    2.66000009
   19.51111031  127.33200073    4.11999989    2.64000010
   19.51444435  123.22499847    4.09999990    2.66000009
   19.51777840  132.98100281    4.11999989    2.64000010
   19.52083397  127.05799866    4.11999989    2.64000010
   19.52416611  125.86599731    4.13999987    2.66000009
   19.52750015  130.28199768    4.17999983    2.64000010
   19.53027725  127.32900238    4.17999983    2.66000009
   19.53111076  131.56799316    4.17999983    2.64000010
   19.53416634  127.84600067    4.17999983    2.66000009
   19.53750038  130.59899902    4.17999983    2.64000010
   19.54083252  132.84500122    4.19999981    2.66000009
   19.54388809  134.62899780    4.19999981    2.64000010
   19.54999924  134.62899780    4.11999989    2.66000009
   19.55416679  128.89500427    4.07999992    2.64000010
   19.55722237  127.90000153    4.05999994    2.64000010
   19.56055450  134.08799744    4.05999994    2.64000010
   19.56361008  131.58299255    4.05999994    2.64000010
   19.56416512  121.90599823    4.05999994    2.64000010
   19.56722260  127.30000305    4.05999994    2.64000010
   19.57055664  123.73600006    4.05999994    2.64000010
   19.57389069  128.66400146    4.05999994    2.64000010
   19.57694626  129.88999939    4.05999994    2.64000010
   19.58027840  124.81099701    4.03999996    2.66000009
   19.58361244  126.94699860    4.01999998    2.64000010
   19.58666801  125.61599731    3.99000001    2.64000010
   19.59277916  125.61599731    3.95000005    2.66000009
   19.59694481  131.85499573    3.95000005    2.64000010
   19.59749985  134.35899353    3.95000005    2.64000010
   19.60055542  134.76699829    3.95000005    2.66000009
   19.60388947  132.89100647    3.99000001    2.66000009
   19.60722351  130.00000000    3.97000003    2.64000010
   19.61027908  131.98399353    3.97000003    2.64000010
   19.61361122  124.83899689    3.97000003    2.64000010
   19.61694527  132.89599609    3.97000003    2.64000010
   19.62000084  129.69000244    3.97000003    2.66000009
   19.62333298  126.84899902    4.01999998    2.64000010
   19.62666702  123.87200165    4.07999992    2.64000010
   19.62972260  130.07400513    4.15999985    2.64000010
   19.63027763  122.20999908    4.15999985    2.64000010
   19.63555527  122.20999908    4.26999998    2.64000010
   19.63972282  123.67099762    4.30999994    2.64000010
   19.64305496  127.97599792    4.30999994    2.64000010
   19.64666748  129.99699402    4.26000023    2.64000010
   19.64972115  133.24099731    4.28999996    2.64000010
   19.65305519  129.14399719    4.28999996    2.64000010
   19.65638924  129.09300232    4.28999996    2.64000010
   19.65944481  124.35800171    4.26999998    2.64000010
   19.66277695  120.02500153    4.28999996    2.61999989
   19.66361046  129.13900757    4.28999996    2.64000010
   19.66638756  132.16999817    4.28999996    2.61999989
   19.66972160  123.94100189    4.30999994    2.64000010
   19.67277718  127.94899750    4.28999996    2.64000010
   19.67860985  127.94899750    4.28999996    2.61999989
   19.68249893  139.09599304    4.26999998    2.61999989
   19.68583298  129.31700134    4.26999998    2.64000010
   19.68916512  128.98599243    4.26000023    2.61999989
   19.69222069  138.84700012    4.21999979    2.61999989
   19.69555473  134.33099365    4.21999979    2.61999989
   19.69694328  134.98100281    4.19999981    2.61999989
   19.69916534  128.91900635    4.17999983    2.64000010
   19.70250130  128.55099487    4.17999983    2.64000010
   19.70555687  132.39900208    4.15999985    2.64000010
   19.70888901  130.49699402    4.13999987    2.64000010
   19.71194458  133.54400635    4.19999981    2.64000010
   19.71527863  138.52000427    4.21999979    2.64000010
   19.72138977  138.52000427    4.28999996    2.61999989
   19.72555542  133.54800415    4.38999987    2.61999989
   19.72916794  141.28700256    4.42999983    2.61999989
   19.73027802  131.59300232    4.44999981    2.61999989
   19.73277855  131.48800659    4.44999981    2.64000010
   19.73611069  131.25999451    4.48999977    2.61999989
   19.73916626  130.73399353    4.53999996    2.61999989
   19.74250031  128.43299866    4.55999994    2.61999989
   19.74555588  135.64199829    4.61999989    2.61999989
   19.74888992  128.16099548    4.65999985    2.61999989
   19.75222206  127.91200256    4.71999979    2.61999989
   19.75527763  137.44900513    4.73999977    2.61999989
   19.75861168  122.23899841    4.80999994    2.61999989
   19.76416588  122.23899841    4.88999987    2.59999990
   19.76833344  127.15499878    4.88999987    2.59999990
   19.77166557  132.27799988    4.82999992    2.59999990
   19.77472115  127.87899780    4.80000019    2.61999989
   19.77805519  126.09200287    4.76000023    2.61999989
   19.78111076  135.72399902    4.73999977    2.61999989
   19.78444481  120.29499817    4.76000023    2.59999990
   19.78777695  125.01699829    4.80000019    2.61999989
   19.79083252  123.36499786    4.80000019    2.61999989
   19.79416656  126.90399933    4.80000019    2.61999989
   19.79694366  121.14900208    4.82999992    2.61999989
   19.79777718  138.05999756    4.84999990    2.61999989
   19.80111122  133.56100464    4.86999989    2.61999989
   19.80694389  133.56100464    4.90999985    2.61999989
   19.81110954  134.16099548    4.90999985    2.61999989
   19.81444359  134.89399719    4.78000021    2.61999989
   19.81750107  129.92399597    4.67999983    2.61999989
   19.82083511  134.43699646    4.65999985    2.61999989
   19.82416725  128.27600098    4.65999985    2.61999989
   19.82722282  127.51499939    4.67999983    2.61999989
   19.83027840  130.38999939    4.73999977    2.61999989
   19.83083344  128.34300232    4.73999977    2.61999989
   19.83416748  129.12300110    4.86999989    2.61999989
   19.83722305  139.14100647    4.90999985    2.61999989
   19.84055710  129.74699402    4.90999985    2.61999989
   19.84361267  136.46899414    4.90999985    2.61999989
   19.85000038  136.46899414    4.90999985    2.64000010
   19.85388947  136.93400574    4.90999985    2.61999989
   19.85722351  131.85299683    4.90999985    2.61999989
   19.86055565  127.44799805    4.90999985    2.59999990
   19.86361122  137.11300659    4.90999985    2.59999990
   19.86416626  134.58900452    4.90999985    2.59999990
   19.86750031  139.68800354    4.90999985    2.59999990
   19.87055588  133.85899353    4.90999985    2.59999990
   19.87388992  135.10699463    4.90999985    2.57999992
   19.87694550  135.67399597    4.90999985    2.57999992
   19.88027763  140.83000183    4.90999985    2.57999992
   19.88361168  139.26499939    4.90999985    2.57999992
   19.88666725  141.94200134    4.90999985    2.57999992
   19.89277840  141.94200134    4.90999985    2.57999992
   19.89694405  131.95399475    4.90999985    2.57999992
   19.89749908  131.15400696    4.90999985    2.57999992
   19.90055466  137.63400269    4.90999985    2.57999992
   19.90388870  137.91799927    4.90999985    2.57999992
   19.90722275  142.47599792    4.90999985    2.55999994
   19.91027832  140.00900269    4.90999985    2.55999994
   19.91361046  133.50300598    4.90999985    2.57999992
   19.91666603  131.33500671    4.90999985    2.57999992
   19.92000008  141.62300110    4.90999985    2.55999994
   19.92333221  133.45899963    4.90999985    2.55999994
   19.92638779  137.42700195    4.90999985    2.55999994
   19.92972183  143.98500061    4.90999985    2.57999992
   19.93083191  136.04400635    4.90999985    2.57999992
   19.93555450  136.04400635    4.90999985    2.57999992
   19.93972206  136.42999268    4.90999985    2.57999992
   19.94305420  146.61300659    4.90999985    2.57999992
   19.94610977  138.99800110    4.90999985    2.57999992
   19.94944382  140.21000671    4.90999985    2.57999992
   19.95277786  131.18200684    4.90999985    2.57999992
   19.95583344  132.90800476    4.90999985    2.59999990
   19.95916748  139.57299805    4.90999985    2.57999992
   19.96250153  138.94700623    4.90999985    2.57999992
   19.96416664  144.08599854    4.90999985    2.55999994
   19.96583366  138.38299561    4.90999985    2.55999994
   19.96916771  154.02600098    4.90999985    2.55999994
   19.97249985  139.72500610    4.90999985    2.55999994
   19.97833443  139.72500610    4.90999985    2.55999994
   19.98250008  136.48399353    4.90999985    2.55999994
   19.98583412  132.67199707    4.90999985    2.55999994
   19.98888969  140.88600159    4.90999985    2.55999994
   19.99222183  142.50500488    4.90999985    2.55999994
   19.99555588  142.15499878    4.90999985    2.55999994
   19.99749947  137.80400085    4.90999985    2.55999994
   19.99916649  139.40800476    4.90999985    2.55999994
   20.00250053  144.45300293    4.90999985    2.55999994
   20.00583267  138.62699890    4.90999985    2.55999994
   20.00888824  132.39799500    4.90999985    2.55999994
   20.01222229  141.27999878    4.90999985    2.55999994
   20.01527786  139.38499451    4.90999985    2.55999994
   20.02138901  139.38499451    4.90999985    2.55999994
   20.02527809  137.26899719    4.90999985    2.55999994
   20.02861023  137.90499878    4.90999985    2.55999994
   20.03083229  141.44599915    4.90999985    2.55999994
   20.03222275  135.06599426    4.90999985    2.55999994
   20.03555489  140.33000183    4.90999985    2.55999994
   20.03888893  131.77499390    4.90999985    2.55999994
   20.04194450  138.00100708    4.90999985    2.55999994
   20.04527664  139.61099243    4.90999985    2.55999994
   20.04833221  139.80099487    4.90999985    2.55999994
   20.05166626  132.75500488    4.90999985    2.55999994
   20.05499840  143.79899597    4.90999985    2.55999994
   20.05805397  139.86199951    4.90999985    2.55999994
   20.06416512  139.86199951    4.90999985    2.55999994
   20.06833458  140.65800476    4.90999985    2.55999994
   20.07139015  145.41600037    4.90999985    2.55999994
   20.07472229  141.84300232    4.90999985    2.55999994
   20.07805634  142.32499695    4.90999985    2.55999994
   20.08111191  140.48800659    4.90999985    2.55999994
   20.08444595  134.60000610    4.90999985    2.55999994
   20.08750153  138.47099304    4.90999985    2.55999994
   20.09083366  138.40699768    4.90999985    2.55999994
   20.09416771  112.75900269    4.90999985    2.55999994
   20.09722328  134.07499695    4.90999985    2.55999994
   20.09777832  140.36399841    4.90999985    2.55999994
   20.10111237  138.73699951    4.90999985    2.55999994
   20.10694504  138.73699951    4.86999989    2.55999994
   20.11111069  137.11900330    4.82999992    2.55999994
   20.11444473  135.38800049    4.82999992    2.55999994
   20.11750031  135.86900330    4.86999989    2.55999994
   20.12083435  133.56300354    4.84999990    2.53999996
   20.12388992  143.49000549    4.86999989    2.55999994
   20.12722206  139.13499451    4.84999990    2.55999994
   20.13055611  131.41700745    4.82999992    2.53999996
   20.13111115  134.03900146    4.82999992    2.55999994
   20.13416672  137.93800354    4.82999992    2.55999994
   20.13750076  129.06100464    4.80999994    2.53999996
   20.14055634  132.19099426    4.80000019    2.55999994
   20.14388847  132.89999390    4.78000021    2.55999994
   20.14972115  132.89999390    4.73999977    2.55999994
   20.15388870  132.58599854    4.73999977    2.55999994
   20.15722275  128.83200073    4.71999979    2.55999994
   20.16027832  127.40499878    4.69999981    2.55999994
   20.16361046  127.79100037    4.69999981    2.53999996
   20.16444397  139.29400635    4.69999981    2.53999996
   20.16722107  140.85400391    4.71999979    2.55999994
   20.17055511  133.32400513    4.71999979    2.55999994
   20.17361069  131.87800598    4.71999979    2.55999994
   20.17694473  135.09599304    4.71999979    2.55999994
   20.18000031  128.45599365    4.71999979    2.55999994
   20.18333244  137.08099365    4.71999979    2.55999994
   20.18666649  132.68299866    4.71999979    2.53999996
   20.19277763  132.68299866    4.73999977    2.55999994
   20.19666672  136.19999695    4.80000019    2.53999996
   20.19777679  133.07200623    4.80000019    2.53999996
   20.20055580  139.06799316    4.80999994    2.55999994
   20.20388985  137.00500488    4.80999994    2.55999994
   20.20694542  139.60400391    4.82999992    2.55999994
   20.21027946  120.21900177    4.82999992    2.53999996
   20.21333504  105.52300262    4.84999990    2.55999994
   20.21666718   98.82230377    4.86999989    2.53999996
   20.22000122   99.71299744    4.90999985    2.53999996
   20.22305679   91.77159882    4.90999985    2.53999996
   20.22638893  121.92099762    4.90999985    2.53999996
   20.22972298  118.73400116    4.90999985    2.53999996
   20.23111153  149.37399292    4.90999985    2.53999996
   20.23555565  149.37399292    4.90999985    2.53999996
   20.23972321   -1.00000000    4.88999987    2.53999996
   20.24277878   -1.00000000    4.86999989    2.53999996
   20.24611092   -1.00000000    4.86999989    2.53999996
   20.24944496   -1.00000000    4.84999990    2.53999996
   20.25250053   -1.00000000    4.82999992    2.53999996
   20.25583267   -1.00000000    4.84999990    2.53999996
   20.25888824   -1.00000000    4.84999990    2.53999996
   20.26222229   -1.00000000    4.90999985    2.51999998
   20.26583290   -1.00000000    4.90999985    2.53999996
   20.26888847   -1.00000000    4.90999985    2.53999996
   20.27222252   -1.00000000    4.90999985    2.51999998
   20.28249931   -1.00000000    4.90999985    2.53999996
   20.28555489   -1.00000000    4.90999985    2.51999998
   20.28888893   -1.00000000    4.90999985    2.51999998
   20.29194450   -1.00000000    4.90999985    2.51999998
   20.29527664   -1.00000000    4.90999985    2.51999998
   20.29888916   -1.00000000    4.90999985    2.51999998
   20.30194283   -1.00000000    4.90999985    2.51999998
   20.30527687   -1.00000000    4.90999985    2.51999998
   20.30833244   -1.00000000    4.90999985    2.50000000
   20.31166649   -1.00000000    4.90999985    2.51999998
   20.31499863   -1.00000000    4.90999985    2.51999998
   20.32527924   -1.00000000    4.90999985    2.51999998
   20.32833481   -1.00000000    4.90999985    2.51999998
   20.33222389   -1.00000000    4.90999985    2.51999998
   20.33527756   -1.00000000    4.90999985    2.51999998
   20.33861160   -1.00000000    4.90999985    2.51999998
   20.34166718   -1.00000000    4.90999985    2.51999998
   20.34500122   -1.00000000    4.90999985    2.51999998
   20.34833336   -1.00000000    4.90999985    2.51999998
   20.35138893   -1.00000000    4.90999985    1.96000004
   20.35472298   -1.00000000    4.90999985    2.51999998
   20.35805511   -1.00000000    4.90999985    2.50000000
   20.38222313   -1.00000000    4.90999985    2.51999998
   20.38555527   -1.00000000    4.90999985    2.51999998
   20.38888931   -1.00000000    4.90999985    2.50000000
   20.39194489   -1.00000000    4.90999985    2.50000000
   20.39527702   -1.00000000    4.90999985    2.51999998
   20.39833260   -1.00000000    4.90999985    2.50000000
   20.40166664   -1.00000000    4.90999985    2.51999998
   20.41110992   -1.00000000    4.90999985    2.50000000
   20.41444397   -1.00000000    4.90999985    2.50000000
   20.41805458   -1.00000000    4.90999985    2.50000000
   20.42111015   -1.00000000    4.90999985    2.50000000
   20.42444420   -1.00000000    4.90999985    2.48000002
   20.42777634   -1.00000000    4.90999985    2.48000002
   20.43083191   -1.00000000    4.90999985    2.48000002
   20.43416595   -1.00000000    4.90999985    2.48000002
   20.43722153   -1.00000000    4.90999985    2.48000002
   20.44055557   -1.00000000    4.90999985    2.48000002
   20.44388771   -1.00000000    4.90999985    2.48000002
   20.45388985   -1.00000000    4.90999985    2.48000002
   20.45722389   -1.00000000    4.90999985    2.48000002
   20.46027946   -1.00000000    4.90999985    2.48000002
   20.46361160   -1.00000000    4.90999985    2.46000004
   20.46694565   -1.00000000    4.90999985    2.46000004
   20.47000122   -1.00000000    4.90999985    2.46000004
   20.47333336   -1.00000000    4.90999985    2.46000004
   20.47638893   -1.00000000    4.90999985    2.46000004
   20.47972298   -1.00000000    4.90999985    2.46000004
   20.48333359   -1.00000000    4.90999985    2.46000004
   20.48638916   -1.00000000    4.90999985    2.46000004
   20.49666786   -1.00000000    4.90999985    2.46000004
   20.50000000   -1.00000000    4.90999985    2.46000004
   20.50333405   -1.00000000    4.90999985    2.46000004
   20.50638962   -1.00000000    4.90999985    2.48000002
   20.50972176   -1.00000000    4.90999985    2.46000004
   20.51277733   -1.00000000    4.90999985    2.46000004
   20.51638794   -1.00000000    4.90999985    2.46000004
   20.51944351   -1.00000000    4.90999985    2.46000004
   20.52277756   -1.00000000    4.90999985    2.46000004
   20.52611160   -1.00000000    4.90999985    2.46000004
   20.52916718   -1.00000000    4.90999985    2.46000004
   20.53972244   -1.00000000    4.90999985    2.44000006
   20.54277802   -1.00000000    4.90999985    2.46000004
   20.54611015   -1.00000000    4.90999985    2.44000006
   20.54972076   -1.00000000    4.90999985    2.44000006
   20.55277634   -1.00000000    4.90999985    2.44000006
   20.55611038   -1.00000000    4.90999985    2.44000006
   20.55944443   -1.00000000    4.90999985    2.44000006
   20.56250000   -1.00000000    4.90999985    2.42000008
   20.56583214   -1.00000000    4.90999985    2.42000008
   20.56888962   -1.00000000    4.90999985    2.42000008
   20.57222366   -1.00000000    4.90999985    2.42000008
   20.58250046   -1.00000000    4.90999985    2.42000008
   20.58555603   -1.00000000    4.90999985    2.42000008
   20.58889008   -1.00000000    4.90999985    2.42000008
   20.59222221   -1.00000000    4.90999985    2.44000006
   20.59527779   -1.00000000    4.90999985    2.42000008
   20.59861183   -1.00000000    4.90999985    2.44000006
   20.60194397   -1.00000000    4.90999985    2.42000008
   20.60499954   -1.00000000    4.90999985    2.42000008
   20.60833359   -1.00000000    4.90999985    2.42000008
   20.61138916   -1.00000000    4.90999985    2.44000006
   20.61472321   -1.00000000    4.90999985    2.42000008
   20.62527847   -1.00000000    4.90999985    2.44000006
   20.62861061   -1.00000000    4.90999985    2.42000008
   20.63166618   -1.00000000    4.90999985    2.44000006
   20.63500023   -1.00000000    4.90999985    2.42000008
   20.63833237   -1.00000000    4.90999985    2.42000008
   20.64138794   -1.00000000    4.90999985    2.40000010
   20.64472198   -1.00000000    4.90999985    2.40000010
   20.64777756   -1.00000000    4.90999985    2.40000010
   20.65138817   -1.00000000    4.90999985    2.40000010
   20.65444374   -1.00000000    4.90999985    2.40000010
   20.65777779   -1.00000000    4.90999985    2.39000010
   20.66805458   -1.00000000    4.90999985    2.39000010
   20.67138863   -1.00000000    4.90999985    2.36999989
   20.67472076   -1.00000000    4.90999985    2.39000010
   20.67777634   -1.00000000    4.90999985    2.39000010
   20.68111038   -1.00000000    4.90999985    2.36999989
   20.68472099   -1.00000000    4.90999985    2.34999990
   20.68777657   -1.00000000    4.90999985    2.34999990
   20.69111061   -1.00000000    4.90999985    2.34999990
   20.69444275   -1.00000000    4.90999985    2.34999990
   20.69749832   -1.00000000    4.90999985    2.34999990
   20.70083427   -1.00000000    4.90999985    2.36999989
   20.71111107   -1.00000000    4.90999985    2.34999990
   20.71416664   -1.00000000    4.90999985    2.34999990
   20.71777916   -1.00000000    4.90999985    2.32999992
   20.72083473   -1.00000000    4.90999985    2.32999992
   20.72416687   -1.00000000    4.90999985    2.32999992
   20.72750092   -1.00000000    4.90999985    2.32999992
   20.73055649   -1.00000000    4.90999985    2.32999992
   20.73388863   -1.00000000    4.90999985    2.30999994
   20.73722267   -1.00000000    4.90999985    2.32999992
   20.74027824   -1.00000000    4.90999985    2.32999992
   20.74361229   -1.00000000    4.90999985    2.32999992
   20.75388908   -1.00000000    4.90999985    2.32999992
   20.75722313   -1.00000000    4.90999985    2.30999994
   20.76027870   -1.00000000    4.90999985    2.30999994
   20.76361084   -1.00000000    4.90999985    2.30999994
   20.76666641   -1.00000000    4.90999985    2.30999994
   20.77000046   -1.00000000    4.90999985    2.30999994
   20.77333260   -1.00000000    4.90999985    2.30999994
   20.77638817   -1.00000000    4.90999985    2.28999996
   20.77972221   -1.00000000    4.90999985    2.28999996
   20.78333282   -1.00000000    4.90999985    2.28999996
   20.78638840   -1.00000000    4.90999985    2.26999998
   20.79666710   -1.00000000    4.90999985    2.26999998
   20.79999924   -1.00000000    4.90999985    2.26999998
   20.80305481   -1.00000000    4.90999985    2.26999998
   20.80638885   -1.00000000    4.90999985    2.25000000
   20.80972099   -1.00000000    4.90999985    2.25000000
   20.81277657   -1.00000000    4.90999985    2.26999998
   20.81638718   -1.00000000    4.90999985    2.25000000
   20.81944466   -1.00000000    4.90999985    2.25000000
   20.82277870   -1.00000000    4.90999985    2.25000000
   20.82611275   -1.00000000    4.90999985    2.25000000
   20.82916832   -1.00000000    4.90999985    2.25000000
   20.83944511   -1.00000000    4.90999985    2.25000000
   20.84277916   -1.00000000    4.90999985    2.23000002
   20.84611130   -1.00000000    4.90999985    2.23000002
   20.84972191   -1.00000000    4.90999985    2.23000002
   20.85277748   -1.00000000    4.90999985    2.23000002
   20.85611153   -1.00000000    4.90999985    2.21000004
   20.85944557   -1.00000000    4.90999985    2.23000002
   20.86250114   -1.00000000    4.90999985    2.21000004
