    HOUR (UT)   FLARE FACTOR    SKY TESTER    SUN TESTER
   11.47305489   -1.00000000   -1.00000000   -1.00000000
   11.51277733  294.08999634    4.90999985    1.75000000
   11.51749992  330.15100098    4.90999985    1.75000000
   11.52194405  377.11898804    4.90999985    1.75000000
   11.52388859  385.96701050    4.90999985    1.75000000
   11.52527714  368.47500610    4.90999985    1.75000000
   11.52666664  375.35699463    4.90999985    1.75000000
   11.52805519  354.34698486    4.90999985    1.76999998
   11.52944374  368.79098511    4.90999985    1.76999998
   11.53083324  377.68301392    4.90999985    1.76999998
   11.53222179  414.05300903    4.90999985    1.76999998
   11.53361130  416.64898682    4.90999985    1.76999998
   11.53500080  439.47100830    4.90999985    1.76999998
   11.53638935  365.15600586    4.90999985    1.76999998
   11.53777790  397.37298584    4.90999985    1.76999998
   11.53916740  377.94500732    4.90999985    1.76999998
   11.54055595  390.54598999    4.90999985    1.76999998
   11.54194450  422.75000000    4.90999985    1.78999996
   11.54333401  420.14599609    4.90999985    1.78999996
   11.54472256  415.46200562    4.90999985    1.78999996
   11.54611111  419.31201172    4.90999985    1.78999996
   11.54750061  392.49600220    4.90999985    1.78999996
   11.54888916  362.33499146    4.90999985    1.78999996
   11.55027771  406.08700562    4.90999985    1.78999996
   11.55194473  383.32501221    4.90999985    1.80999994
   11.55305576  425.03399658    4.90999985    1.80999994
   11.55444431  430.32101440    4.90999985    1.80999994
   11.55583382  418.63699341    4.90999985    1.80999994
   11.55722237  406.11300659    4.90999985    1.80999994
   11.55861092  411.57400513    4.90999985    1.80999994
   11.56000042  401.87399292    4.90999985    1.80999994
   11.56138897  415.02899170    4.90999985    1.80999994
   11.56277752  441.63699341    4.90999985    1.80999994
   11.56416702  416.09600830    4.90999985    1.80999994
   11.56555557  437.62701416    4.90999985    1.80999994
   11.56694412  415.73498535    4.90999985    1.80999994
   11.56833363  372.41400146    4.90999985    1.83000004
   11.56972218  457.20999146    4.90999985    1.83000004
   11.57111073  438.97299194    4.90999985    1.80999994
   11.57250023  429.75299072    4.90999985    1.83000004
   11.57388878  435.27899170    4.90999985    1.80999994
   11.57527733  431.28900146    4.90999985    1.83000004
   11.57666683  441.86599731    4.90999985    1.83000004
   11.57805538  443.92999268    4.90999985    1.83000004
   11.57944393  446.00900269    4.90999985    1.83000004
   11.58083344  446.47100830    4.90999985    1.83000004
   11.58222198  391.25100708    4.90999985    1.85000002
   11.58361053  409.30599976    4.90999985    1.85000002
   11.58500004  413.14898682    4.90999985    1.85000002
   11.58638859  421.42001343    4.90999985    1.85000002
   11.58777714  425.62899780    4.90999985    1.85000002
   11.58916664  456.42199707    4.90999985    1.85000002
   11.59055519  465.78500366    4.90999985    1.85000002
   11.59194374  431.70300293    4.90999985    1.85000002
   11.59333324  434.33801270    4.90999985    1.85000002
   11.59472179  431.78500366    4.90999985    1.85000002
   11.59611034  449.64898682    4.90999985    1.86000001
   11.59749985  409.36300659    4.90999985    1.85000002
   11.59888840  436.54598999    4.90999985    1.86000001
   11.60027790  454.27099609    4.90999985    1.86000001
   11.60166740  400.38900757    4.90999985    1.86000001
   11.60305595  407.07598877    4.90999985    1.86000001
   11.60444450  413.55099487    4.90999985    1.86000001
   11.60583401  430.35400391    4.90999985    1.86000001
   11.60722256  407.87799072    4.90999985    1.86000001
   11.60861111  426.08999634    4.90999985    1.86000001
   11.61000061  417.52099609    4.90999985    1.86000001
   11.61138916  428.56698608    4.90999985    1.88000000
   11.61277771  419.88400269    4.90999985    1.88000000
   11.61416721  420.07501221    4.90999985    1.88000000
   11.61555576  435.90600586    4.90999985    1.88000000
   11.61694431  426.95001221    4.90999985    1.88000000
   11.61833382  419.66799927    4.90999985    1.88000000
   11.61972237  407.96600342    4.90999985    1.89999998
   11.62111092  409.21398926    4.90999985    1.88000000
   11.62250042  389.35299683    4.90999985    1.89999998
   11.62388897  404.83999634    4.90999985    1.88000000
   11.62527752  434.19601440    4.90999985    1.88000000
   11.62666702  368.11401367    4.90999985    1.89999998
   11.62805557  385.42498779    4.90999985    1.89999998
   11.62944412  397.57800293    4.90999985    1.88000000
   11.63083363  407.26199341    4.90999985    1.89999998
   11.63222218  375.24798584    4.90999985    1.89999998
   11.63361073  395.37200928    4.90999985    1.89999998
   11.63500023  367.50100708    4.90999985    1.89999998
   11.63638878  379.84298706    4.90999985    1.89999998
   11.63777733  365.63299561    4.90999985    1.89999998
   11.63916683  377.80398560    4.90999985    1.89999998
   11.64055538  368.06799316    4.90999985    1.91999996
   11.64194393  395.23999023    4.90999985    1.89999998
   11.64333344  380.72198486    4.90999985    1.89999998
   11.64472198  395.45300293    4.90999985    1.91999996
   11.64611053  362.76998901    4.90999985    1.94000006
   11.64750004  354.49200439    4.90999985    1.91999996
   11.64888859  466.31799316    4.90999985    1.91999996
   11.65027714  357.41101074    4.90999985    1.91999996
   11.65166664  422.65798950    4.90999985    1.91999996
   11.65305519  411.36300659    4.90999985    1.94000006
   11.65444374  364.88101196    4.90999985    1.94000006
   11.65583324  374.94299316    4.90999985    1.91999996
   11.65722179  395.10800171    4.90999985    1.94000006
   11.65861034  363.63500977    4.90999985    1.94000006
   11.65999985  386.76599121    4.90999985    1.94000006
   11.66138840  352.21701050    4.90999985    1.94000006
   11.66277695  389.41000366    4.90999985    1.94000006
   11.66416645  388.62200928    4.90999985    1.94000006
   11.66555500  370.60400391    4.90999985    1.94000006
   11.66694450  431.61499023    4.90999985    1.94000006
   11.66833401  430.07699585    4.90999985    1.96000004
   11.66972256  379.28500366    4.90999985    1.94000006
   11.67111111  356.85900879    4.90999985    1.94000006
   11.67250061  368.98098755    4.90999985    1.94000006
   11.67388916  386.47100830    4.90999985    1.96000004
   11.67527771  349.30499268    4.90999985    1.94000006
   11.67666721  362.07299805    4.90999985    1.96000004
   11.67805576  361.02700806    4.90999985    1.96000004
   11.67944431  416.27398682    4.90999985    1.96000004
   11.68083382  406.90301514    4.90999985    1.96000004
   11.68222237  394.71398926    4.90999985    1.96000004
   11.68361092  456.58099365    4.90999985    1.96000004
   11.68500042  472.36499023    4.90999985    1.96000004
   11.68638897  437.03298950    4.90999985    1.96000004
   11.68777752  392.60900879    4.90999985    1.98000002
   11.68916702  405.59600830    4.90999985    1.98000002
   11.69055557  400.35000610    4.90999985    1.96000004
   11.69194412  397.39999390    4.90999985    1.98000002
   11.69333363  432.60699463    4.90999985    1.98000002
   11.69472218  473.52099609    4.90999985    1.98000002
   11.69611073  448.89099121    4.90999985    1.98000002
   11.69750023  471.30200195    4.90999985    1.98000002
   11.69888878  490.76599121    4.90999985    1.98000002
   11.70027733  426.26800537    4.90999985    1.98000002
   11.70166683  405.14300537    4.90999985    1.98000002
   11.70305538  465.70700073    4.90999985    1.98000002
   11.70444393  431.97500610    4.90999985    1.98000002
   11.70583344  435.03799438    4.90999985    1.98000002
   11.70722198  399.83898926    4.90999985    2.00000000
   11.70861053  449.38198853    4.90999985    2.00000000
   11.71000004  369.83999634    4.90999985    2.00000000
   11.71138859  474.77600098    4.90999985    2.00000000
   11.71277714  414.35699463    4.90999985    2.00000000
   11.71416664  443.04299927    4.90999985    2.00000000
   11.71555519  413.75399780    4.90999985    2.00000000
   11.71694374  454.89801025    4.90999985    2.00000000
   11.71833324  409.75399780    4.90999985    2.01999998
   11.71972179  472.19699097    4.90999985    2.01999998
   11.72111034  444.29998779    4.90999985    2.01999998
   11.72249985  393.99200439    4.90999985    2.01999998
   11.72388840  346.49899292    4.90999985    2.01999998
   11.72527695  396.12200928    4.90999985    2.01999998
   11.72666645  467.65499878    4.90999985    2.01999998
   11.72805500  353.41101074    4.90999985    2.01999998
   11.72944355  396.50201416    4.90999985    2.01999998
   11.73083305  436.80599976    4.90999985    2.01999998
   11.73222160  426.79598999    4.90999985    2.01999998
   11.73361111  470.56698608    4.90999985    2.01999998
   11.73500061  447.59201050    4.90999985    2.01999998
   11.73638916  387.21899414    4.90999985    2.01999998
   11.73777771  356.46398926    4.90999985    2.01999998
   11.73916721  411.40701294    4.90999985    2.01999998
   11.74055576  428.14599609    4.90999985    2.03999996
   11.74194431  362.82000732    4.90999985    2.03999996
   11.74333382  402.36700439    4.90999985    2.03999996
   11.74472237  388.04800415    4.90999985    2.03999996
   11.74611092  341.59698486    4.90999985    2.03999996
   11.74750042  385.61300659    4.90999985    2.03999996
   11.74888897  330.57101440    4.90999985    2.03999996
   11.75027752  331.68798828    4.90999985    2.05999994
   11.75166702  363.17999268    4.90999985    2.03999996
   11.75305557  362.35598755    4.90999985    2.03999996
   11.75444412  315.69299316    4.90999985    2.05999994
   11.75583363  366.97698975    4.90999985    2.05999994
   11.75722218  325.62200928    4.90999985    2.05999994
   11.75861073  328.07699585    4.90999985    2.05999994
   11.76000023  350.65499878    4.90999985    2.03999996
   11.76138878  380.34399414    4.90999985    2.05999994
   11.76277733  356.96099854    4.90999985    2.05999994
   11.76416683  378.90798950    4.90999985    2.05999994
   11.76555538  385.02099609    4.90999985    2.05999994
   11.76694393  413.78900146    4.90999985    2.05999994
   11.76833344  341.69799805    4.90999985    2.05999994
   11.76972198  403.50698853    4.90999985    2.05999994
   11.77111053  365.90899658    4.90999985    2.05999994
   11.77250004  381.76998901    4.90999985    2.05999994
   11.77388859  390.67498779    4.90999985    2.05999994
   11.77527714  287.98999023    4.90999985    2.05999994
   11.77527714  330.15100098    4.90999985    1.75000000
   11.77555561  377.11898804    4.90999985    1.75000000
   11.77611065  352.01901245    4.90999985    2.05999994
   11.77805519  294.11700439    4.90999985    2.07999992
   11.77999973  356.23199463    4.90999985    2.05999994
   11.78194427  328.32199097    4.90999985    2.05999994
   11.78333378  421.10598755    4.90999985    2.05999994
   11.78472233  369.94699097    4.90999985    2.07999992
   11.78611183  361.03100586    4.90999985    2.07999992
   11.78750038  418.80599976    4.90999985    2.07999992
   11.78888893  336.09799194    4.90999985    2.07999992
   11.79027843  367.77099609    4.90999985    2.07999992
   11.79166698  348.92098999    4.90999985    2.07999992
   11.79305553  330.17800903    4.90999985    2.07999992
   11.79444504  308.33898926    4.90999985    2.09999990
   11.79583359  339.28201294    4.90999985    2.09999990
   11.79722309  361.52099609    4.90999985    2.09999990
   11.79861164  389.18200684    4.90999985    2.07999992
   11.80000019  376.56500244    4.90999985    2.09999990
   11.80138874  373.52200317    4.90999985    2.07999992
   11.80277824  368.18600464    4.90999985    2.09999990
   11.80416679  334.68301392    4.90999985    2.09999990
   11.80555534  318.03500366    4.90999985    2.09999990
   11.80694485  323.75100708    4.90999985    2.09999990
   11.80833340  384.14199829    4.90999985    2.09999990
   11.80972195  364.67199707    4.90999985    2.09999990
   11.81111145  291.20700073    4.90999985    2.09999990
   11.81111145  356.23199463    4.90999985    2.05999994
   11.81166649  366.24398804    4.90999985    2.09999990
   11.81388950  294.98800659    4.90999985    2.09999990
   11.81555557  380.06201172    4.90999985    2.09999990
   11.81750011  316.98599243    4.90999985    2.09999990
   11.81888866  305.91500854    4.90999985    2.09999990
   11.82027817  389.52600098    4.90999985    2.11999989
   11.82166672  318.45098877    4.90999985    2.11999989
   11.82305527  307.88900757    4.90999985    2.09999990
   11.82444477  363.48001099    4.90999985    2.09999990
   11.82583332  303.15600586    4.90999985    2.11999989
   11.82722187  293.32699585    4.90999985    2.11999989
   11.82722187  380.06201172    4.90999985    2.09999990
   11.82777786  330.81698608    4.90999985    2.11999989
   11.83111095  372.28900146    4.90999985    2.11999989
   11.83305550  361.75399780    4.90999985    2.11999989
   11.83444405  336.23400879    4.90999985    2.13000011
   11.83583260  298.77398682    4.90999985    2.13000011
   11.83583260  330.81698608    4.90999985    2.11999989
   11.83611107  372.28900146    4.90999985    2.11999989
   11.83666611  331.56399536    4.90999985    2.13000011
   11.83972168  331.79598999    4.90999985    2.11999989
   11.84305477  356.44601440    4.90999985    2.11999989
   11.84499931  373.27899170    4.90999985    2.13000011
   11.84638882  404.42898560    4.90999985    2.13000011
   11.84777737  372.35299683    4.90999985    2.11999989
   11.84916592  370.62399292    4.90999985    2.13000011
   11.85055637  332.87701416    4.90999985    2.13000011
   11.85194492  322.03201294    4.90999985    2.13000011
   11.85333347  327.55499268    4.90999985    2.13000011
   11.85472298  335.54501343    4.90999985    2.13000011
   11.85611153  288.71398926    4.90999985    2.13000011
   11.85611153  331.56399536    4.90999985    2.13000011
   11.85638905  331.79598999    4.90999985    2.11999989
   11.85638905  356.44601440    4.90999985    2.11999989
   11.85694504  291.97601318    4.90999985    2.13000011
   11.86027813  329.53698730    4.90999985    2.13000011
   11.86333370  295.69699097    4.90999985    2.15000010
   11.86666679  390.64599609    4.90999985    2.15000010
   11.86861134  315.09799194    4.90999985    2.13000011
   11.86999989  323.06201172    4.90999985    2.15000010
   11.87138939  338.41400146    4.90999985    2.13000011
   11.87277794  380.01998901    4.90999985    2.15000010
   11.87416649  322.38000488    4.90999985    2.13000011
   11.87555599  303.04098511    4.90999985    2.15000010
   11.87694454  327.44500732    4.90999985    2.15000010
   11.87833309  321.60900879    4.90999985    2.15000010
   11.87972260  316.69299316    4.90999985    2.17000008
   11.88111115  385.96701050    4.90999985    2.15000010
   11.88249969  288.44400024    4.90999985    2.15000010
   11.88277817  291.97601318    4.90999985    2.13000011
   11.88277817  329.53698730    4.90999985    2.13000011
   11.88277817  295.69699097    4.90999985    2.15000010
   11.88305569  390.64599609    4.90999985    2.15000010
   11.88361073  334.44000244    4.90999985    2.15000010
   11.88666630  288.91799927    4.90999985    2.15000010
   11.89000034  345.89700317    4.90999985    2.15000010
   11.89333344  312.95800781    4.90999985    2.17000008
   11.89638901  336.85598755    4.90999985    2.17000008
   11.90333271  336.85598755    4.90999985    2.17000008
   11.90749931  260.94198608    4.90999985    2.17000008
   11.91083336  296.46899414    4.90999985    2.17000008
   11.91416645  279.42800903    4.90999985    2.19000006
   11.91638851  325.81698608    4.90999985    2.19000006
   11.91777802  289.68899536    4.90999985    2.19000006
   11.92083359  271.01400757    4.90999985    2.19000006
   11.92416668  256.08700562    4.90999985    2.19000006
   11.92750072  323.26000977    4.90999985    2.21000004
   11.93055630  251.32299805    4.90999985    2.19000006
   11.93388939  326.98599243    4.90999985    2.21000004
   11.93722248  281.31698608    4.90999985    2.21000004
   11.94027805  312.37701416    4.90999985    2.21000004
   11.94611073  312.37701416    4.90999985    2.21000004
   11.95027733  311.21200562    4.90999985    2.21000004
   11.95361137  305.40499878    4.90999985    2.21000004
   11.95666695  291.91900635    4.90999985    2.21000004
   11.96000004  282.20599365    4.90999985    2.21000004
   11.96333313  295.07598877    4.90999985    2.23000002
   11.96638870  295.38101196    4.90999985    2.23000002
   11.96972179  249.15499878    4.90999985    2.23000002
   11.97305489  260.42599487    4.90999985    2.23000002
   11.97611046  256.57101440    4.90999985    2.23000002
   11.97944355  245.85899353    4.90999985    2.23000002
   11.98249912  253.42300415    4.90999985    2.23000002
   11.98305511  252.31399536    4.90999985    2.23000002
   11.98916721  252.31399536    4.90999985    2.25000000
   11.99333382  264.22500610    4.90999985    2.25000000
   11.99638939  245.90600586    4.90999985    2.25000000
   11.99972248  243.30599976    4.90999985    2.25000000
   12.00277805  261.06799316    4.90999985    2.25000000
   12.00611115  251.83900452    4.90999985    2.25000000
   12.00944424  245.34800720    4.90999985    2.25000000
   12.01249981  247.61900330    4.90999985    2.26999998
   12.01583290  249.84700012    4.90999985    2.26999998
   12.01638889  234.00700378    4.90999985    2.25000000
   12.01944447  257.29998779    4.90999985    2.25000000
   12.02277756  225.92100525    4.90999985    2.26999998
   12.02583313  255.15400696    4.90999985    2.26999998
   12.03194427  255.15400696    4.90999985    2.26999998
   12.03611183  250.47399902    4.90999985    2.28999996
   12.03916740  237.21499634    4.90999985    2.28999996
   12.04250050  235.43600464    4.90999985    2.26999998
   12.04583359  245.41400146    4.90999985    2.28999996
   12.04888916  253.56300354    4.90999985    2.28999996
   12.04972267  250.29800415    4.90999985    2.26999998
   12.05249977  255.12699890    4.90999985    2.28999996
   12.05583382  274.83300781    4.90999985    2.28999996
   12.05888939  252.82400513    4.90999985    2.28999996
   12.06222248  247.61300659    4.90999985    2.28999996
   12.06555557  246.68299866    4.90999985    2.28999996
   12.06861115  268.46301270    4.90999985    2.28999996
   12.07472229  268.46301270    4.90999985    2.30999994
   12.07888889  252.67500305    4.90999985    2.30999994
   12.08222198  268.20001221    4.90999985    2.30999994
   12.08305550  244.49299622    4.90999985    2.30999994
   12.08583260  245.72300720    4.90999985    2.30999994
   12.08916664  260.32598877    4.90999985    2.30999994
   12.09222221  255.70500183    4.90999985    2.30999994
   12.09555531  230.17999268    4.90999985    2.30999994
   12.09888840  251.60499573    4.90999985    2.30999994
   12.10194492  243.14799500    4.90999985    2.30999994
   12.10527802  267.25201416    4.90999985    2.32999992
   12.10833359  254.57200623    4.90999985    2.32999992
   12.11166668  246.37100220    4.90999985    2.32999992
   12.11750031  246.37100220    4.90999985    2.32999992
   12.12166691  258.84500122    4.90999985    2.30999994
   12.12500000  250.64199829    4.90999985    2.32999992
   12.12805557  241.58900452    4.90999985    2.32999992
   12.13138866  230.40699768    4.90999985    2.32999992
   12.13472176  253.84399414    4.90999985    2.34999990
   12.13777733  243.36500549    4.90999985    2.32999992
   12.14111137  226.90100098    4.90999985    2.34999990
   12.14444447  230.64199829    4.90999985    2.34999990
   12.14750004  241.13299561    4.90999985    2.32999992
   12.14972210  251.29899597    4.90999985    2.32999992
   12.15111065  235.03300476    4.90999985    2.34999990
   12.15444374  246.29499817    4.90999985    2.34999990
   12.16055489  246.29499817    4.90999985    2.34999990
   12.16444397  243.61199951    4.90999985    2.34999990
   12.16777802  231.15100098    4.90999985    2.34999990
   12.17111111  241.70500183    4.90999985    2.34999990
   12.17416668  227.68699646    4.90999985    2.34999990
   12.17750072  242.06199646    4.90999985    2.34999990
   12.18083382  232.47900391    4.90999985    2.34999990
   12.18305588  231.38699341    4.90999985    2.36999989
   12.18444443  241.44700623    4.90999985    2.36999989
   12.18777752  248.87399292    4.90999985    2.36999989
   12.19083309  246.69500732    4.90999985    2.34999990
   12.19416714  231.63900757    4.90999985    2.36999989
   12.19750023  259.75698853    4.90999985    2.36999989
   12.20333290  259.75698853    4.90999985    2.36999989
   12.20749950  244.70899963    4.90999985    2.36999989
   12.21055508  228.54400635    4.90999985    2.39000010
   12.21388912  221.44500732    4.90999985    2.39000010
   12.21638870  232.38699341    4.90999985    2.39000010
   12.21749973  238.62199402    4.90999985    2.39000010
   12.22083282  255.27000427    4.90999985    2.39000010
   12.22388840  218.83299255    4.90999985    2.39000010
   12.22722149  238.57699585    4.90999985    2.36999989
   12.23055553  233.24699402    4.90999985    2.39000010
   12.23361111  233.63900757    4.90999985    2.40000010
   12.23694515  232.25799561    4.90999985    2.39000010
   12.24000072  242.59399414    4.90999985    2.40000010
   12.24611092  242.59399414    4.90999985    2.39000010
   12.25027752  231.37600708    4.90999985    2.39000010
   12.25361156  217.32600403    4.90999985    2.40000010
   12.25666714  251.99099731    4.90999985    2.40000010
   12.26000023  222.35200500    4.90999985    2.40000010
   12.26305580  226.97700500    4.90999985    2.40000010
   12.26638889  230.61900330    4.90999985    2.40000010
   12.26972198  231.45599365    4.90999985    2.40000010
   12.27277756  231.35800171    4.90999985    2.40000010
   12.27611065  225.70100403    4.90999985    2.40000010
   12.27944374  225.74299622    4.90999985    2.42000008
   12.28249931  209.83200073    4.90999985    2.42000008
   12.28305531  248.61700439    4.90999985    2.42000008
   12.28888893  248.61700439    4.90999985    2.42000008
   12.29305553  233.45700073    4.90999985    2.42000008
   12.29638958  222.50199890    4.90999985    2.42000008
   12.29972267  213.74899292    4.90999985    2.42000008
   12.30277824  241.19299316    4.90999985    2.42000008
   12.30611134  312.61700439    4.90999985    2.42000008
   12.30916691  214.43099976    4.90999985    2.44000006
   12.31250000  231.67799377    4.90999985    2.42000008
   12.31583309  227.65899658    4.90999985    2.42000008
   12.31638908  222.66400146    4.90999985    2.44000006
   12.31944466  215.62500000    4.90999985    2.42000008
   12.32277775  219.06900024    4.90999985    2.44000006
   12.32583332  233.93600464    4.90999985    2.44000006
   12.33194447  233.93600464    4.90999985    2.44000006
   12.33583260  223.33000183    4.90999985    2.44000006
   12.33916664  227.07099915    4.90999985    2.44000006
   12.34249973  222.25999451    4.90999985    2.44000006
   12.34555531  255.57899475    4.90999985    2.46000004
   12.34888840  221.46400452    4.90999985    2.44000006
   12.35000038  216.09300232    4.90999985    2.46000004
   12.35249996  232.75799561    4.90999985    2.44000006
   12.35583401  238.12600708    4.90999985    2.44000006
   12.35888958  216.72700500    4.90999985    2.44000006
   12.36222267  229.54499817    4.90999985    2.44000006
   12.36555576  207.33599854    4.90999985    2.46000004
   12.36861134  212.98899841    4.90999985    2.44000006
   12.37472248  212.98899841    4.90999985    2.46000004
   12.37888908  225.78399658    4.90999985    2.46000004
   12.38194466  204.04499817    4.90999985    2.46000004
   12.38333321  217.68699646    4.90999985    2.46000004
   12.38555527  202.08200073    4.90999985    2.46000004
   12.38888836  216.74899292    4.90999985    2.46000004
   12.39194393  222.26400757    4.90999985    2.46000004
   12.39527798  203.68699646    4.90999985    2.46000004
   12.39861107  217.73599243    4.90999985    2.46000004
   12.40166664  221.39399719    4.90999985    2.46000004
   12.40499973  221.03700256    4.90999985    2.48000002
   12.40833282  233.33099365    4.90999985    2.46000004
   12.41138840  228.19500732    4.90999985    2.46000004
   12.41750050  228.19500732    4.90999985    2.48000002
   12.42166710  223.89999390    4.90999985    2.48000002
   12.42500019  223.80999756    4.90999985    2.48000002
   12.42805576  225.33200073    4.90999985    2.48000002
   12.43138885  214.50599670    4.90999985    2.48000002
   12.43444443  220.52299500    4.90999985    2.48000002
   12.43777752  217.98199463    4.90999985    2.48000002
   12.44111156  229.44299316    4.90999985    2.48000002
   12.44416714  216.54800415    4.90999985    2.48000002
   12.44750023  224.25000000    4.90999985    2.48000002
   12.44999981  213.32899475    4.90999985    2.48000002
   12.45111084  209.01199341    4.90999985    2.48000002
   12.45444393  199.34199524    4.90999985    2.48000002
   12.46027756  199.34199524    4.90999985    2.50000000
   12.46444416  206.16099548    4.90999985    2.48000002
   12.46777725  214.36999512    4.90999985    2.48000002
   12.47083282  224.49400330    4.90999985    2.50000000
   12.47416592  226.87600708    4.90999985    2.50000000
   12.47749996  209.31399536    4.90999985    2.50000000
   12.48055553  205.70899963    4.90999985    2.50000000
   12.48333359  221.19900513    4.90999985    2.50000000
   12.48416710  224.79699707    4.90999985    2.50000000
   12.48750019  198.99499512    4.90999985    2.50000000
   12.49055576  209.19200134    4.90999985    2.50000000
   12.49388885  223.22000122    4.90999985    2.50000000
   12.49722290  206.91099548    4.90999985    2.51999998
   12.50305557  206.91099548    4.90999985    2.50000000
   12.50722218  196.83900452    4.90999985    2.50000000
   12.51055527  210.85899353    4.90999985    2.51999998
   12.52999973  183.22099304    4.90999985    2.51999998
   12.53055573  192.39799500    4.90999985    2.51999998
   12.53361130  188.13600159    4.90999985    2.51999998
   12.53694534  193.96000671    4.90999985    2.51999998
   12.54027843  206.93499756    4.90999985    2.51999998
   12.54638958  206.93499756    4.90999985    2.51999998
   12.55055618  194.00900269    4.90999985    2.53999996
   12.55361176  197.61399841    4.90999985    2.53999996
   12.55694485  190.77299500    4.90999985    2.53999996
   12.56000042  195.59500122    4.90999985    2.53999996
   12.56333351  196.46800232    4.90999985    2.53999996
   12.56361103  184.98399353    4.90999985    2.53999996
   12.56694412  202.69000244    4.90999985    2.53999996
   12.57027817  199.48899841    4.90999985    2.53999996
   12.57333374  193.70199585    4.90999985    2.53999996
   12.57666683  190.74299622    4.90999985    2.53999996
   12.57972240  183.22799683    4.90999985    2.53999996
   12.58305550  190.15100098    4.90999985    2.53999996
   12.58916664  190.15100098    4.90999985    2.53999996
   12.59333324  195.78100586    4.90999985    2.53999996
   12.59666634  199.57699585    4.90999985    2.53999996
   12.59694386  211.43200684    4.90999985    2.53999996
   12.60027790  192.33099365    4.90999985    2.53999996
   12.60361195  189.05400085    4.90999985    2.53999996
   12.60666752  195.00000000    4.90999985    2.55999994
   12.61000061  189.55599976    4.90999985    2.53999996
   12.61305618  191.98399353    4.90999985    2.53999996
   12.61638927  200.63099670    4.90999985    2.53999996
   12.61972237  187.64500427    4.90999985    2.53999996
   12.62277794  204.50999451    4.90999985    2.55999994
   12.62611103  192.57000732    4.90999985    2.55999994
   12.63194466  192.57000732    4.90999985    2.53999996
   12.63611126  200.45399475    4.90999985    2.53999996
   12.63944435  228.64500427    4.90999985    2.55999994
   12.64249992  194.15199280    4.90999985    2.55999994
   12.64583302  198.56500244    4.90999985    2.55999994
   12.64916611  194.66299438    4.90999985    2.55999994
   12.65222168  196.11000061    4.90999985    2.57999992
   12.65555477  202.23899841    4.90999985    2.57999992
   12.65888882  197.83399963    4.90999985    2.55999994
   12.66194439  211.75000000    4.90999985    2.55999994
   12.66333294  197.57600403    4.90999985    2.55999994
   12.66555500  201.30299377    4.90999985    2.55999994
   12.66888905  217.62800598    4.90999985    2.55999994
   12.67472267  217.62800598    4.90999985    2.55999994
   12.67888927  218.55599976    4.90999985    2.55999994
   12.68222237  210.28500366    4.90999985    2.55999994
   12.68555546  219.88999939    4.90999985    2.55999994
   12.68861103  223.86399841    4.90999985    2.57999992
   12.69194412  203.49299622    4.90999985    2.55999994
   12.69499969  213.18200684    4.90999985    2.57999992
   12.69666672  199.12800598    4.90999985    2.57999992
   12.69861126  216.52499390    4.90999985    2.57999992
   12.70194435  203.90400696    4.90999985    2.57999992
   12.70527744  219.13000488    4.90999985    2.57999992
   12.70833302  196.48300171    4.90999985    2.57999992
   12.71166611  189.62500000    4.90999985    2.57999992
   12.71777725  189.62500000    4.90999985    2.57999992
   12.72194386  200.70500183    4.90999985    2.57999992
   12.72499943  200.01199341    4.90999985    2.57999992
   12.72833252  215.94099426    4.90999985    2.57999992
   12.72999954  201.72000122    4.90999985    2.57999992
   12.73194408  193.33000183    4.90999985    2.57999992
   12.73527813  213.00199890    4.90999985    2.57999992
   12.73833370  215.05599976    4.90999985    2.57999992
   12.74166679  214.38999939    4.90999985    2.57999992
   12.74499989  210.81700134    4.90999985    2.59999990
   12.74805546  208.58099365    4.90999985    2.59999990
   12.75138855  209.71800232    4.90999985    2.59999990
   12.75444412  192.58900452    4.90999985    2.57999992
   12.76055527  192.58900452    4.90999985    2.59999990
   12.76472187  205.16499329    4.90999985    2.57999992
   12.76777744  210.69500732    4.90999985    2.59999990
   12.77111053  196.66799927    4.90999985    2.59999990
   12.77444458  199.58900452    4.90999985    2.59999990
   12.77750015  187.12899780    4.90999985    2.59999990
   12.78083324  180.24000549    4.90999985    2.61999989
   12.78416729  188.65600586    4.90999985    2.59999990
   12.78722286  196.32299805    4.90999985    2.59999990
   12.79055595  194.85000610    4.90999985    2.59999990
   12.79361153  186.68200684    4.90999985    2.59999990
   12.79666710  206.82899475    4.90999985    2.61999989
   12.79722309  188.95199585    4.90999985    2.61999989
   12.80333328  188.95199585    4.90999985    2.59999990
   12.80749989  193.18400574    4.90999985    2.61999989
   12.81083393  184.92799377    4.90999985    2.59999990
   12.81388950  203.67599487    4.90999985    2.59999990
   12.81722260  197.18400574    4.90999985    2.61999989
   12.82055569  189.10899353    4.90999985    2.61999989
   12.82361126  207.27900696    4.90999985    2.61999989
   12.82694435  220.68699646    4.90999985    2.61999989
   12.82999992  223.21699524    4.90999985    2.61999989
   12.83055592  218.64700317    4.90999985    2.61999989
   12.83388901  198.67399597    4.90999985    2.61999989
   12.83694458  199.88000488    4.90999985    2.61999989
   12.84027767  216.17900085    4.90999985    2.61999989
   12.84611034  216.17900085    4.90999985    2.61999989
   12.85027790  207.03399658    4.90999985    2.61999989
   12.85361195  195.10600281    4.90999985    2.61999989
   12.85694504  203.40499878    4.90999985    2.61999989
   12.86000061  210.27499390    4.90999985    2.61999989
   12.86333370  215.83299255    4.90999985    2.61999989
   12.86388969  212.82200623    4.90999985    2.61999989
   12.86694431  195.78700256    4.90999985    2.61999989
   12.87027836  212.00300598    4.90999985    2.61999989
   12.87361145  214.85000610    4.90999985    2.61999989
   12.87666702  185.75900269    4.90999985    2.61999989
   12.88000011  210.57000732    4.90999985    2.61999989
   12.88305569  209.99400330    4.90999985    2.61999989
   12.88916683  209.99400330    4.90999985    2.61999989
   12.89305496  219.00199890    4.90999985    2.64000010
   12.89638901  198.01499939    4.90999985    2.61999989
   12.89722252  190.00799561    4.90999985    2.61999989
   12.89999962  199.38000488    4.90999985    2.61999989
   12.90333271  201.14700317    4.90999985    2.64000010
   12.90666676  202.13800049    4.90999985    2.64000010
   12.90972137  208.34700012    4.90999985    2.64000010
   12.91305542  205.82299805    4.90999985    2.64000010
   12.91611099  193.06799316    4.90999985    2.64000010
   12.91944504  206.10299683    4.90999985    2.64000010
   12.92277813  207.74499512    4.90999985    2.64000010
   12.92583370  191.12600708    4.90999985    2.61999989
   12.93194485  191.12600708    4.90999985    2.64000010
   12.93611145  219.04600525    4.90999985    2.64000010
   12.93916702  220.14799500    4.90999985    2.64000010
   12.94250011  221.11000061    4.90999985    2.64000010
   12.94583321  204.93499756    4.90999985    2.66000009
   12.94888878  203.07400513    4.90999985    2.64000010
   12.95222187  203.31900024    4.90999985    2.64000010
   12.95527744  212.29600525    4.90999985    2.64000010
   12.95861053  200.39399719    4.90999985    2.64000010
   12.96194458  237.82200623    4.90999985    2.67000008
   12.96388912  210.57200623    4.90999985    2.64000010
   12.96555519  196.91299438    4.90999985    2.64000010
   12.96888828  218.25900269    4.90999985    2.66000009
   12.97472191  218.25900269    4.90999985    2.64000010
   12.97888851  208.88400269    4.90999985    2.61999989
   12.98222160  201.04299927    4.90999985    2.64000010
   12.98527813  201.21800232    4.90999985    2.66000009
   12.98861122  200.39900208    4.90999985    2.64000010
   12.99166679  187.09199524    4.90999985    2.66000009
   12.99499989  186.40299988    4.90999985    2.66000009
   12.99722290  188.32899475    4.90999985    2.66000009
   12.99861145  186.86500549    4.90999985    2.66000009
   13.00194454  186.17700195    4.90999985    2.66000009
   13.00527763  182.42199707    4.90999985    2.66000009
   13.00833321  190.60099792    4.90999985    2.66000009
   13.01166630  192.79200745    4.90999985    2.66000009
   13.01749992  192.79200745    4.90999985    2.66000009
   13.02166653  194.81799316    4.90999985    2.66000009
   13.02499962  173.82499695    4.90999985    2.66000009
   13.02805519  179.72300720    4.90999985    2.64000010
   13.03055573  182.85800171    4.90999985    2.66000009
   13.03166676  182.05000305    4.90999985    2.67000008
   13.03500080  168.35499573    4.90999985    2.66000009
   13.03833389  176.50599670    4.90999985    2.66000009
   13.04138947  193.55599976    4.90999985    2.66000009
   13.04472256  182.61000061    4.90999985    2.66000009
   13.04777813  189.20899963    4.90999985    2.67000008
   13.05111122  189.73599243    4.90999985    2.66000009
   13.05444431  188.78900146    4.90999985    2.67000008
   13.06055546  188.78900146    4.90999985    2.66000009
   13.06472206  195.04100037    4.90999985    2.67000008
   13.06777763  184.36000061    4.90999985    2.67000008
   13.07111073  184.08599854    4.90999985    2.67000008
   13.07416630  180.15600586    4.90999985    2.67000008
   13.07750034  182.79499817    4.90999985    2.67000008
   13.08083344  181.30700684    4.90999985    2.66000009
   13.08388901  180.87399292    4.90999985    2.66000009
   13.08722210  180.37399292    4.90999985    2.66000009
   13.09055519  178.09800720    4.90999985    2.67000008
   13.09361076  173.99400330    4.90999985    2.67000008
   13.09694386  180.48599243    4.90999985    2.67000008
   13.09749985  184.85899353    4.90999985    2.66000009
   13.10333347  184.85899353    4.90999985    2.67000008
   13.10750008  176.72000122    4.90999985    2.67000008
   13.11055565  175.53999329    4.90999985    2.66000009
   13.11388969  180.37899780    4.90999985    2.67000008
   13.11722279  167.59199524    4.90999985    2.67000008
   13.12027836  181.38800049    4.90999985    2.67000008
   13.12361145  181.84700012    4.90999985    2.67000008
   13.12694454  184.08799744    4.90999985    2.67000008
   13.13000011  191.98199463    4.90999985    2.67000008
   13.13083363  176.11199951    4.90999985    2.67000008
   13.13388920  185.00799561    4.90999985    2.67000008
   13.13694477  172.55999756    4.90999985    2.67000008
   13.14027786  174.00300598    4.90999985    2.67000008
   13.14611053  174.00300598    4.90999985    2.67000008
   13.15027714  178.65899658    4.90999985    2.67000008
   13.15361118  177.05999756    4.90999985    2.69000006
   13.15666676  197.49299622    4.90999985    2.67000008
   13.15999985  178.62699890    4.90999985    2.67000008
   13.16333294  181.20399475    4.90999985    2.69000006
   13.16416645  166.13099670    4.90999985    2.67000008
   13.16694450  158.60600281    4.90999985    2.69000006
   13.17000008  177.05299377    4.90999985    2.69000006
   13.17333412  182.60099792    4.90999985    2.67000008
   13.17638874  171.57600403    4.90999985    2.69000006
   13.17972279  173.59899902    4.90999985    2.67000008
   13.18305588  183.24600220    4.90999985    2.67000008
   13.18888855  183.24600220    4.90999985    2.69000006
   13.19305515  178.10899353    4.90999985    2.69000006
   13.19638920  160.04600525    4.90999985    2.69000006
   13.19750023  180.53599548    4.90999985    2.69000006
   13.19999981  168.25300598    4.90999985    2.69000006
   13.20305538  174.89300537    4.90999985    2.69000006
   13.20638847  176.24000549    4.90999985    2.69000006
   13.20944405  168.53100586    4.90999985    2.69000006
   13.21277714  176.79899597    4.90999985    2.69000006
   13.21611118  179.86300659    4.90999985    2.69000006
   13.21916580  171.59199524    4.90999985    2.67000008
   13.22249985  166.26600647    4.90999985    2.69000006
   13.22555542  163.41999817    4.90999985    2.71000004
   13.23194408  163.41999817    4.90999985    2.71000004
   13.23583317  171.48300171    4.90999985    2.69000006
   13.23916721  190.57400513    4.90999985    2.71000004
   13.24250031  177.68699646    4.90999985    2.69000006
   13.24555588  174.88299561    4.90999985    2.69000006
   13.24888897  174.93499756    4.90999985    2.69000006
   13.25194454  184.16099548    4.90999985    2.69000006
   13.25527763  175.75100708    4.90999985    2.71000004
   13.25861073  179.42300415    4.90999985    2.71000004
   13.26166630  186.80000305    4.90999985    2.69000006
   13.26416683  176.72900391    4.90999985    2.71000004
   13.26527786  185.33299255    4.90999985    2.71000004
   13.26861095  179.00000000    4.90999985    2.71000004
   13.27472210  179.00000000    4.90999985    2.71000004
   13.27888870  182.81199646    4.90999985    2.71000004
   13.28194427  183.38600159    4.90999985    2.71000004
   13.28527832  196.87500000    4.90999985    2.71000004
   13.28861141  196.94999695    4.90999985    2.71000004
   13.40472221   -1.00000000   -1.00000000   -1.00000000
   13.49972248   -1.00000000   -1.00000000   -1.00000000
   13.60722256   -1.00000000   -1.00000000   -1.00000000
   13.64027786   91.72499847    4.90999985    2.75000000
   13.64333344  181.98899841    4.90999985    2.75000000
   13.64666653  179.57299805    4.90999985    2.75000000
   13.64972210  180.26199341    4.90999985    2.75000000
   13.65305519  175.67399597    4.90999985    2.76999998
   13.65638828  176.21400452    4.90999985    2.75000000
   13.66055489  176.21400452    4.90999985    2.76999998
   13.66444397  183.41099548    4.90999985    2.75000000
   13.66777802  171.31199646    4.90999985    2.76999998
   13.67111111  172.17399597    4.90999985    2.76999998
   13.67361164  168.15600586    4.90999985    2.75000000
   13.67472267  168.59100342    4.90999985    2.75000000
   13.67805576  170.94900513    4.90999985    2.76999998
   13.68111134  171.47399902    4.90999985    2.75000000
   13.68444443  186.91400146    4.90999985    2.75000000
   13.68777752  175.21600342    4.90999985    2.76999998
   13.69083309  175.23899841    4.90999985    2.76999998
   13.69416714  174.93499756    4.90999985    2.76999998
   13.69750023  177.46499634    4.90999985    2.76999998
   13.70333290  177.46499634    4.90999985    2.76999998
   13.70749950  177.62899780    4.90999985    2.75000000
   13.71055508  185.23100281    4.90999985    2.76999998
   13.71388912  181.69099426    4.90999985    2.76999998
   13.71722221  183.07400513    4.90999985    2.76999998
   13.72027779  174.87300110    4.90999985    2.76999998
   13.72361088  168.01899719    4.90999985    2.76999998
   13.72666645  174.20700073    4.90999985    2.76999998
   13.72999954  176.10200500    4.90999985    2.76999998
   13.73333359  185.80900574    4.90999985    2.76999998
   13.73638916  178.61999512    4.90999985    2.76999998
   13.73972225  188.44099426    4.90999985    2.76999998
   13.74027824  180.55000305    4.90999985    2.76999998
   13.74611092  180.55000305    4.90999985    2.76999998
   13.75027752  175.93499756    4.90999985    2.76999998
   13.75361156  176.89599609    4.90999985    2.76999998
   13.75666714  182.99899292    4.90999985    2.76999998
   13.76000023  169.37600708    4.90999985    2.76999998
   13.76305580  179.65600586    4.90999985    2.76999998
   13.76638889  157.57699585    4.90999985    2.78999996
   13.76972198  156.60600281    4.90999985    2.76999998
   13.77277756  171.56199646    4.90999985    2.76999998
   13.77361107  170.47300720    4.90999985    2.78999996
   13.77666664  165.23899841    4.90999985    2.78999996
   13.77972221  181.82200623    4.90999985    2.67000008
   13.78305531  200.03799438    4.90999985    2.64000010
   13.78888893  200.03799438    4.90999985    2.69000006
   13.79305553  171.07299805    4.90999985    2.75000000
   13.79638958  166.70199585    4.90999985    2.75000000
   13.79944515  174.65400696    4.90999985    2.75000000
   13.80277824  172.18800354    4.90999985    2.76999998
   13.80611134  173.85000610    4.90999985    2.76999998
   13.80694485  169.35800171    4.90999985    2.76999998
   13.80972195  173.25599670    4.90999985    2.78999996
   13.81277752  166.61199951    4.90999985    2.78999996
   13.81611156  170.21200562    4.90999985    2.75000000
   13.81916618  198.80000305    4.90999985    2.73000002
   13.82250023  189.42399597    4.90999985    2.67000008
   13.82583332  178.96299744    4.90999985    2.66000009
   13.83194447  178.96299744    4.90999985    2.69000006
   13.83583260  372.32400513    4.90999985    2.67000008
   13.83805561  395.19799805    4.90999985    2.69000006
   13.83916664  452.45001221    4.90999985    2.71000004
   13.84055519  434.73800659    4.90999985    2.75000000
   13.84194374  452.43701172    4.90999985    2.78999996
   13.84333324  337.21899414    4.90999985    2.78999996
   13.84472179  395.61499023    4.90999985    2.78999996
   13.84611034  375.30700684    4.90999985    2.78999996
   13.84749985  316.56100464    4.90999985    2.78999996
   13.84888840  349.79901123    4.90999985    2.76999998
   13.85027790  314.69900513    4.90999985    2.76999998
   13.85166740  349.82400513    4.90999985    2.78999996
   13.85305595  314.95700073    4.90999985    2.76999998
   13.85444450  318.39801025    4.90999985    2.76999998
   13.85583401  323.58099365    4.90999985    2.78999996
   13.85722256  333.68899536    4.90999985    2.76999998
   13.85861111  277.26501465    4.90999985    2.75000000
   13.85888958  170.21200562    4.90999985    2.75000000
   13.85888958  198.80000305    4.90999985    2.73000002
   13.85916710  189.42399597    4.90999985    2.67000008
   13.85916710  178.96299744    4.90999985    2.66000009
   13.85916710  372.32400513    4.90999985    2.67000008
   13.85944462  172.18800354    4.90999985    2.76999998
   13.85944462  173.85000610    4.90999985    2.76999998
   13.85944462  173.25599670    4.90999985    2.78999996
   13.85972214  166.61199951    4.90999985    2.78999996
   13.86027813  322.57901001    4.90999985    2.76999998
   13.86333370  274.72900391    4.90999985    2.71000004
   13.86666679  258.00500488    4.90999985    2.75000000
   13.86999989  272.61700439    4.90999985    2.78999996
   13.87305546  216.54499817    4.90999985    2.75000000
   13.87944412  216.54499817    4.90999985    2.78999996
   13.88361073  250.19500732    4.90999985    2.78999996
   13.88694477  273.28698730    4.90999985    2.78999996
   13.89027786  250.18099976    4.90999985    2.78999996
   13.89249992  251.85899353    4.90999985    2.76999998
   13.89388847  229.80099487    4.90999985    2.76999998
   13.89722252  227.56100464    4.90999985    2.78999996
   13.90027714  263.02398682    4.90999985    2.76999998
   13.90361118  219.59100342    4.90999985    2.78999996
   13.90694427  243.79600525    4.90999985    2.78999996
   13.90999985  245.13999939    4.90999985    2.78999996
   13.91333294  177.83299255    4.90999985    2.78999996
   13.91638851  213.25700378    4.90999985    2.78999996
   13.92250061  213.25700378    4.90999985    2.78999996
   13.92666721  193.34100342    4.90999985    2.80999994
   13.92972279  216.64399719    4.90999985    2.78999996
   13.93305588  209.75000000    4.90999985    2.78999996
   13.93611145  252.22200012    4.90999985    2.78999996
   13.93944454  227.31700134    4.90999985    2.78999996
   13.94277763  222.67100525    4.90999985    2.78999996
   13.94583321  233.13600159    4.90999985    2.78999996
   13.94916630  209.24400330    4.90999985    2.78999996
   13.95249939  211.00700378    4.90999985    2.78999996
   13.95555496  218.00599670    4.90999985    2.80999994
   13.95888901  216.15400696    4.90999985    2.78999996
   13.95944405  210.48399353    4.90999985    2.78999996
   13.96527767  210.48399353    4.90999985    2.78999996
   13.96944427  189.72099304    4.90999985    2.78999996
   13.97249985  209.86399841    4.90999985    2.78999996
   13.97583294  198.05299377    4.90999985    2.78999996
   13.97916603  191.96499634    4.90999985    2.76999998
   13.98222160  180.55299377    4.90999985    2.78999996
   13.98555565  191.81799316    4.90999985    2.78999996
   13.98861122  196.75799561    4.90999985    2.78999996
   13.99194431  184.74299622    4.90999985    2.78999996
   13.99277782  183.62600708    4.90999985    2.78999996
   13.99555588  181.90899658    4.90999985    2.80999994
   13.99888897  185.08599854    4.90999985    2.80999994
   14.00222206  199.42300415    4.90999985    2.80999994
   14.00805569  199.42300415    4.90999985    2.78999996
   14.01222229  184.22900391    4.90999985    2.78999996
   14.01555538  195.07800293    4.90999985    2.80999994
   14.01861095  195.09599304    4.90999985    2.78999996
   14.02194405  191.91000366    4.90999985    2.80999994
   14.02499962  189.08700562    4.90999985    2.78999996
   14.02611065  217.08099365    4.90999985    2.78999996
   14.02861118  193.96000671    4.90999985    2.80999994
   14.03194427  189.47300720    4.90999985    2.80999994
   14.03527832  186.84399414    4.90999985    2.80999994
   14.03833389  185.73100281    4.90999985    2.80999994
   14.04166698  193.79800415    4.90999985    2.80999994
   14.04500008  194.09700012    4.90999985    2.78999996
   14.05083370  194.09700012    4.90999985    2.80999994
   14.05500031  183.03399658    4.90999985    2.80999994
   14.05833340  214.54100037    4.90999985    2.78999996
   14.05944443  209.42399597    4.90999985    2.78999996
   14.06166649  210.03500366    4.90999985    2.80999994
   14.06500053  203.58399963    4.90999985    2.80999994
   14.06833363  191.98800659    4.90999985    2.80999994
   14.07138920  205.53199768    4.90999985    2.80999994
   14.07472229  185.84899902    4.90999985    2.80999994
   14.07805538  174.00300598    4.90999985    2.80999994
   14.08111095  195.63499451    4.90999985    2.80999994
   14.08444405  189.49699402    4.90999985    2.80999994
   14.08749962  196.11500549    4.90999985    2.82999992
   14.09388828  196.11500549    4.90999985    2.82999992
   14.09805489  210.45100403    4.90999985    2.82999992
   14.10111141  188.61599731    4.90999985    2.80999994
   14.10444450  186.14399719    4.90999985    2.80999994
   14.10750008  189.33299255    4.90999985    2.80999994
   14.11083412  179.97500610    4.90999985    2.80999994
   14.11416721  178.40100098    4.90999985    2.80999994
   14.11722279  189.75900269    4.90999985    2.80999994
   14.12055588  180.82299805    4.90999985    2.80999994
   14.12388897  184.06700134    4.90999985    2.82999992
   14.12611103  184.79499817    4.90999985    2.80999994
   14.12722206  184.44700623    4.90999985    2.82999992
   14.13055611  199.46600342    4.90999985    2.80999994
   14.13666630  199.46600342    4.90999985    2.80999994
   14.14083290  182.55799866    4.90999985    2.80999994
   14.14388847  198.16400146    4.90999985    2.80999994
   14.14722252  178.05799866    4.90999985    2.78999996
   14.15055561  191.07499695    4.90999985    2.80999994
   14.15361118  205.30799866    4.90999985    2.80999994
   14.15694427  175.78799438    4.90999985    2.80999994
   14.15944386  187.22300720    4.90999985    2.80999994
   14.16055489  177.75599670    4.90999985    2.76999998
   14.16361046  196.42399597    4.90999985    2.82999992
   14.16694450  173.23899841    4.90999985    2.80999994
   14.17000008  187.75999451    4.90999985    2.80999994
   14.17333412  197.59300232    4.90999985    2.80999994
   14.17944431  197.59300232    4.90999985    2.80999994
   14.18361092  191.66600037    4.90999985    2.80999994
   14.18694496  187.84500122    4.90999985    2.80999994
   14.19000053  197.46200562    4.90999985    2.82999992
   14.19277763  166.39100647    4.90999985    2.80999994
   14.19388866  185.74099731    4.90999985    2.82999992
   14.19694424  182.99299622    4.90999985    2.82999992
   14.20027733  182.45199585    4.90999985    2.80999994
   14.20333290  200.84300232    4.90999985    2.80999994
   14.20666695  177.05999756    4.90999985    2.82999992
   14.21000004  183.45899963    4.90999985    2.80999994
   14.21305561  162.45700073    4.90999985    2.80999994
   14.21638870  176.38400269    4.90999985    2.80999994
   14.22222137  176.38400269    4.90999985    2.80999994
   14.22638798  185.98699951    4.90999985    2.80999994
   14.22972202  179.57800293    4.90999985    2.82999992
   14.23277760  185.27200317    4.90999985    2.80999994
   14.23611164  171.18699646    4.90999985    2.82999992
   14.23944473  169.58799744    4.90999985    2.80999994
   14.24250031  174.25000000    4.90999985    2.80999994
   14.24583340  186.12600708    4.90999985    2.82999992
   14.24916649  168.85200500    4.90999985    2.82999992
   14.25222206  184.84300232    4.90999985    2.82999992
   14.25555515  188.04800415    4.90999985    2.80999994
   14.25861073  178.16099548    4.90999985    2.82999992
   14.25944424  184.85699463    4.90999985    2.82999992
   14.26527786  184.85699463    4.90999985    2.78999996
   14.26916599  210.83900452    4.90999985    2.80999994
   14.27250004  188.64900208    4.90999985    2.80999994
   14.27583313  194.77900696    4.90999985    2.80999994
   14.27888870  193.59199524    4.90999985    2.82999992
   14.28222179  185.02600098    4.90999985    2.80999994
   14.28555584  200.92199707    4.90999985    2.80999994
   14.28861141  186.77999878    4.90999985    2.82999992
   14.29194450  188.54800415    4.90999985    2.80999994
   14.29277802  185.72000122    4.90999985    2.80999994
   14.29555607  184.23300171    4.90999985    2.80999994
   14.29861164  199.97399902    4.90999985    2.82999992
   14.30194473  176.37699890    4.90999985    2.80999994
   14.30805588  176.37699890    4.90999985    2.82999992
   14.31222248  191.41000366    4.90999985    2.82999992
   14.31527805  203.18699646    4.90999985    2.82999992
   14.31861115  186.02600098    4.90999985    2.82999992
   14.32194424  200.98199463    4.90999985    2.82999992
   14.32499981  193.97500610    4.90999985    2.82999992
   14.32611084  192.30099487    4.90999985    2.82999992
   14.32888889  179.22700500    4.90999985    2.82999992
   14.33194447  179.91700745    4.90999985    2.84999990
   14.33527756  196.39300537    4.90999985    2.82999992
   14.33833313  188.70199585    4.90999985    2.80999994
   14.34166622  193.29100037    4.90999985    2.82999992
   14.34499931  204.51899719    4.90999985    2.82999992
   14.35083389  204.51899719    4.90999985    2.82999992
   14.35500050  169.25999451    4.90999985    2.82999992
   14.35833359  187.81399536    4.90999985    2.82999992
   14.35944462  180.75300598    4.90999985    2.82999992
   14.36194515  188.81199646    4.90999985    2.82999992
   14.36500072  186.44900513    4.90999985    2.82999992
   14.36833382  158.34399414    4.90999985    2.82999992
   14.37138939  182.18200684    4.90999985    2.82999992
   14.37472248  181.40800476    4.90999985    2.82999992
   14.37805557  190.63499451    4.90999985    2.82999992
   14.38111115  206.40400696    4.90999985    2.82999992
   14.38444424  165.56399536    4.90999985    2.82999992
   14.38777733  188.00199890    4.90999985    2.82999992
   14.39361095  188.00199890    4.90999985    2.82999992
   14.39777756  194.74499512    4.90999985    2.82999992
   14.40111065  195.20199585    4.90999985    2.84999990
   14.40416622  178.13600159    4.90999985    2.82999992
   14.40749931  164.76400757    4.90999985    2.82999992
   14.41083336  195.99400330    4.90999985    2.82999992
   14.41388893  190.94799805    4.90999985    2.84999990
   14.41722298  187.68499756    4.90999985    2.84999990
   14.42055607  199.64799500    4.90999985    2.82999992
   14.42361164  182.66700745    4.90999985    2.82999992
   14.42611122  162.64700317    4.90999985    2.82999992
   14.42750072  164.17999268    4.90999985    2.82999992
   14.43055630  189.04899597    4.90999985    2.82999992
   14.43666649  189.04899597    4.90999985    2.82999992
   14.44055557  196.47500610    4.90999985    2.82999992
   14.44388866  195.28199768    4.90999985    2.82999992
   14.44722271  203.15100098    4.90999985    2.82999992
   14.45055580  184.09899902    4.90999985    2.82999992
   14.45361137  191.25599670    4.90999985    2.82999992
   14.45694447  183.23599243    4.90999985    2.82999992
   14.45944405  185.63099670    4.90999985    2.82999992
   14.46055508  180.49099731    4.90999985    2.82999992
   14.46361065  182.95500183    4.90999985    2.82999992
   14.46694374  184.08299255    4.90999985    2.82999992
   14.46999931  199.68899536    4.90999985    2.84999990
   14.47333336  175.50999451    4.90999985    2.84999990
   14.47944355  175.50999451    4.90999985    2.84999990
   14.48361111  183.05599976    4.90999985    2.84999990
   14.48666668  167.04899597    4.90999985    2.82999992
   14.49000072  169.97099304    4.90999985    2.82999992
   14.49277782  183.24699402    4.90999985    2.82999992
   14.49361134  163.03300476    4.90999985    2.82999992
   14.49666691  185.54699707    4.90999985    2.82999992
   14.50000000  197.27499390    4.90999985    2.84999990
   14.50305557  184.94599915    4.90999985    2.82999992
   14.50638866  194.41700745    4.90999985    2.84999990
   14.50972176  188.68899536    4.90999985    2.84999990
   14.51277733  196.26300049    4.90999985    2.84999990
   14.51611137  172.65100098    4.90999985    2.84999990
   14.52222157  172.65100098    4.90999985    2.84999990
   14.52638817  182.32099915    4.90999985    2.84999990
   14.52972221  177.24899292    4.90999985    2.84999990
   14.53277779  201.74200439    4.90999985    2.84999990
   14.53611183  170.60600281    4.90999985    2.82999992
   14.53944492  173.40800476    4.90999985    2.84999990
   14.54250050  171.14100647    4.90999985    2.82999992
   14.54583359  195.53700256    4.90999985    2.76999998
   14.54888916  194.77299500    4.90999985    2.84999990
   14.55222225  193.41099548    4.90999985    2.84999990
   14.55555534  198.66799927    4.90999985    2.84999990
   14.55861092  204.60299683    4.90999985    2.84999990
   14.55944443  171.64100647    4.90999985    2.84999990
   14.56500053  171.64100647    4.90999985    2.84999990
   14.56916618  195.88999939    4.90999985    2.84999990
   14.57250023  183.70899963    4.90999985    2.84999990
   14.57555580  175.33200073    4.90999985    2.84999990
   14.57888889  182.52600098    4.90999985    2.82999992
   14.58222198  169.66200256    4.90999985    2.82999992
   14.58527756  183.49299622    4.90999985    2.86999989
   14.58861065  180.05999756    4.90999985    2.84999990
   14.59194374  171.32200623    4.90999985    2.84999990
   14.59277725  181.95399475    4.90999985    2.84999990
   14.59555531  175.17500305    4.90999985    2.84999990
   14.59861088  189.91299438    4.90999985    2.84999990
   14.60194492  181.90499878    4.90999985    2.84999990
   14.60805607  181.90499878    4.90999985    2.84999990
   14.61194515  172.71800232    4.90999985    2.84999990
   14.61527824  175.23300171    4.90999985    2.86999989
   14.61861134  175.45799255    4.90999985    2.86999989
   14.62166691  180.52299500    4.90999985    2.84999990
   14.62500000  185.49800110    4.90999985    2.84999990
   14.62611103  160.24499512    4.90999985    2.86999989
   14.62861156  179.14300537    4.90999985    2.84999990
   14.63166714  165.72099304    4.90999985    2.84999990
   14.63500023  175.22000122    4.90999985    2.84999990
   14.63833332  178.88099670    4.90999985    2.86999989
   14.66111088  178.88099670    4.90999985    2.84999990
   14.66527748  184.03799438    4.90999985    2.84999990
   14.66833401  163.18299866    4.90999985    2.84999990
   14.67166710  182.19099426    4.90999985    2.84999990
   14.67500019  163.87100220    4.90999985    2.84999990
   14.67805576  193.87199402    4.90999985    2.84999990
   14.68138885  191.55799866    4.90999985    2.84999990
   14.68444443  186.38200378    4.90999985    2.84999990
   14.68777752  189.30299377    4.90999985    2.84999990
   14.69111156  181.03999329    4.90999985    2.86999989
   14.69277763  197.65400696    4.90999985    2.84999990
   14.69472218  186.30999756    4.90999985    2.84999990
   14.69805527  188.59700012    4.90999985    2.84999990
   14.70388889  188.59700012    4.90999985    2.84999990
   14.70805550  181.60800171    4.90999985    2.84999990
   14.71111107  182.77000427    4.90999985    2.84999990
   14.71444416  181.84500122    4.90999985    2.84999990
   14.71777725  186.09300232    4.90999985    2.84999990
   14.72083282  184.52699280    4.90999985    2.86999989
   14.72416592  184.72999573    4.90999985    2.86999989
   14.72638798  197.66600037    4.90999985    2.86999989
   14.72777748  187.80599976    4.90999985    2.86999989
   14.73111057  205.64199829    4.90999985    2.84999990
   14.73416710  184.61399841    4.90999985    2.84999990
   14.73750019  189.26100159    4.90999985    2.86999989
   14.74083328  198.39900208    4.90999985    2.84999990
   14.74666691  198.39900208    4.90999985    2.84999990
   14.75083351  208.59599304    4.90999985    2.84999990
   14.75388908  246.49000549    4.90999985    2.86999989
   14.75722218  329.11700439    4.90999985    2.86999989
   14.75972176  260.98901367    4.90999985    2.84999990
   14.76083374  274.29800415    4.90999985    2.86999989
   14.76416683  230.57600403    4.90999985    2.86999989
   14.76722240  247.07899475    4.90999985    2.84999990
   14.77055550  241.49800110    4.90999985    2.86999989
   14.77388859  264.97000122    4.90999985    2.86999989
   14.77694416  244.50399780    4.90999985    2.84999990
   14.78027725  209.69999695    4.90999985    2.86999989
   14.78361130  222.08500671    4.90999985    2.86999989
   14.78944492  222.08500671    4.90999985    2.86999989
   14.79361153  243.85699463    4.90999985    2.86999989
   14.79694462  196.85400391    4.90999985    2.86999989
   14.80000019  219.04600525    4.90999985    2.86999989
   14.80333328  230.66799927    4.90999985    2.86999989
   14.80666733  242.33500671    4.90999985    2.84999990
   14.80972195  227.49299622    4.90999985    2.86999989
   14.81305599  221.81599426    4.90999985    2.84999990
   14.81611156  244.36900330    4.90999985    2.86999989
   14.81944466  251.94000244    4.90999985    2.86999989
   14.82277775  270.17001343    4.90999985    2.86999989
   14.82583332  260.16101074    4.90999985    2.86999989
   14.82638836  283.22799683    4.90999985    2.86999989
   14.83222198  283.22799683    4.90999985    2.84999990
   14.83638859  271.71600342    4.90999985    2.86999989
   14.83972168  260.96398926    4.90999985    2.86999989
   14.84305477  260.73599243    4.90999985    2.84999990
   14.84611034  246.02699280    4.90999985    2.86999989
   14.84944439  274.86300659    4.90999985    2.86999989
   14.85249996  240.87899780    4.90999985    2.84999990
   14.85583401  265.19400024    4.90999985    2.86999989
   14.85916710  256.15100098    4.90999985    2.86999989
   14.85972214  252.73899841    4.90999985    2.86999989
   14.86277771  269.19000244    4.90999985    2.86999989
   14.86611176  238.88200378    4.90999985    2.86999989
   14.86916637  240.02699280    4.90999985    2.86999989
   14.87527752  240.02699280    4.90999985    2.86999989
   14.87944412  217.08900452    4.90999985    2.86999989
   14.88249969  246.33900452    4.90999985    2.86999989
   14.88583279  204.69200134    4.90999985    2.86999989
   14.88888836  235.98100281    4.90999985    2.86999989
   14.89222240  194.44700623    4.90999985    2.86999989
   14.89305496  243.84100342    4.90999985    2.86999989
   14.89583302  233.74499512    4.90999985    2.86999989
   14.89916611  218.34399414    4.90999985    2.86999989
   14.90222168  219.36500549    4.90999985    2.86999989
   14.90555477  210.75599670    4.90999985    2.86999989
   14.90861034  223.05799866    4.90999985    2.86999989
   14.91194439  222.98500061    4.90999985    2.86999989
   14.91805553  222.98500061    4.90999985    2.86999989
   14.92222214  245.55000305    4.90999985    2.86999989
   14.92527771  237.59800720    4.90999985    2.86999989
   14.92638874  213.75500488    4.90999985    2.86999989
   14.92916679  261.00601196    4.90999985    2.86999989
   14.93249989  216.18499756    4.90999985    2.86999989
   14.93555546  251.29200745    4.90999985    2.86999989
   14.93888855  216.04499817    4.90999985    2.86999989
   14.94194412  247.82600403    4.90999985    2.86999989
   14.94527817  236.07099915    4.90999985    2.86999989
   14.94861126  258.67098999    4.90999985    2.84999990
   14.95166683  225.94799805    4.90999985    2.86999989
   14.95499992  224.21600342    4.90999985    2.86999989
   14.96083355  224.21600342    4.90999985    2.86999989
   14.96500015  247.13800049    4.90999985    2.86999989
   14.96833324  242.06900024    4.90999985    2.86999989
   14.97138882  229.25000000    4.90999985    2.86999989
   14.97472191  231.16299438    4.90999985    2.86999989
   14.97805500  203.92500305    4.90999985    2.86999989
   14.98111057  224.79100037    4.90999985    2.86999989
   14.98444462  206.13400269    4.90999985    2.84999990
   14.98777771  225.97999573    4.90999985    2.86999989
   14.99083328  232.16200256    4.90999985    2.86999989
   14.99305534  229.77499390    4.90999985    2.86999989
   14.99444485  241.74400330    4.90999985    2.86999989
   14.99777794  214.69099426    4.90999985    2.86999989
   15.00361156  214.69099426    4.90999985    2.89000010
   15.00777817  204.77400208    4.90999985    2.89000010
   15.01111126  197.24299622    4.90999985    2.86999989
   15.01444435  212.34700012    4.90999985    2.89000010
   15.01749992  228.17799377    4.90999985    2.86999989
   15.02083302  193.45899963    4.90999985    2.86999989
   15.02388859  226.63200378    4.90999985    2.86999989
   15.02638817  196.30999756    4.90999985    2.89000010
   15.02777767  190.77299500    4.90999985    2.86999989
   15.03111076  210.82699585    4.90999985    2.89000010
   15.03416729  216.74400330    4.90999985    2.89000010
   15.03750038  208.22700500    4.90999985    2.86999989
   15.04055595  183.13900757    4.90999985    2.89000010
   15.04666710  183.13900757    4.90999985    2.86999989
   15.05083370  209.07499695    4.90999985    2.86999989
   15.05388927  206.34399414    4.90999985    2.86999989
   15.05722237  206.76100159    4.90999985    2.86999989
   15.05972195  199.41799927    4.90999985    2.89000010
   15.06083393  198.01499939    4.90999985    2.89000010
   15.06416702  207.36700439    4.90999985    2.89000010
   15.06722260  201.42799377    4.90999985    2.89000010
   15.07055569  219.46400452    4.90999985    2.86999989
   15.07361126  201.52900696    4.90999985    2.86999989
   15.07694435  221.34100342    4.90999985    2.86999989
   15.08027744  193.64900208    4.90999985    2.89000010
   15.08333302  202.18800354    4.90999985    2.86999989
   15.08944416  202.18800354    4.90999985    2.86999989
   15.09361076  209.38099670    4.90999985    2.89000010
   15.09666634  183.99099731    4.90999985    2.86999989
   15.10000038  206.48500061    4.90999985    2.86999989
   15.10333347  211.85600281    4.90999985    2.86999989
   15.10638905  198.07499695    4.90999985    2.89000010
   15.10972214  204.71699524    4.90999985    2.89000010
   15.11305618  232.03700256    4.90999985    2.89000010
   15.11611176  197.93899536    4.90999985    2.89000010
   15.11944485  194.35099792    4.90999985    2.86999989
   15.12250042  233.08999634    4.90999985    2.89000010
   15.12583351  216.26800537    4.90999985    2.89000010
   15.12638855  214.56399536    4.90999985    2.86999989
   15.13222218  214.56399536    4.90999985    2.89000010
   15.13638878  240.40400696    4.90999985    2.86999989
   15.13972187  206.02099609    4.90999985    2.89000010
   15.14277744  184.97000122    4.90999985    2.86999989
   15.14611053  198.91400146    4.90999985    2.89000010
   15.14944458  226.23500061    4.90999985    2.89000010
   15.15249920  182.57000732    4.90999985    2.89000010
   15.15583324  200.65699768    4.90999985    2.89000010
   15.15888882  192.17199707    4.90999985    2.89000010
   15.15972137  208.41400146    4.90999985    2.89000010
   15.16249943  183.78199768    4.90999985    2.89000010
   15.16583252  198.89799500    4.90999985    2.89000010
   15.16888905  192.64900208    4.90999985    2.89000010
   15.17500019  192.64900208    4.90999985    2.89000010
   15.17916679  202.33799744    4.90999985    2.89000010
   15.18249989  190.26499939    4.90999985    2.89000010
   15.18583298  184.72599792    4.90999985    2.86999989
   15.18888855  195.45500183    4.90999985    2.89000010
   15.19222260  191.55700684    4.90999985    2.86999989
   15.19305515  200.61000061    4.90999985    2.89000010
   15.19583321  186.13499451    4.90999985    2.89000010
   15.19916630  209.06199646    4.90999985    2.89000010
   15.20222187  175.50599670    4.90999985    2.89000010
   15.20555496  185.54699707    4.90999985    2.89000010
   15.20888901  201.29299927    4.90999985    2.86999989
   15.21194458  198.86300659    4.90999985    2.89000010
   15.21805477  198.86300659    4.90999985    2.89000010
   15.22222137  188.77999878    4.90999985    2.89000010
   15.22527695  212.64100647    4.90999985    2.86999989
   15.22638798  193.74099731    4.90999985    2.89000010
   15.22888851  156.35400391    4.90999985    2.89000010
   15.23222160  170.44799805    4.90999985    2.89000010
   15.23527813  189.87699890    4.90999985    2.89000010
   15.23861122  187.31199646    4.90999985    2.89000010
   15.24194431  198.05499268    4.90999985    2.89000010
   15.24499989  205.71400452    4.90999985    2.89000010
   15.24833393  176.21000671    4.90999985    2.89000010
   15.25138855  177.79299927    4.90999985    2.89000010
   15.25472260  200.60699463    4.90999985    2.89000010
   15.26083374  200.60699463    4.90999985    2.89000010
   15.26500034  206.94500732    4.90999985    2.89000010
   15.26805496  183.20300293    4.90999985    2.86999989
   15.27138901  182.51100159    4.90999985    2.89000010
   15.27472210  185.12800598    4.90999985    2.89000010
   15.27777767  212.28500366    4.90999985    2.86999989
   15.28111076  196.42900085    4.90999985    2.89000010
   15.28416729  192.01499939    4.90999985    2.89000010
   15.28750038  173.19299316    4.90999985    2.89000010
   15.29083347  188.40699768    4.90999985    2.89000010
   15.29305553  193.75399780    4.90999985    2.89000010
   15.29444504  195.01699829    4.90999985    2.89000010
   15.29777813  196.79800415    4.90999985    2.89000010
   15.30361176  196.79800415    4.90999985    2.89000010
   15.30777836  188.92700195    4.90999985    2.91000009
   15.31111145  188.37600708    4.90999985    2.89000010
   15.31416702  189.27999878    4.90999985    2.89000010
   15.31750011  191.61500549    4.90999985    2.91000009
   15.32055569  186.96899414    4.90999985    2.91000009
   15.32388878  166.83000183    4.90999985    2.91000009
   15.32638836  175.19299316    4.90999985    2.91000009
   15.32750034  165.24200439    4.90999985    2.89000010
   15.33083344  182.65299988    4.90999985    2.91000009
   15.33388901  175.97000122    4.90999985    2.89000010
   15.33722210  177.56100464    4.90999985    2.89000010
   15.34055519  186.55499268    4.90999985    2.89000010
   15.34638882  186.55499268    4.90999985    2.89000010
   15.35055637  166.95300293    4.90999985    2.91000009
   15.35388947  168.53900146    4.90999985    2.89000010
   15.35694504  150.57299805    4.90999985    2.89000010
   15.35972214  169.36399841    4.90999985    2.91000009
   15.36055565  167.72399902    4.90999985    2.91000009
   15.36388969  179.58299255    4.90999985    2.89000010
   15.36694431  170.47599792    4.90999985    2.89000010
   15.37027836  170.25199890    4.90999985    2.89000010
   15.37361145  185.48199463    4.90999985    2.91000009
   15.37666702  176.05599976    4.90999985    2.91000009
   15.38000011  167.35800171    4.90999985    2.89000010
   15.38305569  188.03700256    4.90999985    2.89000010
   15.38944435  188.03700256    4.90999985    2.89000010
   15.39333344  186.85400391    4.90999985    2.89000010
   15.39666653  190.34700012    4.90999985    2.89000010
   15.39999962  168.38900757    4.90999985    2.89000010
   15.40305519  172.88499451    4.90999985    2.89000010
   15.40638828  192.53900146    4.90999985    2.91000009
   15.40972137  160.11900330    4.90999985    2.89000010
   15.41277695  166.42799377    4.90999985    2.91000009
   15.41611099  173.57299805    4.90999985    2.89000010
   15.41916656  162.75599670    4.90999985    2.89000010
   15.42250061  185.71000671    4.90999985    2.89000010
   15.42583370  150.21099854    4.90999985    2.91000009
   15.42666721  183.67700195    4.90999985    2.89000010
   15.43222237  183.67700195    4.90999985    2.89000010
   15.43638897  172.32800293    4.90999985    2.89000010
   15.43944454  172.46699524    4.90999985    2.89000010
   15.44277763  171.31300354    4.90999985    2.89000010
   15.44611073  168.49299622    4.90999985    2.89000010
   15.44916630  160.74000549    4.90999985    2.89000010
   15.45249939  159.68299866    4.90999985    2.89000010
   15.45583344  148.32299805    4.90999985    2.89000010
   15.45888901  144.89599609    4.90999985    2.89000010
   15.46000004  164.38600159    4.90999985    2.89000010
   15.46249962  145.80599976    4.90999985    2.89000010
   15.46583271  158.62500000    4.90999985    2.91000009
   15.46888828  157.33500671    4.90999985    2.89000010
   15.47499943  157.33500671    4.90999985    2.89000010
   15.47916603  155.14199829    4.90999985    2.89000010
   15.48249912  146.74000549    4.90999985    2.89000010
   15.48555565  158.38200378    4.90999985    2.89000010
   15.48888874  149.64900208    4.90999985    2.89000010
   15.49222279  154.20199585    4.90999985    2.89000010
   15.49333382  137.13499451    4.90999985    2.89000010
   15.49555588  144.73699951    4.90999985    2.89000010
   15.49888897  151.54699707    4.90999985    2.89000010
   15.50194454  153.33799744    4.90999985    2.91000009
   15.50527763  151.45100403    4.90999985    2.89000010
   15.50861073  149.63499451    4.90999985    2.89000010
   15.51166630  147.14500427    4.90999985    2.89000010
   15.51777744  147.14500427    4.90999985    2.89000010
   15.52194405  161.66099548    4.90999985    2.86999989
   15.52527714  144.84800720    4.90999985    2.91000009
   15.52666664  160.32299805    4.90999985    2.91000009
   15.52888870  161.80200195    4.90999985    2.86999989
   15.53222179  146.68200684    4.90999985    2.91000009
   15.53527832  155.43899536    4.90999985    2.91000009
   15.53861141  155.65800476    4.90999985    2.91000009
   15.54194450  147.38600159    4.90999985    2.89000010
   15.54500008  145.20500183    4.90999985    2.89000010
   15.54833412  147.76800537    4.90999985    2.91000009
   15.55166721  139.52699280    4.90999985    2.91000009
   15.55472279  148.64900208    4.90999985    2.89000010
   15.56083393  148.64900208    4.90999985    2.89000010
   15.56472206  135.60400391    4.90999985    2.91000009
   15.56805515  141.57400513    4.90999985    2.91000009
   15.57138920  143.54699707    4.90999985    2.89000010
   15.57444477  153.78999329    4.90999985    2.89000010
   15.57777786  150.88299561    4.90999985    2.91000009
   15.58111095  132.90499878    4.90999985    2.89000010
   15.58416653  130.82699585    4.90999985    2.89000010
   15.58749962  151.97000122    4.90999985    2.89000010
   15.59055519  146.64599609    4.90999985    2.89000010
   15.59333324  144.63800049    4.90999985    2.91000009
   15.59416676  150.22000122    4.90999985    2.89000010
   15.59749985  151.77999878    4.90999985    2.91000009
   15.60361195  151.77999878    4.90999985    2.89000010
   15.60777855  145.09199524    4.90999985    2.89000010
   15.61083412  145.01699829    4.90999985    2.91000009
   15.61416721  135.67999268    4.90999985    2.91000009
   15.61750031  138.69700623    4.90999985    2.89000010
   15.62055588  143.42100525    4.90999985    2.91000009
   15.62388897  132.39300537    4.90999985    2.91000009
   15.62666702  134.82000732    4.90999985    2.91000009
   15.62750053  127.17800140    4.90999985    2.89000010
   15.63083363  132.36199951    4.90999985    2.89000010
   15.63416672  134.14599609    4.90999985    2.91000009
   15.63722229  135.41600037    4.90999985    2.89000010
   15.64055538  133.15299988    4.90999985    2.91000009
   15.64638901  133.15299988    4.90999985    2.91000009
   15.65055561  134.11000061    4.90999985    2.89000010
   15.65388870  139.97999573    4.90999985    2.91000009
   15.65694427  131.67500305    4.90999985    2.91000009
   15.67472267  128.23699951    4.90999985    2.89000010
   15.67694473  133.06900024    4.90999985    2.93000007
   15.68027782  128.99200439    4.90999985    2.91000009
   15.68361092  131.99800110    4.90999985    2.89000010
   15.68944454  131.99800110    4.90999985    2.89000010
   15.69361115  125.20800018    4.90999985    2.89000010
   15.69694424  126.15799713    4.90999985    2.91000009
   15.69999981  130.23399353    4.90999985    2.89000010
   15.70333290  120.92500305    4.90999985    2.89000010
   15.70638847  136.91499329    4.90999985    2.89000010
   15.70777798  123.98100281    4.90999985    2.91000009
   15.71027756  129.25300598    4.90999985    2.89000010
   15.71361065  124.57299805    4.90999985    2.91000009
   15.71666622  128.97999573    4.90999985    2.89000010
   15.71999931  134.37600708    4.90999985    2.89000010
   15.72305489  120.11599731    4.90999985    2.91000009
   15.72638798  136.07600403    4.90999985    2.89000010
   15.73222160  136.07600403    4.90999985    2.89000010
   15.73638916  123.48300171    4.90999985    2.89000010
   15.73972225  130.77200317    4.90999985    2.89000010
   15.74111176  129.66700745    4.90999985    2.89000010
   15.74333382  130.17599487    4.90999985    2.91000009
   15.74666691  126.48899841    4.90999985    2.91000009
   15.74972248  121.44599915    4.90999985    2.91000009
   15.75305557  126.16600037    4.90999985    2.91000009
   15.75611115  123.17500305    4.90999985    2.89000010
   15.75944424  127.02500153    4.90999985    2.91000009
   15.76277733  125.94599915    4.90999985    2.91000009
   15.76583290  120.05699921    4.90999985    2.89000010
   15.76916599  126.96600342    4.90999985    2.89000010
   15.77499962  126.96600342    4.90999985    2.89000010
   15.77916622  118.23699951    4.90999985    2.91000009
   15.78249931  125.38300323    4.90999985    2.91000009
   15.78583336  122.65499878    4.90999985    2.91000009
   15.78888893  125.95999908    4.90999985    2.89000010
   15.79222298  119.83799744    4.90999985    2.91000009
   15.79527855  124.80699921    4.90999985    2.89000010
   15.79861164  121.55400085    4.90999985    2.89000010
   15.80194473  123.58699799    4.90999985    2.91000009
   15.80500031  124.67700195    4.90999985    2.91000009
   15.80777836  121.45899963    4.90999985    2.89000010
   15.80861092  126.99800110    4.90999985    2.89000010
   15.81194496  126.91600037    4.90999985    2.91000009
   15.81805515  126.91600037    4.90999985    2.91000009
   15.82222176  116.82700348    4.90999985    2.91000009
   15.82527733  122.51200104    4.90999985    2.91000009
   15.82861137  117.90699768    4.90999985    2.91000009
   15.83194447  117.96199799    4.90999985    2.89000010
   15.83500004  124.43599701    4.90999985    2.89000010
   15.83833313  125.31700134    4.90999985    2.89000010
   15.84111118  117.69599915    4.90999985    2.91000009
   15.84194374  124.94400024    4.90999985    2.91000009
   15.84527779  123.90399933    4.90999985    2.91000009
   15.84833336  127.16100311    4.90999985    2.91000009
   15.85166740  121.25800323    4.90999985    2.91000009
   15.85500050  130.80499268    4.90999985    2.89000010
   15.86083412  130.80499268    4.90999985    2.91000009
   15.86500072  122.86900330    4.90999985    2.91000009
   15.86833382  140.05000305    4.90999985    2.91000009
   15.87138939  119.42700195    4.90999985    2.91000009
   15.87444496  117.29799652    4.90999985    2.89000010
   15.87500000  131.91499329    4.90999985    2.89000010
   15.87833309  131.48300171    4.90999985    2.91000009
   15.88138866  144.59100342    4.90999985    2.89000010
   15.88472176  142.14300537    4.90999985    2.91000009
   15.88777733  126.06600189    4.90999985    2.91000009
   15.89111137  141.21699524    4.90999985    2.91000009
   15.89444447  146.74499512    4.90999985    2.91000009
   15.89750004  155.46299744    4.90999985    2.91000009
   15.90361118  155.46299744    4.90999985    2.91000009
   15.90777779  164.85499573    4.90999985    2.91000009
   15.90833282  133.90600586    4.90999985    2.91000009
   15.91166592  156.84399414    4.90999985    2.91000009
   15.91472149  165.33000183    4.90999985    2.91000009
   15.91805553  123.06900024    4.90999985    2.91000009
   15.92111111  153.89399719    4.90999985    2.91000009
   15.92444515  153.87600708    4.90999985    2.89000010
   15.92777824  145.09300232    4.90999985    2.93000007
   15.93083382  140.19299316    4.90999985    2.91000009
   15.93416691  140.16900635    4.90999985    2.91000009
   15.93750000  129.85699463    4.90999985    2.91000009
   15.94055557  130.19200134    4.90999985    2.91000009
   15.94111156  137.67500305    4.90999985    2.91000009
   15.94638920  137.67500305    4.90999985    2.93000007
   15.95055580  128.31399536    4.90999985    2.91000009
   15.95388889  126.03199768    4.90999985    2.91000009
   15.95722198  124.49700165    4.90999985    2.93000007
   15.96027756  152.91999817    4.90999985    2.91000009
   15.96361065  152.70599365    4.90999985    2.91000009
   15.96666622  140.77200317    4.90999985    2.91000009
   15.96999931  142.08900452    4.90999985    2.91000009
   15.97333336  137.55299377    4.90999985    2.91000009
   15.97444439  137.51300049    4.90999985    2.91000009
   15.97694397  129.68099976    4.90999985    2.91000009
   15.98027706  144.17500305    4.90999985    2.91000009
   15.98333359  132.53700256    4.90999985    2.91000009
   15.98944473  132.53700256    4.90999985    2.91000009
   15.99361134  143.44999695    4.90999985    2.93000007
   15.99666691  126.01499939    4.90999985    2.91000009
   16.00000000  134.48699951    4.90999985    2.91000009
   16.00305557  130.88699341    4.90999985    2.89000010
   16.00638962  122.48899841    4.90999985    2.91000009
   16.00777817  127.75099945    4.90999985    2.91000009
   16.01000023  135.63999939    4.90999985    2.91000009
   16.01333427  134.01800537    4.90999985    2.91000009
   16.01638794  122.23200226    4.90999985    2.91000009
   16.01972198  126.31999969    4.90999985    2.91000009
   16.02305603  131.64799500    4.90999985    2.91000009
   16.02611160  120.02600098    4.90999985    2.91000009
   16.03222275  120.02600098    4.90999985    2.91000009
   16.03638840  125.53900146    4.90999985    2.91000009
   16.03944397  134.42900085    4.90999985    2.91000009
   16.04111099  133.18800354    4.90999985    2.91000009
   16.04305458  137.36999512    4.90999985    2.89000010
   16.04638863  122.57099915    4.90999985    2.91000009
   16.04944420  155.85000610    4.90999985    2.91000009
   16.05277634  121.41400146    4.90999985    2.91000009
   16.05611038  123.83899689    4.90999985    2.91000009
   16.05916595  127.29699707    4.90999985    2.91000009
   16.06250000  138.10299683    4.90999985    2.91000009
   16.06555557  126.34799957    4.90999985    2.93000007
   16.06888962  128.65899658    4.90999985    2.91000009
   16.07500076  128.65899658    4.90999985    2.91000009
   16.07916832  133.67900085    4.90999985    2.91000009
   16.08250046  129.14999390    4.90999985    2.91000009
   16.08555603  140.14500427    4.90999985    2.91000009
   16.08889008  146.33000183    4.90999985    2.91000009
   16.09222221  158.66700745    4.90999985    2.91000009
   16.09527779  171.46200562    4.90999985    2.93000007
   16.09861183  177.42599487    4.90999985    2.91000009
   16.10194397  140.76600647    4.90999985    2.93000007
   16.10499954  157.83900452    4.90999985    2.91000009
   16.10777855  165.48699951    4.90999985    2.91000009
   16.10861206  152.91099548    4.90999985    2.91000009
   16.11194420  186.99600220    4.90999985    2.91000009
   16.11777878  186.99600220    4.90999985    2.91000009
   16.12194443  184.72799683    4.90999985    2.91000009
   16.12527847  149.95799255    4.90999985    2.91000009
   16.12861061  152.81500244    4.90999985    2.91000009
   16.13166618  142.96600342    4.90999985    2.91000009
   16.13500023  174.72300720    4.90999985    2.91000009
   16.13805580  170.87199402    4.90999985    2.93000007
   16.14111137  159.16799927    4.90999985    2.91000009
   16.14166641  155.45399475    4.90999985    2.89000010
   16.14500046  166.39599609    4.90999985    2.91000009
   16.14805603  153.90100098    4.90999985    2.91000009
   16.15138817  162.36599731    4.90999985    2.91000009
   16.15472221  161.29699707    4.90999985    2.91000009
   16.16083336  161.29699707    4.90999985    2.91000009
   16.16499901  160.77699280    4.90999985    2.91000009
   16.16805458  200.66900635    4.90999985    2.91000009
   16.17138863  167.85899353    4.90999985    2.91000009
   16.17444420  248.34500122    4.90999985    2.91000009
   16.17499924  204.41600037    4.90999985    2.91000009
   16.17833328  215.94299316    4.90999985    2.89000010
   16.18138885  187.92500305    4.90999985    2.91000009
   16.18472099  191.00599670    4.90999985    2.91000009
   16.18805504  208.31700134    4.90999985    2.89000010
   16.19111061  179.90899658    4.90999985    2.91000009
   16.19444275  165.37399292    4.90999985    2.89000010
   16.19749832  179.16799927    4.90999985    2.93000007
   16.20361137  179.16799927    4.90999985    2.91000009
   16.20777893  195.02099609    4.90999985    2.93000007
   16.20833397  220.37800598    4.90999985    2.91000009
   16.21138954  225.32400513    4.90999985    2.91000009
   16.21472359  216.10699463    4.90999985    2.91000009
   16.21805573  214.94299316    4.90999985    2.91000009
   16.22111130  212.33500671    4.90999985    2.91000009
   16.22444534  210.50100708    4.90999985    2.91000009
   16.22777748  201.62699890    4.90999985    2.91000009
   16.23083305  191.86199951    4.90999985    2.91000009
   16.23416710  223.67100525    4.90999985    2.91000009
   16.23722267  176.65600586    4.90999985    2.91000009
   16.24055672  184.50100708    4.90999985    2.91000009
   16.24166679  176.60299683    4.90999985    2.93000007
   16.24638939  176.60299683    4.90999985    2.93000007
   16.25055504  187.98300171    4.90999985    2.93000007
   16.25388908  192.26100159    4.90999985    2.91000009
   16.25694466  175.35800171    4.90999985    2.91000009
   16.26027870  188.97000122    4.90999985    2.93000007
   16.26361084  187.27999878    4.90999985    2.91000009
   16.26666641  181.30200195    4.90999985    2.91000009
   16.27000046  135.78500366    4.90999985    2.91000009
   16.27333260  177.05700684    4.90999985    2.91000009
   16.27499962  159.41200256    4.90999985    2.91000009
   16.27666664  170.08500671    4.90999985    2.91000009
   16.28000069  175.38000488    4.90999985    2.91000009
   16.28333282  164.15699768    4.90999985    2.91000009
   16.28916550  164.15699768    4.90999985    2.91000009
   16.29333305  140.02699280    4.90999985    2.89000010
   16.29666710  155.71099854    4.90999985    2.91000009
   16.29999924  156.86599731    4.90999985    2.91000009
   16.30305481  172.52999878    4.90999985    2.91000009
   16.30638885  176.73599243    4.90999985    2.93000007
   16.30833244  178.35899353    4.90999985    2.91000009
   16.30999947  167.02499390    4.90999985    2.91000009
   16.31333351  155.89100647    4.90999985    2.91000009
   16.31666756  174.80599976    4.90999985    2.93000007
   16.31972313  147.20700073    4.90999985    2.93000007
   16.32305717  175.75900269    4.90999985    2.93000007
   16.32638931  171.71299744    4.90999985    2.93000007
   16.33222389  171.71299744    4.90999985    2.91000009
   16.33638954  174.14599609    4.90999985    2.91000009
   16.33944511  139.13800049    4.90999985    2.91000009
   16.34166718  177.57600403    4.90999985    2.91000009
   16.34305573  160.72099304    4.90999985    2.91000009
   16.34638977  159.93600464    4.90999985    2.93000007
   16.34972191  145.16799927    4.90999985    2.93000007
   16.35277748  169.28100586    4.90999985    2.91000009
   16.35611153  154.06199646    4.90999985    2.91000009
   16.35944557  139.43800354    4.90999985    2.91000009
   16.36250114  149.08599854    4.90999985    2.93000007
   16.36583328  137.54800415    4.90999985    2.93000007
   16.36888885  132.22200012    4.90999985    2.91000009
   16.37500000  132.22200012    4.90999985    2.91000009
   16.37916756  138.77699280    4.90999985    2.93000007
   16.38222313  161.82200623    4.90999985    2.91000009
   16.38555527  140.75000000    4.90999985    2.91000009
   16.38888931  156.53300476    4.90999985    2.91000009
   16.39194489  173.47300720    4.90999985    2.91000009
   16.39527702  152.00700378    4.90999985    2.91000009
   16.39861107  147.05999756    4.90999985    2.93000007
   16.40166664  143.93800354    4.90999985    2.91000009
   16.40499878  131.09300232    4.90999985    2.91000009
   16.40805435  131.95799255    4.90999985    2.91000009
   16.40861130  134.30999756    4.90999985    2.91000009
   16.41194344  151.21600342    4.90999985    2.93000007
   16.41777802  151.21600342    4.90999985    2.93000007
   16.42194366  146.84399414    4.90999985    2.93000007
   16.42527771  163.45700073    4.90999985    2.91000009
   16.42833328  149.39799500    4.90999985    2.93000007
   16.43166542  137.27299500    4.90999985    2.91000009
   16.43499947  163.97000122    4.90999985    2.93000007
   16.43805504  144.97200012    4.90999985    2.91000009
   16.44138718  153.65899658    4.90999985    2.91000009
   16.44194412  182.29800415    4.90999985    2.91000009
   16.44499969  176.34800720    4.90999985    2.91000009
   16.44833183  174.92500305    4.90999985    2.93000007
   16.45138931  207.93099976    4.90999985    2.91000009
   16.45472336  246.63600159    4.90999985    2.91000009
   16.46055603  246.63600159    4.90999985    2.91000009
   16.46472359  179.80400085    4.90999985    2.93000007
   16.46805573  188.67999268    4.90999985    2.93000007
   16.47138977  222.36199951    4.90999985    2.91000009
   16.47444534  185.20700073    4.90999985    2.91000009
   16.47527885  220.21600342    4.90999985    2.91000009
   16.47805595  211.84199524    4.90999985    2.91000009
   16.48139000  226.20100403    4.90999985    2.91000009
   16.48444557  226.65100098    4.90999985    2.93000007
   16.48777771  222.93099976    4.90999985    2.91000009
   16.49111176  192.08599854    4.90999985    2.91000009
   16.49416733  171.23899841    4.90999985    2.91000009
   16.49749947  219.43800354    4.90999985    2.91000009
   16.50361061  219.43800354    4.90999985    2.93000007
   16.50777817  171.78100586    4.90999985    2.93000007
   16.50861168  163.20300293    4.90999985    2.91000009
   16.51138878  157.82699585    4.90999985    2.91000009
   16.51472282  186.04699707    4.90999985    2.91000009
   16.51777840  122.41600037    4.90999985    2.91000009
   16.52111053  156.37300110    4.90999985    2.91000009
   16.52444458  145.70899963    4.90999985    2.93000007
   16.52750015  134.09300232    4.90999985    2.93000007
   16.53083229  139.65499878    4.90999985    2.91000009
   16.53388786  143.06599426    4.90999985    2.91000009
   16.53722191  142.64500427    4.90999985    2.91000009
   16.54055595  138.36599731    4.90999985    2.91000009
   16.54194450  143.36599731    4.90999985    2.91000009
   16.54638863  143.36599731    4.90999985    2.91000009
   16.55055428  116.91000366    4.90999985    2.91000009
   16.55388832  133.20500183    4.90999985    2.91000009
   16.55722237  125.64299774    4.90999985    2.93000007
   16.56027794  130.67599487    4.90999985    2.93000007
   16.56361008  128.87800598    4.90999985    2.93000007
   16.56666756  132.25999451    4.90999985    2.91000009
   16.57000160  133.44299316    4.90999985    2.91000009
   16.57333374  125.71199799    4.90999985    2.93000007
   16.57527924  127.39800262    4.90999985    2.91000009
   16.57694626  130.69599915    4.90999985    2.91000009
   16.58027840  138.50300598    4.90999985    2.93000007
   16.58333397  148.80499268    4.90999985    2.91000009
   16.58916664  148.80499268    4.90999985    2.91000009
   16.59333420  137.14500427    4.90999985    2.91000009
   16.59666824  131.65100098    4.90999985    2.91000009
   16.59972191  139.68099976    4.90999985    2.91000009
   16.60305595  138.26199341    4.90999985    2.91000009
   16.60639000  129.73100281    4.90999985    2.91000009
   16.60861206  138.63600159    4.90999985    2.91000009
   16.61000061  138.79200745    4.90999985    2.91000009
   16.61333466  130.64900208    4.90999985    2.93000007
   16.61638832  131.94299316    4.90999985    2.91000009
   16.61972237  126.51599884    4.90999985    2.91000009
   16.62305641  131.75300598    4.90999985    2.91000009
   16.62611198  137.16499329    4.90999985    2.91000009
   16.63194466  137.16499329    4.90999985    2.91000009
   16.63611031  130.82899475    4.90999985    2.91000009
   16.63944435  138.33700562    4.90999985    2.91000009
   16.64194489  130.78100586    4.90999985    2.89000010
   16.64305496  134.10800171    4.90999985    2.93000007
   16.64638901  132.11700439    4.90999985    2.91000009
   16.64944458  137.26699829    4.90999985    2.93000007
   16.65277672  129.34800720    4.90999985    2.93000007
   16.65611076  137.00500488    4.90999985    2.91000009
   16.65916634  126.02200317    4.90999985    2.91000009
   16.66250038  145.63000488    4.90999985    2.93000007
   16.66555595  135.88900757    4.90999985    2.91000009
   16.66888809  137.32800293    4.90999985    2.91000009
   16.67499924  137.32800293    4.90999985    2.93000007
   16.69333267  125.29000092    4.90999985    2.91000009
   16.69666672  137.72399902    4.90999985    2.91000009
   16.69972038  123.08100128    4.90999985    2.91000009
   16.70305634  132.38800049    4.90999985    2.93000007
   16.70611191  130.50599670    4.90999985    2.93000007
   16.70944595  136.09199524    4.90999985    2.93000007
   16.71277809  128.11300659    4.90999985    2.93000007
   16.71805573  128.11300659    4.90999985    2.91000009
   16.72222328  119.10600281    4.90999985    2.91000009
   16.72527885  133.97599792    4.90999985    2.91000009
   16.72638893  124.74400330    4.90999985    2.91000009
   16.72916794  127.26499939    4.90999985    2.91000009
   16.73222351  133.15899658    4.90999985    2.91000009
   16.73555565  132.03599548    4.90999985    2.91000009
   16.73861122  126.11100006    4.90999985    2.91000009
   16.74194527  130.47700500    4.90999985    2.91000009
   16.74527740  124.85199738    4.90999985    2.91000009
   16.74833298  124.35700226    4.90999985    2.91000009
   16.75166702  135.21200562    4.90999985    2.93000007
   16.75499916  116.34500122    4.90999985    2.93000007
   16.76083374  116.34500122    4.90999985    2.91000009
   16.76499939  140.76699829    4.90999985    2.93000007
   16.76833344  133.52400208    4.90999985    2.91000009
   16.77138901  137.66099548    4.90999985    2.91000009
   16.77472115  139.75700378    4.90999985    2.93000007
   16.77777672  145.38600159    4.90999985    2.91000009
   16.78111076  153.47799683    4.90999985    2.91000009
   16.78444481  143.91999817    4.90999985    2.93000007
   16.78750038  140.55299377    4.90999985    2.93000007
   16.79083252  143.66499329    4.90999985    2.91000009
   16.79305458  147.36000061    4.90999985    2.93000007
   16.79472160  147.00999451    4.90999985    2.91000009
   16.79777718  134.52900696    4.90999985    2.91000009
   16.80360985  134.52900696    4.90999985    2.93000007
   16.80777740  149.30299377    4.90999985    2.91000009
   16.81110954  146.19900513    4.90999985    2.93000007
   16.81416512  145.24299622    4.90999985    2.91000009
   16.81750107  155.69299316    4.90999985    2.93000007
   16.82083511  149.66700745    4.90999985    2.91000009
   16.82389069  162.90699768    4.90999985    2.91000009
   16.82638931  135.99099731    4.90999985    2.91000009
   16.82750130  123.43299866    4.90999985    2.93000007
   16.83083344  134.22000122    4.90999985    2.91000009
   16.83416748  135.79899597    4.90999985    2.93000007
   16.83722305  140.76199341    4.90999985    2.91000009
   16.84055710  153.36999512    4.90999985    2.91000009
   16.84666824  153.36999512    4.90999985    2.93000007
   16.85055542  161.78599548    4.90999985    2.91000009
   16.85388947  148.32400513    4.90999985    2.91000009
   16.85722351  147.62199402    4.90999985    2.91000009
   16.85972214  165.01899719    4.90999985    2.91000009
   16.86083412  156.41200256    4.90999985    2.91000009
   16.86388969  142.81399536    4.90999985    2.91000009
   16.86722183  149.43899536    4.90999985    2.93000007
   16.87055588  141.28199768    4.90999985    2.91000009
   16.87361145  154.30200195    4.90999985    2.91000009
   16.87694550  130.89500427    4.90999985    2.93000007
   16.88000107  156.24200439    4.90999985    2.93000007
   16.88333321  151.02099609    4.90999985    2.93000007
   16.88944435  151.02099609    4.90999985    2.93000007
   16.89361191  141.51699829    4.90999985    2.93000007
   16.89666748  138.73199463    4.90999985    2.93000007
   16.89999962  128.22000122    4.90999985    2.93000007
   16.90333366  141.96600342    4.90999985    2.93000007
   16.90638924  135.00199890    4.90999985    2.91000009
   16.90972137  137.28300476    4.90999985    2.91000009
   16.91277695  129.14900208    4.90999985    2.93000007
   16.91611099  138.59199524    4.90999985    2.93000007
   16.91944313  141.54200745    4.90999985    2.93000007
   16.92249870  129.06199646    4.90999985    2.91000009
   16.92611122  123.60099792    4.90999985    2.91000009
   16.92666626  127.48400116    4.90999985    2.93000007
   16.93222237  127.48400116    4.90999985    2.93000007
   16.93638802  122.96700287    4.90999985    2.91000009
   16.93972206  141.79100037    4.90999985    2.93000007
   16.94277763  136.69400024    4.90999985    2.91000009
   16.94610977  130.61599731    4.90999985    2.91000009
   16.94944382  127.92900085    4.90999985    2.91000009
   16.95250130  139.45199585    4.90999985    2.93000007
   16.95583344  150.24800110    4.90999985    2.91000009
   16.95888901  147.76899719    4.90999985    2.93000007
   16.96000099  146.02799988    4.90999985    2.91000009
   16.96277809  148.66400146    4.90999985    2.93000007
   16.96583366  141.87899780    4.90999985    2.91000009
   16.96916771  131.04800415    4.90999985    2.91000009
   16.97500038  131.04800415    4.90999985    2.91000009
   16.97916794  150.51699829    4.90999985    2.91000009
   16.98250008  127.86499786    4.90999985    2.91000009
   16.98555565  141.00399780    4.90999985    2.91000009
   16.98888969  134.00399780    4.90999985    2.91000009
   16.99222183  141.82800293    4.90999985    2.93000007
   16.99333382  144.87899780    4.90999985    2.93000007
   16.99583435  136.85600281    4.90999985    2.93000007
   16.99888992  149.95500183    4.90999985    2.93000007
   17.00222206  144.55900574    4.90999985    2.93000007
   17.00555611  153.83299255    4.90999985    2.91000009
   17.00861168  135.26300049    4.90999985    2.93000007
   17.01194382  147.13299561    4.90999985    2.91000009
   17.01777840  147.13299561    4.90999985    2.93000007
   17.02194405  145.70300293    4.90999985    2.93000007
   17.02527809  148.61000061    4.90999985    2.93000007
   17.02666664  154.27400208    4.90999985    2.93000007
   17.02888870  144.36300659    4.90999985    2.93000007
   17.03194427  132.05799866    4.90999985    2.93000007
   17.03527641  129.45700073    4.90999985    2.93000007
   17.03833199  149.90699768    4.90999985    2.91000009
   17.04166603  159.00199890    4.90999985    2.93000007
   17.04500008  142.50399780    4.90999985    2.91000009
   17.04805565  145.95199585    4.90999985    2.93000007
   17.05138779  141.39700317    4.90999985    2.91000009
   17.05472183  142.89199829    4.90999985    2.91000009
   17.06083298  142.89199829    4.90999985    2.91000009
   17.06499863  156.63499451    4.90999985    2.93000007
   17.06805611  166.35200500    4.90999985    2.93000007
   17.07139015  154.20700073    4.90999985    2.91000009
   17.07444572  168.99800110    4.90999985    2.91000009
   17.07777786  154.43800354    4.90999985    2.91000009
   17.08111191  153.74000549    4.90999985    2.91000009
   17.08416748  138.09199524    4.90999985    2.91000009
   17.08750153  159.06900024    4.90999985    2.93000007
   17.09083366  181.98199463    4.90999985    2.93000007
   17.09333420  186.96000671    4.90999985    2.91000009
   17.09444427  173.13200378    4.90999985    2.91000009
   17.09749985  193.63400269    4.90999985    2.91000009
   17.10361099  193.63400269    4.90999985    2.91000009
   17.10777855  179.23500061    4.90999985    2.91000009
   17.11083412  207.84700012    4.90999985    2.91000009
   17.11416626  205.84899902    4.90999985    2.91000009
   17.11750031  239.23899841    4.90999985    2.93000007
   17.12055588  252.97399902    4.90999985    2.91000009
   17.12388992  257.99899292    4.90999985    2.91000009
   17.12666702  226.21699524    4.90999985    2.93000007
   17.12750053  272.16900635    4.90999985    2.93000007
   17.13055611  314.53799438    4.90999985    2.91000009
   17.13388824  352.88699341    4.90999985    2.93000007
   17.13583374  328.45300293    4.90999985    2.91000009
   17.13750076  347.18899536    4.90999985    2.91000009
   17.13861084  289.02801514    4.90999985    2.91000009
   17.13861084  179.23500061    4.90999985    2.91000009
   17.13888931  207.84700012    4.90999985    2.91000009
   17.13888931  205.84899902    4.90999985    2.91000009
   17.13888931  239.23899841    4.90999985    2.93000007
   17.13916588  252.97399902    4.90999985    2.91000009
   17.13916588  257.99899292    4.90999985    2.91000009
   17.13916588  272.16900635    4.90999985    2.93000007
   17.13944435  314.53799438    4.90999985    2.91000009
   17.13944435  352.88699341    4.90999985    2.93000007
   17.13999939  297.89001465    4.90999985    2.93000007
   17.14333344  309.92599487    4.90999985    2.91000009
   17.14638901  298.33099365    4.90999985    2.91000009
   17.14972115  304.04199219    4.90999985    2.91000009
   17.15305519  272.28100586    4.90999985    2.91000009
   17.15944481  272.28100586    4.90999985    2.91000009
   17.16361046  341.73098755    4.90999985    2.91000009
   17.16666603  364.72100830    4.90999985    2.91000009
   17.16888809  338.57998657    4.90999985    2.93000007
   17.17000008  378.17999268    4.90999985    2.91000009
   17.17138863  483.91299438    4.90999985    2.93000007
   17.17277718  440.02200317    4.90999985    2.91000009
   17.17416573  412.00100708    4.90999985    2.91000009
   17.17555428  405.20199585    4.90999985    2.91000009
   17.17694473  444.83898926    4.90999985    2.91000009
   17.17833328  368.59600830    4.90999985    2.91000009
   17.17972183  466.14599609    4.90999985    2.93000007
   17.18111038  536.24102783    4.90999985    2.91000009
   17.18249893  484.43899536    4.90999985    2.91000009
   17.18388748  438.73098755    4.90999985    2.91000009
   17.18527603  381.72500610    4.90999985    2.89000010
   17.18666649  366.01699829    4.90999985    2.93000007
   17.18805504  470.92599487    4.90999985    2.91000009
   17.18944359  410.53399658    4.90999985    2.91000009
   17.19083214  372.34899902    4.90999985    2.91000009
   17.19222069  327.40701294    4.90999985    2.91000009
   17.19361115  362.00698853    4.90999985    2.91000009
   17.19499969  362.57299805    4.90999985    2.91000009
   17.19638824  373.90798950    4.90999985    2.89000010
   17.19777679  373.81298828    4.90999985    2.96000004
   17.19916534  425.21600342    0.76999998    3.01999998
   17.20055580  483.62100220    0.11000000    0.75000000
   17.20194435  426.26400757    0.11000000    0.75000000
   17.20333481  356.86599731    0.07000000    0.52999997
   17.20472336  416.76199341    0.05000000    0.41999999
   17.20611191  478.56100464    0.05000000    0.25000000
   17.20750046  407.16500854    0.05000000    0.11000000
   17.20888901  417.31799316    0.05000000    0.11000000
   17.21027946  485.43399048    0.05000000    0.11000000
   17.21166801  446.48300171    0.05000000    0.11000000
   17.21305656  337.48300171    0.05000000    0.11000000
   17.21444511  377.50799561    0.05000000    0.11000000
   17.21583366  435.31100464    0.05000000    0.11000000
   17.21722221  464.93701172    0.05000000    0.11000000
   17.21861076  388.75201416    0.05000000    0.11000000
   17.22000122  346.04098511    0.05000000    0.11000000
   17.22138977  329.69500732    0.05000000    0.11000000
   17.22277832  380.43499756    0.05000000    0.11000000
   17.22416687  395.55398560    0.05000000    0.11000000
   17.22555542  442.72100830    0.05000000    0.11000000
   17.22694588  396.69500732    0.05000000    0.11000000
   17.22833443  389.53100586    0.05000000    0.11000000
   17.22972298  422.73699951    0.05000000    0.11000000
   17.23111153  412.05599976    0.05000000    0.11000000
   17.23250008  413.22100830    0.05000000    0.11000000
   17.23388863  454.86999512    0.05000000    0.11000000
   17.23527718  419.28698730    0.05000000    0.11000000
   17.23666763  325.36898804    0.05000000    0.11000000
   17.23805618  406.64599609    0.05000000    0.11000000
   17.23944473  382.59298706    0.05000000    0.11000000
   17.24083328  430.33801270    0.05000000    0.11000000
   17.24222183  368.52600098    0.05000000    0.11000000
   17.24361229  362.92999268    0.05000000    0.11000000
   17.24500084  364.56900024    0.05000000    0.11000000
   17.24638939  349.79199219    0.05000000    0.11000000
   17.24777794  361.83401489    0.05000000    0.11000000
   17.24916649  446.01501465    0.05000000    0.11000000
   17.25055504  336.43099976    0.05000000    0.11000000
   17.25194359  430.25299072    0.05000000    0.11000000
   17.25333405  467.71398926    0.05000000    0.11000000
   17.25472260  458.32699585    0.05000000    0.11000000
   17.25611115  331.72601318    0.05000000    0.11000000
   17.25749969  435.39498901    0.05000000    0.11000000
   17.25888824  436.06500244    0.05000000    0.11000000
   17.26027870  380.91000366    0.05000000    0.11000000
   17.26166725  364.17401123    0.05000000    0.11000000
   17.26305580  401.96301270    0.05000000    0.11000000
   17.26444435  308.12799072    0.05000000    0.11000000
   17.26583290  350.02999878    0.05000000    0.11000000
   17.26722145  342.27801514    0.05000000    0.11000000
   17.26861000  353.95199585    0.05000000    0.11000000
   17.27000046  377.08401489    0.05000000    0.11000000
   17.27138901  386.23699951    0.05000000    0.11000000
   17.27277756  353.43099976    0.05000000    0.11000000
   17.27416611  329.56100464    0.05000000    0.11000000
   17.27555466  356.87899780    0.05000000    0.11000000
   17.27694511  384.05999756    0.05000000    0.11000000
   17.27833366  402.04199219    0.05000000    0.11000000
   17.27972221  330.25799561    0.05000000    0.11000000
   17.28111076  470.72601318    0.05000000    0.11000000
   17.28249931  426.38500977    0.05000000    0.11000000
   17.28388786  335.93200684    0.05000000    0.11000000
   17.28527641  405.48098755    0.05000000    0.11000000
   17.28666687  366.36401367    0.05000000    0.11000000
   17.28805542  317.73599243    0.05000000    0.11000000
   17.28944397  367.04400635    0.05000000    0.11000000
   17.29083252  323.68798828    0.05000000    0.11000000
   17.29222107  361.75299072    0.05000000    0.11000000
   17.29361153  400.29699707    0.05000000    0.11000000
   17.29500008  336.60800171    0.05000000    0.11000000
   17.29638863  440.40200806    0.05000000    0.11000000
   17.29777718  327.31799316    0.05000000    0.11000000
   17.29916573  380.38198853    0.05000000    0.11000000
   17.30055428  332.13000488    0.05000000    0.11000000
   17.30194283  306.16198730    0.05000000    0.11000000
   17.30333328  334.21499634    0.05000000    0.11000000
   17.30472183  343.67700195    0.05000000    0.11000000
   17.30611038  323.01800537    0.05000000    0.11000000
   17.30749893  369.78799438    0.05000000    0.11000000
   17.30888748  306.81600952    0.05000000    0.11000000
   17.31027794  292.41799927    0.05000000    0.11000000
   17.31055450  297.89001465    4.90999985    2.93000007
   17.31055450  309.92599487    4.90999985    2.91000009
   17.31055450  298.33099365    4.90999985    2.91000009
   17.31083298  304.04199219    4.90999985    2.91000009
   17.31083298  272.28100586    4.90999985    2.91000009
   17.31083298  341.73098755    4.90999985    2.91000009
   17.31110954  364.72100830    4.90999985    2.91000009
   17.31166649  318.68200684    0.05000000    0.11000000
   17.31472206  303.48300171    0.05000000    0.11000000
   17.31805611  274.41799927    0.05000000    0.11000000
   17.32139015  281.48400879    0.05000000    0.11000000
   17.32444572  306.51199341    0.05000000    0.11000000
   17.33111191  306.51199341    0.05000000    0.11000000
   17.33527756  258.78500366    0.05000000    0.11000000
   17.33861160  273.88400269    0.05000000    0.11000000
   17.34166718  293.36300659    0.05000000    0.11000000
   17.34416771  284.32000732    0.05000000    0.11000000
   17.34555626  263.96398926    0.05000000    0.11000000
   17.34861183  305.66500854    0.05000000    0.11000000
   17.35194397  261.06100464    0.05000000    0.11000000
   17.35555649  266.58499146    0.05000000    0.11000000
   17.35888863  278.18200684    0.05000000    0.11000000
   17.36194420  241.20899963    0.05000000    0.11000000
   17.36527824  226.06399536    0.05000000    0.11000000
   17.36833382  237.77699280    0.05000000    0.11000000
   17.37388992  237.77699280    0.05000000    0.11000000
   17.37805557  301.80801392    0.05000000    0.11000000
   17.38138962  250.73100281    0.05000000    0.11000000
   17.38472176  280.70098877    0.05000000    0.11000000
   17.38777733  245.81599426    0.05000000    0.11000000
   17.39111137  248.83399963    0.05000000    0.11000000
   17.39416695  265.09100342    0.05000000    0.11000000
   17.39749908  271.75000000    0.05000000    0.11000000
   17.40083313  241.42199707    0.05000000    0.11000000
   17.40388870  283.19299316    0.05000000    0.11000000
   17.40722275  255.17100525    0.05000000    0.11000000
   17.41055489  269.65701294    0.05000000    0.11000000
   17.41110992  276.86099243    0.05000000    0.11000000
   17.41694450  276.86099243    0.05000000    0.11000000
   17.42083359  265.51901245    0.05000000    0.11000000
   17.42416573  248.00500488    0.05000000    0.11000000
   17.42749977  280.73199463    0.05000000    0.11000000
   17.43055534  310.14099121    0.05000000    0.11000000
   17.43388748  241.82699585    0.05000000    0.11000000
   17.43722153  311.58999634    0.05000000    0.11000000
   17.44027710  253.37800598    0.05000000    0.11000000
   17.44361115  248.26600647    0.05000000    0.11000000
   17.44444275  239.68800354    0.05000000    0.11000000
   17.44722176  242.75199890    0.05000000    0.11000000
   17.45055580  234.95599365    0.05000000    0.11000000
   17.45361137  227.52799988    0.05000000    0.11000000
   17.45972252  227.52799988    0.05000000    0.11000000
   17.46389008  264.29400635    0.05000000    0.11000000
   17.46694565  284.68798828    0.05000000    0.11000000
   17.47027779  290.97799683    0.05000000    0.11000000
   17.47361183  259.29199219    0.05000000    0.11000000
   17.47666740  281.89999390    0.05000000    0.11000000
   17.47777748  240.47099304    0.05000000    0.11000000
   17.48027802  283.92401123    0.05000000    0.11000000
   17.48361206  271.47500610    0.05000000    0.11000000
   17.48666763  287.11599731    0.05000000    0.11000000
   17.48999977  286.03698730    0.05000000    0.11000000
   17.49333382  298.66900635    0.05000000    0.11000000
   17.49638939  275.78698730    0.05000000    0.11000000
   17.50250053  275.78698730    0.05000000    0.11000000
   17.50666618  245.60200500    0.05000000    0.11000000
   17.51000023  266.95901489    0.05000000    0.11000000
   17.51111031  266.43600464    0.05000000    0.11000000
   17.51333427  280.54098511    0.05000000    0.11000000
   17.51666641  275.58200073    0.05000000    0.11000000
   17.51972198  284.56900024    0.05000000    0.11000000
   17.52305603  257.64599609    0.05000000    0.11000000
   17.52638817  252.81100464    0.05000000    0.11000000
   17.52944374  228.73500061    0.05000000    0.11000000
   17.53277779  276.47698975    0.05000000    0.11000000
   17.53610992  282.27801514    0.05000000    0.11000000
   17.53916550  257.92898560    0.05000000    0.11000000
   17.54527664  257.92898560    0.05000000    0.11000000
   17.54944420  232.10899353    0.05000000    0.11000000
   17.55277634  242.90600586    0.05000000    0.11000000
   17.55583191  239.08799744    0.05000000    0.11000000
   17.55916595  287.01699829    0.05000000    0.11000000
   17.56250000  239.57600403    0.05000000    0.11000000
   17.56555557  251.02999878    0.05000000    0.11000000
   17.56888962  266.57901001    0.05000000    0.11000000
   17.57222366  267.64099121    0.05000000    0.11000000
   17.57527924  231.65800476    0.05000000    0.11000000
   17.57777786  253.79800415    0.05000000    0.11000000
   17.57888985  264.30499268    0.05000000    0.11000000
   17.58222389  246.02099609    0.05000000    0.11000000
   17.58833313  246.02099609    0.05000000    0.11000000
   17.59250069  253.29499817    0.05000000    0.11000000
   17.59555626  268.90100098    0.05000000    0.11000000
   17.59889030  252.67999268    0.05000000    0.11000000
   17.60194397  281.92401123    0.05000000    0.11000000
   17.60527802  253.05999756    0.05000000    0.11000000
   17.60861206  284.46499634    0.05000000    0.11000000
   17.61111069  271.14401245    0.05000000    0.11000000
   17.61222267  307.45199585    0.05000000    0.11000000
   17.61555672  300.23800659    0.05000000    0.11000000
   17.61861038  336.02200317    0.05000000    0.11000000
   17.62194443  320.86099243    0.05000000    0.11000000
   17.62527847  319.74099731    0.05000000    0.11000000
   17.63111115  319.74099731    0.05000000    0.11000000
   17.63527679  261.35400391    0.05000000    0.11000000
   17.63833237  254.17900085    0.05000000    0.11000000
   17.64166641  257.12600708    0.05000000    0.11000000
   17.64444351  231.94999695    0.05000000    0.11000000
   17.64527702  235.58399963    0.05000000    0.11000000
   17.64861107  250.05599976    0.05000000    0.11000000
   17.65166664  272.09600830    0.05000000    0.11000000
   17.65499878  262.71099854    0.05000000    0.11000000
   17.65833282  255.25999451    0.05000000    0.11000000
   17.66138840  285.27801514    0.05000000    0.11000000
   17.66472244  220.21400452    0.05000000    0.11000000
   17.66805458  282.15499878    0.05000000    0.11000000
   17.67388916  282.15499878    0.05000000    0.11000000
   17.67805481  285.52801514    0.05000000    0.11000000
   17.68138885  232.60000610    0.05000000    0.11000000
   17.68444443  272.56600952    0.05000000    0.11000000
   17.68777657  267.63699341    0.05000000    0.11000000
   17.69083214  240.50799561    0.05000000    0.11000000
   17.71055603  251.88200378    0.05000000    0.11000000
   17.71111107  244.94599915    0.05000000    0.11000000
   17.71694565  244.94599915    0.05000000    0.11000000
   17.72111130  241.85200500    0.05000000    0.11000000
   17.72444534  248.58900452    0.05000000    0.11000000
   17.72750092  249.71499634    0.05000000    0.11000000
   17.73083305  245.33500671    0.05000000    0.11000000
   17.73388863  242.60299683    0.05000000    0.11000000
   17.73722267  246.92700195    0.05000000    0.11000000
   17.74055672  250.04400635    0.05000000    0.11000000
   17.74361229  250.06500244    0.05000000    0.11000000
   17.74444389  250.32699585    0.05000000    0.11000000
   17.74722290  239.92799377    0.05000000    0.11000000
   17.75055504  262.51400757    0.05000000    0.11000000
   17.75388908  235.27400208    0.05000000    0.11000000
   17.75972176  235.27400208    0.05000000    0.11000000
   17.76388931  237.44599915    0.05000000    0.11000000
   17.76722145  250.69999695    0.05000000    0.11000000
   17.77055550  240.44799805    0.05000000    0.11000000
   17.77361107  204.68200684    0.05000000    0.11000000
   17.77694511  240.84100342    0.05000000    0.11000000
   17.77777672  243.35099792    0.05000000    0.11000000
   17.78055573  239.31900024    0.05000000    0.11000000
   17.78388786  239.77000427    0.05000000    0.11000000
   17.78722191  222.72500610    0.05000000    0.11000000
   17.79027748  237.72300720    0.05000000    0.11000000
   17.79361153  245.84100342    0.05000000    0.11000000
   17.79666710  224.62500000    0.05000000    0.11000000
   17.80277634  224.62500000    0.05000000    0.11000000
   17.80666542  256.59500122    0.05000000    0.11000000
   17.80999947  255.61300659    0.05000000    0.11000000
   17.81110954  238.87600708    0.05000000    0.11000000
   17.81361008  247.30400085    0.05000000    0.11000000
   17.81694603  244.97200012    0.05000000    0.11000000
   17.82027817  194.28999329    0.05000000    0.11000000
   17.82333374  226.82600403    0.05000000    0.11000000
   17.82666779  246.99600220    0.05000000    0.11000000
   17.83000183  218.19900513    0.05000000    0.11000000
   17.83305550  235.58500671    0.05000000    0.11000000
   17.83638954  229.88699341    0.05000000    0.11000000
   17.83944511  230.67999268    0.05000000    0.11000000
   17.84555626  230.67999268    0.05000000    0.11000000
   17.84972191  247.40299988    0.05000000    0.11000000
   17.85277748  235.70399475    0.05000000    0.11000000
   17.85611153  233.92300415    0.05000000    0.11000000
   17.85944557  230.49899292    0.05000000    0.11000000
   17.86250114  225.91799927    0.05000000    0.11000000
   17.86583328  231.03500366    0.05000000    0.11000000
   17.86888885  241.93299866    0.05000000    0.11000000
   17.87222290  227.95899963    0.05000000    0.11000000
   17.87555504  245.26100159    0.05000000    0.11000000
   17.87777710  246.67100525    0.05000000    0.11000000
   17.87888908  258.65798950    0.05000000    0.11000000
   17.88222313  246.40699768    0.05000000    0.11000000
   17.88833237  246.40699768    0.05000000    0.11000000
   17.89249992  231.40400696    0.05000000    0.11000000
   17.89583397  241.47900391    0.05000000    0.11000000
   17.89888954  235.69799805    0.05000000    0.11000000
   17.90222168  248.09100342    0.05000000    0.11000000
   17.90555573  246.35400391    0.05000000    0.11000000
   17.90861130  243.85400391    0.05000000    0.11000000
   17.91110992  246.85899353    0.05000000    0.11000000
   17.91222191  252.83999634    0.05000000    0.11000000
   17.91555595  239.47599792    0.05000000    0.11000000
   17.91888809  254.50199890    0.05000000    0.11000000
   17.92194366  257.50500488    0.05000000    0.11000000
   17.92527771  255.80599976    0.05000000    0.11000000
   17.93111038  255.80599976    0.05000000    0.11000000
   17.93527603  232.20599365    0.05000000    0.11000000
   17.93861008  255.03500366    0.05000000    0.11000000
   17.94194412  241.94400024    0.05000000    0.11000000
   17.94444275  260.16799927    0.05000000    0.11000000
   17.94527626  251.97399902    0.05000000    0.11000000
   17.94861031  250.09300232    0.05000000    0.11000000
   17.95194435  245.93200684    0.05000000    0.11000000
   17.95499992  233.52900696    0.05000000    0.11000000
   17.95833397  229.80000305    0.05000000    0.11000000
   17.96166801  214.61199951    0.05000000    0.11000000
   17.96472359  233.36900330    0.05000000    0.11000000
   17.96805573  253.73199463    0.05000000    0.11000000
   17.97416687  253.73199463    0.05000000    0.11000000
   17.97833443  233.51699829    0.05000000    0.11000000
   17.98139000  236.57899475    0.05000000    0.11000000
   17.98472214  230.04800415    0.05000000    0.11000000
   17.98777771  219.13000488    0.05000000    0.11000000
   17.99111176  230.67500305    0.05000000    0.11000000
   17.99444389  239.15899658    0.05000000    0.11000000
   17.99749947  238.64199829    0.05000000    0.11000000
   18.00083351  226.43699646    0.05000000    0.11000000
   18.00416756  207.72700500    0.05000000    0.11000000
   18.00722313  234.54499817    0.05000000    0.11000000
   18.01055527  226.34100342    0.05000000    0.11000000
   18.01111031  231.25799561    0.05000000    0.11000000
   18.01694489  231.25799561    0.05000000    0.11000000
   18.02111053  232.42900085    0.05000000    0.11000000
   18.02416611  243.40199280    0.05000000    0.11000000
   18.02750015  246.31700134    0.05000000    0.11000000
   18.03083229  242.33799744    0.05000000    0.11000000
   18.03388786  231.20500183    0.05000000    0.11000000
   18.03722191  239.07499695    0.05000000    0.11000000
   18.04055595  244.38099670    0.05000000    0.11000000
   18.04361153  228.81799316    0.05000000    0.11000000
   18.04444313  242.84599304    0.05000000    0.11000000
   18.04722214  232.81500244    0.05000000    0.11000000
   18.05055428  215.78999329    0.05000000    0.11000000
   18.05388832  224.21200562    0.05000000    0.11000000
   18.05972099  224.21200562    0.05000000    0.11000000
   18.06388855  237.30900574    0.05000000    0.11000000
   18.06722260  220.64199829    0.05000000    0.11000000
   18.07027817  225.84700012    0.05000000    0.11000000
   18.07361221  240.30200195    0.05000000    0.11000000
   18.07694626  223.96400452    0.05000000    0.11000000
   18.07777786  224.88600159    0.05000000    0.11000000
   18.08055687  229.08500671    0.05000000    0.11000000
   18.08361244  234.04600525    0.05000000    0.11000000
   18.08694458  241.01100159    0.05000000    0.11000000
   18.09000015  231.39700317    0.05000000    0.11000000
   18.09333420  241.68099976    0.05000000    0.11000000
   18.09666824  229.02699280    0.05000000    0.11000000
   18.10277748  229.02699280    0.05000000    0.11000000
   18.10666656  235.73199463    0.05000000    0.11000000
   18.11000061  217.39999390    0.05000000    0.11000000
   18.11111069  232.16200256    0.05000000    0.11000000
   18.11388969  240.82099915    0.05000000    0.11000000
   18.11694527  236.84599304    0.05000000    0.11000000
   18.12027740  231.66799927    0.05000000    0.11000000
   18.12333298  241.29499817    0.05000000    0.11000000
   18.12666702  220.14700317    0.05000000    0.11000000
   18.13000107  228.24200439    0.05000000    0.11000000
   18.13305473  226.87800598    0.05000000    0.11000000
   18.13638878  230.80999756    0.05000000    0.11000000
   18.13972282  235.17300415    0.05000000    0.11000000
   18.14555550  235.17300415    0.05000000    0.11000000
   18.14972115  232.57600403    0.05000000    0.11000000
   18.15277672  224.53300476    0.05000000    0.11000000
   18.15611076  228.10800171    0.05000000    0.11000000
   18.15916634  243.00999451    0.05000000    0.11000000
   18.16250038  214.35299683    0.05000000    0.11000000
   18.16583252  232.52200317    0.05000000    0.11000000
   18.16888809  218.80099487    0.05000000    0.11000000
   18.17222214  198.77299500    0.05000000    0.11000000
   18.17555428  208.16600037    0.05000000    0.11000000
   18.17777634  222.99099731    0.05000000    0.11000000
   18.17916679  222.12899780    0.05000000    0.11000000
   18.18222237  228.11999512    0.05000000    0.11000000
   18.18833160  228.11999512    0.05000000    0.11000000
   18.19249916  210.82400513    0.05000000    0.11000000
   18.19555473  220.72799683    0.05000000    0.11000000
   18.19888878  216.36999512    0.05000000    0.11000000
   18.20222282  218.73100281    0.05000000    0.11000000
   18.20527840  233.45199585    0.05000000    0.11000000
   18.20861244  222.67700195    0.05000000    0.11000000
   18.21111107  210.53199768    0.05000000    0.11000000
   18.21250153  227.37800598    0.05000000    0.11000000
   18.21555710  220.30400085    0.05000000    0.11000000
   18.21888924  231.40600586    0.05000000    0.11000000
   18.22194481  217.36199951    0.05000000    0.11000000
   18.22527885  231.98399353    0.05000000    0.11000000
   18.23111153  231.98399353    0.05000000    0.11000000
   18.23527718  215.85400391    0.05000000    0.11000000
   18.23861122  223.05499268    0.05000000    0.11000000
   18.24166679  214.07099915    0.05000000    0.11000000
   18.24444389  225.51300049    0.05000000    0.11000000
   18.24555588  233.55299377    0.05000000    0.11000000
   18.24861145  218.95100403    0.05000000    0.11000000
   18.25194359  215.64999390    0.05000000    0.11000000
   18.25499916  226.14999390    0.05000000    0.11000000
   18.25833321  190.73699951    0.05000000    0.11000000
   18.26166725  220.48899841    0.05000000    0.11000000
   18.26472282  197.72300720    0.05000000    0.11000000
   18.26805496  220.96699524    0.05000000    0.11000000
   18.27388954  220.96699524    0.05000000    0.11000000
   18.27805519  224.15299988    0.05000000    0.11000000
   18.28138924  213.79200745    0.05000000    0.11000000
   18.28472137  191.35099792    0.05000000    0.11000000
   18.28777695  201.78500366    0.05000000    0.11000000
   18.29111099  222.22500610    0.05000000    0.11000000
   18.29416656  217.58399963    0.05000000    0.11000000
   18.29749870  211.88800049    0.05000000    0.11000000
   18.30083275  192.65699768    0.05000000    0.11000000
   18.30388832  223.88999939    0.05000000    0.11000000
   18.30722237  212.54899597    0.05000000    0.11000000
   18.31055450  211.45599365    0.05000000    0.11000000
   18.31110954  217.99499512    0.05000000    0.11000000
   18.31694603  217.99499512    0.05000000    0.11000000
   18.32111168  205.25199890    0.05000000    0.11000000
   18.32416725  202.26800537    0.05000000    0.11000000
   18.32750130  189.79800415    0.05000000    0.11000000
   18.33055687  197.53300476    0.05000000    0.11000000
   18.33388901  215.98199463    0.05000000    0.11000000
   18.33722305  214.12800598    0.05000000    0.11000000
   18.34055710  200.63400269    0.05000000    0.11000000
   18.34361267  207.84399414    0.05000000    0.11000000
   18.34444427  219.14799500    0.05000000    0.11000000
   18.34749985  211.81399536    0.05000000    0.11000000
   18.35055542  196.39399719    0.05000000    0.11000000
   18.35388947  212.11199951    0.05000000    0.11000000
   18.35972214  212.11199951    0.05000000    0.11000000
   18.36388969  221.05999756    0.05000000    0.11000000
   18.36694527  213.09800720    0.05000000    0.11000000
   18.37027740  223.36300659    0.05000000    0.11000000
   18.37361145  195.98300171    0.05000000    0.11000000
   18.37666702  204.01800537    0.05000000    0.11000000
   18.37777710  192.22000122    0.05000000    0.11000000
   18.38055611  195.23500061    0.05000000    0.11000000
   18.38361168  189.84500122    0.05000000    0.11000000
   18.38694382  210.95899963    0.05000000    0.11000000
   18.39027786  202.82499695    0.05000000    0.11000000
   18.39333344  203.27799988    0.05000000    0.11000000
   18.39666748  212.90899658    0.05000000    0.11000000
   18.40250015  212.90899658    0.05000000    0.11000000
   18.40666580  210.44799805    0.05000000    0.11000000
   18.40999985  203.26400757    0.05000000    0.11000000
   18.41110992  213.99200439    0.05000000    0.11000000
   18.41361046  213.07499695    0.05000000    0.11000000
   18.41694450  215.28300476    0.05000000    0.11000000
   18.42000008  206.00399780    0.05000000    0.11000000
   18.42333221  214.14500427    0.05000000    0.11000000
   18.42638779  212.51699829    0.05000000    0.11000000
   18.42972183  221.78599548    0.05000000    0.11000000
   18.43305397  208.25399780    0.05000000    0.11000000
   18.43610954  217.56900024    0.05000000    0.11000000
   18.43944359  215.91499329    0.05000000    0.11000000
   18.44527626  215.91499329    0.05000000    0.11000000
   18.44944382  210.83399963    0.05000000    0.11000000
   18.45277786  212.32400513    0.05000000    0.11000000
   18.45583344  214.88900757    0.05000000    0.11000000
   18.45916748  240.48800659    0.05000000    0.11000000
   18.46250153  216.00399780    0.05000000    0.11000000
   18.46555710  203.96699524    0.05000000    0.11000000
   18.46888924  213.03799438    0.05000000    0.11000000
   18.47222328  211.29100037    0.05000000    0.11000000
   18.47527885  200.17500305    0.05000000    0.11000000
   18.47777748  212.67700195    0.05000000    0.11000000
   18.47916794  201.42900085    0.05000000    0.11000000
   18.48222351  230.58900452    0.05000000    0.11000000
   18.48833275  230.58900452    0.05000000    0.11000000
   18.49222183  237.64199829    0.05000000    0.11000000
   18.49555588  229.44299316    0.05000000    0.11000000
   18.49888992  218.41200256    0.05000000    0.11000000
   18.50194359  227.96299744    0.05000000    0.11000000
   18.50527763  212.00300598    0.05000000    0.11000000
   18.50861168  211.43299866    0.05000000    0.11000000
   18.51111031  220.22900391    0.05000000    0.11000000
   18.51222229  201.56300354    0.05000000    0.11000000
   18.51527786  219.19200134    0.05000000    0.11000000
   18.51861000  210.17500305    0.05000000    0.11000000
   18.52194405  196.55000305    0.05000000    0.11000000
   18.52499962  214.21800232    0.05000000    0.11000000
   18.53111076  214.21800232    0.05000000    0.11000000
   18.53527641  198.83599854    0.05000000    0.11000000
   18.53833199  199.61999512    0.05000000    0.11000000
   18.54166603  209.48699951    0.05000000    0.11000000
   18.54444313  198.85400391    0.05000000    0.11000000
   18.54527664  212.85899353    0.05000000    0.11000000
   18.54833221  208.43200684    0.05000000    0.11000000
   18.55166626  187.89100647    0.05000000    0.11000000
   18.55499840  211.98699951    0.05000000    0.11000000
   18.55805397  199.87800598    0.05000000    0.11000000
   18.56138802  191.11999512    0.05000000    0.11000000
   18.56444359  189.12800598    0.05000000    0.11000000
   18.56777954  208.17100525    0.05000000    0.11000000
   18.57389069  208.17100525    0.05000000    0.11000000
   18.57805634  196.07000732    0.05000000    0.11000000
   18.58139038  201.27200317    0.05000000    0.11000000
   18.58444595  207.68699646    0.05000000    0.11000000
   18.58777809  197.60400391    0.05000000    0.11000000
   18.59083366  193.95799255    0.05000000    0.11000000
   18.59416771  198.10400391    0.05000000    0.11000000
   18.59749985  221.67700195    0.05000000    0.11000000
   18.60055542  195.60800171    0.05000000    0.11000000
   18.60388947  201.95500183    0.05000000    0.11000000
   18.60722351  198.54400635    0.05000000    0.11000000
   18.61027908  204.49699402    0.05000000    0.11000000
   18.61111069  208.25999451    0.05000000    0.11000000
   18.61666679  208.25999451    0.05000000    0.11000000
   18.62083435  197.85499573    0.05000000    0.11000000
   18.62416649  217.63400269    0.05000000    0.11000000
   18.62722206  214.96499634    0.05000000    0.11000000
   18.63055611  205.06700134    0.05000000    0.11000000
   18.63388824  197.45300293    0.05000000    0.11000000
   18.63694382  191.30299377    0.05000000    0.11000000
   18.64027786  231.28500366    0.05000000    0.11000000
   18.64361191  204.33200073    0.05000000    0.11000000
   18.64444351  198.27000427    0.05000000    0.11000000
   18.64722252  215.28799438    0.05000000    0.11000000
   18.65027809  188.89799500    0.05000000    0.11000000
   18.65361023  194.84300232    0.05000000    0.11000000
   18.65972137  194.84300232    0.05000000    0.11000000
   18.66361046  190.28599548    0.05000000    0.11000000
   18.66694450  182.82400513    0.05000000    0.11000000
   18.67027664  203.22700500    0.05000000    0.11000000
   18.67333221  178.90400696    0.05000000    0.11000000
   18.67666626  195.87899780    0.05000000    0.11000000
   18.67777634  192.97099304    0.05000000    0.11000000
   18.68027687  187.15699768    0.05000000    0.11000000
   18.68333244  189.90499878    0.05000000    0.11000000
   18.68666649  192.36599731    0.05000000    0.11000000
   18.68999863  190.88000488    0.05000000    0.11000000
   18.69305420  189.52299500    0.05000000    0.11000000
   18.69638824  186.99200439    0.05000000    0.11000000
   18.70250130  186.99200439    0.05000000    0.11000000
   18.70666695  194.52000427    0.05000000    0.11000000
   18.70972252  208.18099976    0.05000000    0.11000000
   18.72722244  179.65299988    0.05000000    0.11000000
   18.72972298  185.47999573    0.05000000    0.11000000
   18.73305511  197.23800659    0.05000000    0.11000000
   18.73611069  175.46600342    0.05000000    0.11000000
   18.73944473  194.59700012    0.05000000    0.11000000
   18.74527740  194.59700012    0.05000000    0.11000000
   18.74944496  201.62800598    0.05000000    0.11000000
   18.75277710  197.05499268    0.05000000    0.11000000
   18.75583267  192.17700195    0.05000000    0.11000000
   18.75916672  185.01300049    0.05000000    0.11000000
   18.76027870  185.91900635    0.05000000    0.11000000
   18.76277733  184.61700439    0.05000000    0.11000000
   18.76611137  185.92799377    0.05000000    0.11000000
   18.76916695  204.39399719    0.05000000    0.11000000
   18.77249908  199.61999512    0.05000000    0.11000000
   18.77583313  207.70199585    0.05000000    0.11000000
   18.77888870  180.43600464    0.05000000    0.11000000
   18.78222275  191.39999390    0.05000000    0.11000000
   18.78805542  191.39999390    0.05000000    0.11000000
   18.79222107  175.32600403    0.05000000    0.11000000
   18.79361153  185.25599670    0.05000000    0.11000000
   18.79583359  189.16499329    0.05000000    0.11000000
   18.79916573  188.18400574    0.05000000    0.11000000
   18.80222130  183.96600342    0.05000000    0.11000000
   18.80555534  189.43200684    0.05000000    0.11000000
   18.80888748  184.41600037    0.05000000    0.11000000
   18.81194305  192.44500732    0.05000000    0.11000000
   18.81527710  192.49299622    0.05000000    0.11000000
   18.81833458  182.05599976    0.05000000    0.11000000
   18.82166672  187.86000061    0.05000000    0.11000000
   18.82500076  200.98399353    0.05000000    0.11000000
   18.82694626  208.33599854    0.05000000    0.11000000
   18.83111191  208.33599854    0.05000000    0.11000000
   18.83527756  189.27600098    0.05000000    0.11000000
   18.83861160  193.58599854    0.05000000    0.11000000
   18.84194565  190.93899536    0.05000000    0.11000000
   18.84500122  193.94700623    0.05000000    0.11000000
   18.84833336  211.45300293    0.05000000    0.11000000
   18.85166740  195.59800720    0.05000000    0.11000000
   18.85472298  203.86500549    0.05000000    0.11000000
   18.85805511  193.11500549    0.05000000    0.11000000
   18.86055565  183.20399475    0.05000000    0.11000000
   18.86166763  193.05700684    0.05000000    0.11000000
   18.86499977  216.22599792    0.05000000    0.11000000
   18.86805534  227.64599609    0.05000000    0.11000000
   18.87416649  227.64599609    0.05000000    0.11000000
   18.87833405  198.28999329    0.05000000    0.11000000
   18.88138962  190.68400574    0.05000000    0.11000000
   18.88472176  189.18899536    0.05000000    0.11000000
   18.88777733  204.23500061    0.05000000    0.11000000
   18.89111137  227.74200439    0.05000000    0.11000000
   18.89388847  189.33099365    0.05000000    0.11000000
   18.89472198  207.43699646    0.05000000    0.11000000
   18.89805603  210.76499939    0.05000000    0.11000000
   18.90111160  193.63800049    0.05000000    0.11000000
   18.90444374  181.24899292    0.05000000    0.11000000
   18.90777779  189.01499939    0.05000000    0.11000000
   18.91083336  185.03799438    0.05000000    0.11000000
   18.91694450  185.03799438    0.05000000    0.11000000
   18.92111015  207.39399719    0.05000000    0.11000000
   18.92416573  193.15899658    0.05000000    0.11000000
   18.92722130  204.22399902    0.05000000    0.11000000
   18.92777634  192.39500427    0.05000000    0.11000000
   18.93111038  193.47200012    0.05000000    0.11000000
   18.93416595  196.69500732    0.05000000    0.11000000
   18.93750000  205.93299866    0.05000000    0.11000000
   18.94083214  191.32600403    0.05000000    0.11000000
   18.94388771  199.43400574    0.05000000    0.11000000
   18.94722176  191.53100586    0.05000000    0.11000000
   18.95055580  180.39300537    0.05000000    0.11000000
   18.95361137  193.88499451    0.05000000    0.11000000
   18.95972252  193.88499451    0.05000000    0.11000000
   18.96389008  187.87600708    0.05000000    0.11000000
   18.96722221  191.80799866    0.05000000    0.11000000
   18.97027779  200.34899902    0.05000000    0.11000000
   18.97361183  188.99699402    0.05000000    0.11000000
   18.97694588  190.90100098    0.05000000    0.11000000
   18.98000145  176.75000000    0.05000000    0.11000000
   18.98333359  190.94400024    0.05000000    0.11000000
   18.98638916  189.17700195    0.05000000    0.11000000
   18.98972321  189.00399780    0.05000000    0.11000000
   18.99305534  178.20799255    0.05000000    0.11000000
   18.99472237  186.93299866    0.05000000    0.11000000
   18.99666786  186.28100586    0.05000000    0.11000000
   19.00250053  186.28100586    0.05000000    0.11000000
   19.00666618  187.15800476    0.05000000    0.11000000
   19.01000023  204.23699951    0.05000000    0.11000000
   19.01305580  174.87199402    0.05000000    0.11000000
   19.01638794  172.01499939    0.05000000    0.11000000
   19.01972198  181.94900513    0.05000000    0.11000000
   19.02277756  196.12899780    0.05000000    0.11000000
   19.02611160  186.85600281    0.05000000    0.11000000
   19.02805519  187.16499329    0.05000000    0.11000000
   19.02972221  202.01300049    0.05000000    0.11000000
   19.03305435  173.03599548    0.05000000    0.11000000
   19.03610992  172.69999695    0.05000000    0.11000000
   19.03944397  178.86999512    0.05000000    0.11000000
   19.04555511  178.86999512    0.05000000    0.11000000
   19.04972076  200.44999695    0.05000000    0.11000000
   19.05277634  193.08000183    0.05000000    0.11000000
   19.05611038  213.91900635    0.05000000    0.11000000
   19.05916595  188.72500610    0.05000000    0.11000000
   19.06166649  198.04100037    0.05000000    0.11000000
   19.06305504  202.16499329    0.05000000    0.11000000
   19.06611061  201.89799500    0.05000000    0.11000000
   19.06944466  195.88299561    0.05000000    0.11000000
   19.07277870  192.82499695    0.05000000    0.11000000
   19.07583427  192.26400757    0.05000000    0.11000000
   19.07916832  180.83399963    0.05000000    0.11000000
   19.08222389  195.43499756    0.05000000    0.11000000
   19.08833313  195.43499756    0.05000000    0.11000000
   19.09250069  196.52400208    0.05000000    0.11000000
   19.09500122  195.41099548    0.05000000    0.11000000
   19.09611130  207.25100708    0.05000000    0.11000000
   19.09944534  179.88600159    0.05000000    0.11000000
   19.10250092  202.86000061    0.05000000    0.11000000
   19.10583305  187.60299683    0.05000000    0.11000000
   19.10888863  190.52499390    0.05000000    0.11000000
   19.11222267  196.38099670    0.05000000    0.11000000
   19.11555672  178.86500549    0.05000000    0.11000000
   19.11861038  179.74800110    0.05000000    0.11000000
   19.12194443  181.85800171    0.05000000    0.11000000
   19.12527847  188.76699829    0.05000000    0.11000000
   19.13111115  188.76699829    0.05000000    0.11000000
   19.13527679  172.92300415    0.05000000    0.11000000
   19.13861084  178.77299500    0.05000000    0.11000000
   19.14166641  182.40299988    0.05000000    0.11000000
   19.14500046  184.91000366    0.05000000    0.11000000
   19.14805603  184.26100159    0.05000000    0.11000000
   19.15138817  168.62800598    0.05000000    0.11000000
   19.15472221  179.37600708    0.05000000    0.11000000
   19.15777779  169.35299683    0.05000000    0.11000000
   19.16110992  179.44400024    0.05000000    0.11000000
   19.16194344  186.36500549    0.05000000    0.11000000
   19.16472244  178.90400696    0.05000000    0.11000000
   19.16805458  181.73399353    0.05000000    0.11000000
   19.17388916  181.73399353    0.05000000    0.11000000
   19.17805481  197.50900269    0.05000000    0.11000000
   19.18138885  194.97799683    0.05000000    0.11000000
   19.18444443  195.09199524    0.05000000    0.11000000
   19.18777657  179.37899780    0.05000000    0.11000000
   19.19111061  172.44999695    0.05000000    0.11000000
   19.19416618  180.01400757    0.05000000    0.11000000
   19.19527626  167.07000732    0.05000000    0.11000000
   19.19777679  187.22000122    0.05000000    0.11000000
   19.20111275  199.36599731    0.05000000    0.11000000
   19.20416832  185.98399353    0.05000000    0.11000000
   19.20750046  190.13299561    0.05000000    0.11000000
   19.21083450  189.55299377    0.05000000    0.11000000
   19.21694565  189.55299377    0.05000000    0.11000000
   19.22083473  181.46600342    0.05000000    0.11000000
   19.22416687  177.71200562    0.05000000    0.11000000
   19.22750092  164.39999390    0.05000000    0.11000000
   19.22888947  182.22399902    0.05000000    0.11000000
   19.23111153  173.47700500    0.05000000    0.11000000
   19.23416710  179.58399963    0.05000000    0.11000000
   19.23750114  175.45700073    0.05000000    0.11000000
   19.24083328  174.47599792    0.05000000    0.11000000
   19.24388885  177.49000549    0.05000000    0.11000000
   19.24722290  167.36999512    0.05000000    0.11000000
   19.25027847  191.05700684    0.05000000    0.11000000
   19.25361061  173.30700684    0.05000000    0.11000000
   19.25972176  173.30700684    0.05000000    0.11000000
   19.26388931  167.91700745    0.05000000    0.11000000
   19.26694489  173.88499451    0.05000000    0.11000000
   19.27027702  185.93299866    0.05000000    0.11000000
   19.27361107  178.72999573    0.05000000    0.11000000
   19.27666664  196.01899719    0.05000000    0.11000000
   19.28000069  201.05299377    0.05000000    0.11000000
   19.28305435  159.00100708    0.05000000    0.11000000
   19.28638840  182.69099426    0.05000000    0.11000000
   19.28972244  169.25000000    0.05000000    0.11000000
   19.29277802  196.03599548    0.05000000    0.11000000
   19.29555511  199.95899963    0.05000000    0.11000000
   19.29666710  170.04299927    0.05000000    0.11000000
   19.30249977  170.04299927    0.05000000    0.11000000
   19.30666542  171.38099670    0.05000000    0.11000000
   19.30999947  187.21099854    0.05000000    0.11000000
   19.31305504  176.04600525    0.05000000    0.11000000
   19.31638718  189.11999512    0.05000000    0.11000000
   19.31944466  180.90400696    0.05000000    0.11000000
   19.32277870  177.27299500    0.05000000    0.11000000
   19.32611275  182.19299316    0.05000000    0.11000000
   19.32888985  182.09899902    0.05000000    0.11000000
   19.32972336  179.57600403    0.05000000    0.11000000
   19.33277893  202.70599365    0.05000000    0.11000000
   19.33611107  180.20700073    0.05000000    0.11000000
   19.33944511  172.53500366    0.05000000    0.11000000
   19.34583473  172.53500366    0.05000000    0.11000000
   19.35000038  176.72300720    0.05000000    0.11000000
