    HOUR (UT)   FLARE FACTOR    SKY TESTER    SUN TESTER
   10.90944386   -1.00000000   -1.00000000   -1.00000000
   10.96138859  337.41101074    4.90999985    1.63000000
   10.96527767  299.77499390    4.90999985    1.64999998
   10.97055531  357.82199097    4.90999985    1.64999998
   10.97249985  368.39498901    4.90999985    1.66999996
   10.97388840  396.78298950    4.90999985    1.66999996
   10.97527695  472.42401123    4.90999985    1.66999996
   10.97666645  356.12799072    4.90999985    1.66999996
   10.97805500  310.70700073    4.90999985    1.66999996
   10.97944355  419.64801025    4.90999985    1.66999996
   10.98083305  351.89999390    4.90999985    1.66999996
   10.98222160  377.48901367    4.90999985    1.66999996
   10.98361111  496.93798828    4.90999985    1.66999996
   10.98500061  344.40798950    4.90999985    1.66999996
   10.98638916  388.57199097    4.90999985    1.69000006
   10.98777771  409.27700806    4.90999985    1.69000006
   10.98916721  374.08801270    4.90999985    1.69000006
   10.99055576  360.27600098    4.90999985    1.69000006
   10.99194431  325.55899048    4.90999985    1.69000006
   10.99333382  367.28601074    4.90999985    1.69000006
   10.99472237  386.73699951    4.90999985    1.71000004
   10.99611092  386.77999878    4.90999985    1.71000004
   10.99750042  319.68600464    4.90999985    1.71000004
   10.99888897  368.97399902    4.90999985    1.71000004
   11.00027752  395.07598877    4.90999985    1.71000004
   11.00166702  453.77700806    4.90999985    1.71000004
   11.00305557  451.55200195    4.90999985    1.71000004
   11.00444412  340.04901123    4.90999985    1.71000004
   11.00583363  389.24899292    4.90999985    1.71000004
   11.00722218  384.63800049    4.90999985    1.73000002
   11.00861073  399.61801147    4.90999985    1.71000004
   11.01000023  283.31298828    4.90999985    1.73000002
   11.01138878  346.19601440    4.90999985    1.73000002
   11.01277733  312.28698730    4.90999985    1.73000002
   11.01416683  382.39898682    4.90999985    1.73000002
   11.01555538  344.51699829    4.90999985    1.73000002
   11.01694393  342.59201050    4.90999985    1.73000002
   11.01833344  331.10998535    4.90999985    1.73000002
   11.01972198  297.79199219    4.90999985    1.73000002
   11.02111053  351.77999878    4.90999985    1.75000000
   11.02250004  327.66101074    4.90999985    1.73000002
   11.02388859  317.02899170    4.90999985    1.75000000
   11.02527714  303.39599609    4.90999985    1.75000000
   11.02666664  339.95999146    4.90999985    1.75000000
   11.02805519  297.71798706    4.90999985    1.75000000
   11.02944374  318.07598877    4.90999985    1.75000000
   11.03083324  296.64099121    4.90999985    1.75000000
   11.03222179  352.45199585    4.90999985    1.75000000
   11.03361130  317.02899170    4.90999985    1.76999998
   11.03500080  283.64599609    4.90999985    1.76999998
   11.03638935  366.88900757    4.90999985    1.76999998
   11.03777790  317.10699463    4.90999985    1.76999998
   11.03916740  326.83898926    4.90999985    1.76999998
   11.04055595  265.83200073    4.90999985    1.76999998
   11.04194450  309.17098999    4.90999985    1.78999996
   11.04333401  268.49700928    4.90999985    1.76999998
   11.04472256  276.14801025    4.90999985    1.76999998
   11.04611111  312.27398682    4.90999985    1.76999998
   11.04750061  249.18499756    4.90999985    1.76999998
   11.04750061  299.77499390    4.90999985    1.64999998
   11.04777813  357.82199097    4.90999985    1.64999998
   11.04833412  284.48800659    4.90999985    1.76999998
   11.05138874  325.80398560    4.90999985    1.78999996
   11.05361176  357.48800659    4.90999985    1.78999996
   11.05472279  241.60800171    4.90999985    1.78999996
   11.05500031  284.48800659    4.90999985    1.76999998
   11.05500031  325.80398560    4.90999985    1.78999996
   11.05611134  313.18200684    4.90999985    1.78999996
   11.05805588  318.02801514    4.90999985    1.78999996
   11.05944443  263.85598755    4.90999985    1.78999996
   11.06083393  342.00799561    4.90999985    1.78999996
   11.06222248  300.39199829    4.90999985    1.80999994
   11.06361103  281.50201416    4.90999985    1.80999994
   11.06500053  265.59298706    4.90999985    1.80999994
   11.06638908  289.98001099    4.90999985    1.80999994
   11.06777763  286.87799072    4.90999985    1.80999994
   11.06916618  282.50201416    4.90999985    1.80999994
   11.07055569  277.46301270    4.90999985    1.83000004
   11.07194424  279.28900146    4.90999985    1.83000004
   11.07333374  284.24499512    4.90999985    1.83000004
   11.07472229  309.26000977    4.90999985    1.83000004
   11.07611084  275.57800293    4.90999985    1.83000004
   11.07750034  272.44000244    4.90999985    1.80999994
   11.07888889  256.62200928    4.90999985    1.83000004
   11.08027744  277.66799927    4.90999985    1.83000004
   11.08166695  273.61999512    4.90999985    1.83000004
   11.08305550  235.71699524    4.90999985    1.83000004
   11.08305550  313.18200684    4.90999985    1.78999996
   11.08361053  267.39801025    4.90999985    1.83000004
   11.08694458  252.10299683    4.90999985    1.83000004
   11.09027767  284.51699829    4.90999985    1.85000002
   11.09333324  256.29098511    4.90999985    1.85000002
   11.09666634  221.31500244    4.90999985    1.85000002
   11.10000038  249.43600464    4.90999985    1.86000001
   11.10388947  249.43600464    4.90999985    1.86000001
   11.10805607  270.84698486    4.90999985    1.86000001
   11.11138916  236.94299316    4.90999985    1.86000001
   11.11472225  273.18701172    4.90999985    1.86000001
   11.11694431  219.13200378    4.90999985    1.86000001
   11.11833382  226.68099976    4.90999985    1.86000001
   11.12138939  228.01699829    4.90999985    1.88000000
   11.12472248  233.63200378    4.90999985    1.88000000
   11.12805557  245.58099365    4.90999985    1.88000000
   11.13111115  213.60800171    4.90999985    1.88000000
   11.13444424  209.87399292    4.90999985    1.88000000
   11.13749981  197.61500549    4.90999985    1.88000000
   11.14083290  215.83799744    4.90999985    1.89999998
   11.14694405  215.83799744    4.90999985    1.89999998
   11.15111065  227.11900330    4.90999985    1.91999996
   11.15416622  230.97399902    4.90999985    1.91999996
   11.15749931  221.12800598    4.90999985    1.91999996
   11.16055489  203.28700256    4.90999985    1.91999996
   11.16388893  213.79899597    4.90999985    1.91999996
   11.16722298  222.52000427    4.90999985    1.91999996
   11.17055607  202.52600098    4.90999985    1.94000006
   11.17361164  217.08299255    4.90999985    1.94000006
   11.17694473  208.14199829    4.90999985    1.94000006
   11.18000031  207.35000610    4.90999985    1.94000006
   11.18333340  228.12899780    4.90999985    1.94000006
   11.18388939  213.86799622    4.90999985    1.94000006
   11.18972206  213.86799622    4.90999985    1.96000004
   11.19388866  181.93400574    4.90999985    1.96000004
   11.19694424  212.81599426    4.90999985    1.96000004
   11.20027733  193.09800720    4.90999985    1.96000004
   11.20361137  178.48100281    4.90999985    1.96000004
   11.20666695  178.09300232    4.90999985    1.98000002
   11.21000004  190.78199768    4.90999985    1.98000002
   11.21305561  181.04200745    4.90999985    1.98000002
   11.21638870  194.56599426    4.90999985    1.98000002
   11.21722221  193.35200500    4.90999985    1.98000002
   11.22027779  188.42799377    4.90999985    1.98000002
   11.22333336  174.92199707    4.90999985    1.98000002
   11.22666645  213.34199524    4.90999985    2.00000000
   11.23249912  213.34199524    4.90999985    2.00000000
   11.23666668  186.64100647    4.90999985    2.00000000
   11.24000072  187.11999512    4.90999985    2.00000000
   11.24305534  203.21699524    4.90999985    2.00000000
   11.24638939  175.21099854    4.90999985    2.01999998
   11.24944496  187.56100464    4.90999985    2.01999998
   11.25055599  173.51600647    4.90999985    2.01999998
   11.25333309  185.63000488    4.90999985    2.01999998
   11.25638866  186.86700439    4.90999985    2.01999998
   11.25972176  168.11300659    4.90999985    2.01999998
   11.26277733  193.42599487    4.90999985    2.01999998
   11.26611137  183.39599609    4.90999985    2.03999996
   11.26944447  185.26300049    4.90999985    2.01999998
   11.27527714  185.26300049    4.90999985    2.03999996
   11.27944374  184.70899963    4.90999985    2.03999996
   11.28277779  181.42500305    4.90999985    2.05999994
   11.28388977  222.06799316    4.90999985    2.03999996
   11.28638935  200.55999756    4.90999985    2.05999994
   11.28944492  196.86099243    4.90999985    2.05999994
   11.29277802  238.20799255    4.90999985    2.05999994
   11.29583359  211.52200317    4.90999985    2.05999994
   11.29916668  197.32600403    4.90999985    2.05999994
   11.30249977  196.29499817    4.90999985    2.05999994
   11.30555534  190.58999634    4.90999985    2.07999992
   11.30888939  201.04699707    4.90999985    2.07999992
   11.31222248  223.19400024    4.90999985    2.07999992
   11.31833363  223.19400024    4.90999985    2.07999992
   11.32250023  192.52200317    4.90999985    2.07999992
   11.32555580  230.66799927    4.90999985    2.09999990
   11.32888889  170.07499695    4.90999985    2.07999992
   11.33194447  216.84800720    4.90999985    2.09999990
   11.33527756  184.27799988    4.90999985    2.09999990
   11.33861065  168.79100037    4.90999985    2.09999990
   11.34166622  189.32099915    4.90999985    2.09999990
   11.34499931  171.24400330    4.90999985    2.09999990
   11.34805489  170.97599792    4.90999985    2.09999990
   11.35055637  150.36999512    4.90999985    2.09999990
   11.35194492  169.17100525    4.90999985    2.09999990
   11.35500050  180.82299805    4.90999985    2.11999989
   11.36111164  180.82299805    4.90999985    2.11999989
   11.36527824  168.21800232    4.90999985    2.11999989
   11.36833382  199.37199402    4.90999985    2.11999989
   11.37166691  171.86199951    4.90999985    2.13000011
   11.37500000  150.25199890    4.90999985    2.13000011
   11.37805557  161.53799438    4.90999985    2.11999989
   11.38138866  142.51199341    4.90999985    2.13000011
   11.38388920  140.30400085    4.90999985    2.11999989
   11.38500023  156.27200317    4.90999985    2.13000011
   11.38805580  139.57000732    4.90999985    2.13000011
   11.39138889  146.18099976    4.90999985    2.13000011
   11.39472198  153.36700439    4.90999985    2.13000011
   11.39777756  156.33099365    4.90999985    2.13000011
   11.40388870  156.33099365    4.90999985    2.15000010
   11.40805531  141.04499817    4.90999985    2.15000010
   11.41138840  139.86099243    4.90999985    2.15000010
   11.41444397  140.44500732    4.90999985    2.15000010
   11.41722298  134.87500000    4.90999985    2.15000010
   11.41833401  151.99200439    4.90999985    2.15000010
   11.42138958  150.24899292    4.90999985    2.15000010
   11.42472267  145.88499451    4.90999985    2.15000010
   11.42805576  146.89199829    4.90999985    2.17000008
   11.43111134  149.72999573    4.90999985    2.17000008
   11.43444443  149.32600403    4.90999985    2.17000008
   11.43750000  152.51300049    4.90999985    2.17000008
   11.44083309  148.61300659    4.90999985    2.17000008
   11.44666672  148.61300659    4.90999985    2.17000008
   11.45083332  151.85299683    4.90999985    2.19000006
   11.45416641  153.15199280    4.90999985    2.17000008
   11.45722198  152.46400452    4.90999985    2.19000006
   11.46055508  149.13099670    4.90999985    2.19000006
   11.46388912  149.77999878    4.90999985    2.19000006
   11.46694374  152.01400757    4.90999985    2.19000006
   11.47027779  158.89199829    4.90999985    2.19000006
   11.47361088  155.77200317    4.90999985    2.19000006
   11.47666645  150.14599609    4.90999985    2.19000006
   11.47999954  141.34399414    4.90999985    2.21000004
   11.48305511  155.63499451    4.90999985    2.21000004
   11.48388958  151.23500061    4.90999985    2.21000004
   11.48972225  151.23500061    4.90999985    2.21000004
   11.49388885  137.55400085    4.90999985    2.21000004
   11.49694443  162.95599365    4.90999985    2.21000004
   11.50027752  141.96699524    4.90999985    2.21000004
   11.50333309  146.38200378    4.90999985    2.21000004
   11.50666714  129.21400452    4.90999985    2.23000002
   11.51000023  134.44700623    4.90999985    2.23000002
   11.51305580  143.59199524    4.90999985    2.23000002
   11.51638889  148.05799866    4.90999985    2.23000002
   11.51722240  135.93800354    4.90999985    2.23000002
   11.51999950  141.59199524    4.90999985    2.23000002
   11.52305508  143.02999878    4.90999985    2.23000002
   11.52638817  143.87899780    4.90999985    2.23000002
   11.53249931  143.87899780    4.90999985    2.23000002
   11.53666687  163.75100708    4.90999985    2.23000002
   11.53972244  154.35699463    4.90999985    2.25000000
   11.54305553  139.10000610    4.90999985    2.25000000
   11.54638958  148.22099304    4.90999985    2.25000000
   11.54944515  150.69700623    4.90999985    2.25000000
   11.55055618  152.63999939    4.90999985    2.25000000
   11.55333328  130.29499817    4.90999985    2.25000000
   11.55638885  155.29499817    4.90999985    2.25000000
   11.55972195  152.34399414    4.90999985    2.25000000
   11.56305599  144.67300415    4.90999985    2.25000000
   11.56611156  137.98100281    4.90999985    2.26999998
   11.56944466  147.76100159    4.90999985    2.26999998
   11.57527733  147.76100159    4.90999985    2.26999998
   11.57944393  143.17399597    4.90999985    2.26999998
   11.58277798  135.23399353    4.90999985    2.26999998
   11.58388901  138.73199463    4.90999985    2.26999998
   11.58638859  134.23500061    4.90999985    2.26999998
   11.58944416  140.11900330    4.90999985    2.26999998
   11.59277725  146.81399536    4.90999985    2.26999998
   11.59611034  152.15699768    4.90999985    2.26999998
   11.59916592  138.39100647    4.90999985    2.26999998
   11.60249996  151.46099854    4.90999985    2.28999996
   11.60555553  133.06300354    4.90999985    2.28999996
   11.60888958  141.11199951    4.90999985    2.28999996
   11.61222267  138.17300415    4.90999985    2.28999996
   11.61805534  138.17300415    4.90999985    2.28999996
   11.62222195  138.96400452    4.90999985    2.28999996
   11.62555599  135.51600647    4.90999985    2.28999996
   11.62861156  152.36300659    4.90999985    2.28999996
   11.63194466  141.61000061    4.90999985    2.28999996
   11.63527775  131.42700195    4.90999985    2.30999994
   11.63833332  147.39399719    4.90999985    2.28999996
   11.64166641  134.68200684    4.90999985    2.30999994
   11.64472198  137.03399658    4.90999985    2.30999994
   11.64805508  140.89599609    4.90999985    2.30999994
   11.65055561  139.75799561    4.90999985    2.30999994
   11.65166664  142.49400330    4.90999985    2.30999994
   11.65472221  150.46899414    4.90999985    2.30999994
   11.66111088  150.46899414    4.90999985    2.30999994
   11.66499996  155.57600403    4.90999985    2.30999994
   11.66833401  135.48100281    4.90999985    2.30999994
   11.67166710  138.71499634    4.90999985    2.32999992
   11.67472267  133.22200012    4.90999985    2.30999994
   11.67805576  135.67500305    4.90999985    2.32999992
   11.68111134  141.20399475    4.90999985    2.32999992
   11.68388939  139.57200623    4.90999985    2.32999992
   11.68500042  136.54400635    4.90999985    2.32999992
   11.68805599  136.97399902    4.90999985    2.32999992
   11.69138908  135.68099976    4.90999985    2.32999992
   11.69472218  143.63699341    4.90999985    2.32999992
   11.69777775  142.05099487    4.90999985    2.32999992
   11.70388889  142.05099487    4.90999985    2.32999992
   11.70805550  137.75799561    4.90999985    2.32999992
   11.71111107  139.17399597    4.90999985    2.34999990
   11.71444416  148.41799927    4.90999985    2.34999990
   11.71722221  185.04899597    4.90999985    2.34999990
   11.71805477  172.09599304    4.90999985    2.34999990
   11.72111034  146.99899292    4.90999985    2.34999990
   11.72444439  149.27600098    4.90999985    2.34999990
   11.72777748  149.02000427    4.90999985    2.34999990
   11.73083305  168.92500305    4.90999985    2.34999990
   11.73416710  153.16900635    4.90999985    2.34999990
   11.73722267  134.56500244    4.90999985    2.34999990
   11.74055576  149.82200623    4.90999985    2.34999990
   11.74666691  149.82200623    4.90999985    2.34999990
   11.75083351  146.78999329    4.90999985    2.34999990
   11.75388908  146.46299744    4.90999985    2.36999989
   11.75722218  155.14999390    4.90999985    2.36999989
   11.76055527  155.58700562    4.90999985    2.36999989
   11.76361084  150.20199585    4.90999985    2.36999989
   11.76694393  146.45799255    4.90999985    2.36999989
   11.77027798  141.98300171    4.90999985    2.36999989
   11.77333355  141.14199829    4.90999985    2.36999989
   11.77666664  148.10499573    4.90999985    2.36999989
   11.77972221  140.95799255    4.90999985    2.36999989
   11.78305531  138.88099670    4.90999985    2.39000010
   11.78388977  137.12699890    4.90999985    2.39000010
   11.78944492  137.12699890    4.90999985    2.39000010
   11.79361153  128.46800232    4.90999985    2.39000010
   11.79694462  134.40199280    4.90999985    2.39000010
   11.80000019  135.63800049    4.90999985    2.39000010
   11.80333328  133.61500549    4.90999985    2.39000010
   11.80666733  145.30200195    4.90999985    2.39000010
   11.80972195  153.79400635    4.90999985    2.39000010
   11.81305599  148.25999451    4.90999985    2.39000010
   11.81611156  139.25199890    4.90999985    2.39000010
   11.81722260  144.94500732    4.90999985    2.39000010
   11.81999969  142.51199341    4.90999985    2.39000010
   11.82305527  132.58900452    4.90999985    2.39000010
   11.82638836  140.80499268    4.90999985    2.40000010
   11.83249950  140.80499268    4.90999985    2.39000010
   11.83638859  144.00900269    4.90999985    2.40000010
   11.83972168  123.36299896    4.90999985    2.40000010
   11.84305477  133.82499695    4.90999985    2.40000010
   11.84611034  132.76800537    4.90999985    2.40000010
   11.84944439  145.03199768    4.90999985    2.40000010
   11.85055637  136.93099976    4.90999985    2.40000010
   11.85305595  154.18899536    4.90999985    2.40000010
   11.85611153  127.52300262    4.90999985    2.40000010
   11.85944462  132.51300049    4.90999985    2.40000010
   11.86277771  130.35800171    4.90999985    2.40000010
   11.86583328  128.20199585    4.90999985    2.42000008
   11.86916637  138.67999268    4.90999985    2.40000010
   11.87527752  138.67999268    4.90999985    2.40000010
   11.87944412  130.44299316    4.90999985    2.42000008
   11.88249969  134.45100403    4.90999985    2.42000008
   11.88388920  135.89900208    4.90999985    2.42000008
   11.88611126  152.86000061    4.90999985    2.42000008
   11.88916683  137.49899292    4.90999985    2.42000008
   11.89249992  132.25900269    4.90999985    2.42000008
   11.89583302  145.06300354    4.90999985    2.42000008
   11.89888859  141.26499939    4.90999985    2.42000008
   11.90222168  153.87500000    4.90999985    2.44000006
   11.90555477  134.41999817    4.90999985    2.42000008
   11.90861034  133.95899963    4.90999985    2.42000008
   11.91194439  141.08099365    4.90999985    2.42000008
   11.91805553  141.08099365    4.90999985    2.44000006
   11.92222214  150.19200134    4.90999985    2.42000008
   11.92555618  153.95500183    4.90999985    2.44000006
   11.92861176  153.95500183    4.90999985    2.44000006
   11.93194485  127.89399719    4.90999985    2.44000006
   11.93527794  136.36599731    4.90999985    2.44000006
   11.93833351  145.55799866    4.90999985    2.44000006
   11.94166660  140.69700623    4.90999985    2.44000006
   11.94499969  134.44000244    4.90999985    2.44000006
   11.94805527  138.72700500    4.90999985    2.44000006
   11.95055580  132.42599487    4.90999985    2.44000006
   11.95166683  131.49000549    4.90999985    2.46000004
   11.95472240  121.64800262    4.90999985    2.46000004
   11.96083355  121.64800262    4.90999985    2.46000004
   11.97944355  131.73300171    4.90999985    2.46000004
   11.98249912  126.58999634    4.90999985    2.46000004
   11.98388958  130.24699402    4.90999985    2.46000004
   11.98611164  143.96899414    4.90999985    2.46000004
   11.98944473  135.26699829    4.90999985    2.46000004
   11.99250031  130.24299622    4.90999985    2.46000004
   11.99583340  132.55999756    4.90999985    2.46000004
   11.99916649  130.55700684    4.90999985    2.46000004
   12.00388908  130.55700684    4.90999985    2.46000004
   12.00805569  135.85899353    4.90999985    2.46000004
   12.01138878  131.68600464    4.90999985    2.46000004
   12.01472187  134.92399597    4.90999985    2.46000004
   12.01722240  127.12400055    4.90999985    2.46000004
   12.01833344  126.35199738    4.90999985    2.48000002
   12.02166653  118.26200104    4.90999985    2.48000002
   12.02472210  124.13600159    4.90999985    2.46000004
   12.02805519  119.27799988    4.90999985    2.46000004
   12.03138828  123.30100250    4.90999985    2.48000002
   12.03444481  122.12999725    4.90999985    2.48000002
   12.03777790  134.22900391    4.90999985    2.48000002
   12.04083347  131.86999512    4.90999985    2.48000002
   12.04694462  131.86999512    4.90999985    2.48000002
   12.05111122  135.52299500    4.90999985    2.48000002
   12.05416679  125.15799713    4.90999985    2.48000002
   12.05749989  193.45300293    4.90999985    2.48000002
   12.06055546  233.28500366    4.90999985    2.48000002
   12.06388950  296.74700928    4.90999985    2.48000002
   12.06722260  201.48500061    4.90999985    2.50000000
   12.07027817  240.64900208    4.90999985    2.50000000
   12.07361126  242.95399475    4.90999985    2.48000002
   12.07694435  248.50599670    4.90999985    2.48000002
   12.07999992  226.18499756    4.90999985    2.50000000
   12.08333302  219.94900513    4.90999985    2.50000000
   12.08416653  242.73199463    4.90999985    2.50000000
   12.08972168  242.73199463    4.90999985    2.48000002
   12.09388828  273.95001221    4.90999985    2.50000000
   12.09694386  221.01199341    4.90999985    2.50000000
   12.10027790  213.12699890    4.90999985    2.50000000
   12.10361195  288.09799194    4.90999985    2.50000000
   12.10666752  246.09300232    4.90999985    2.51999998
   12.11000061  241.28500366    4.90999985    2.50000000
   12.11333370  233.73599243    4.90999985    2.51999998
   12.11638927  211.81100464    4.90999985    2.50000000
   12.11750031  231.56399536    4.90999985    2.51999998
   12.11999989  216.53100586    4.90999985    2.50000000
   12.12333393  231.48800659    4.90999985    2.50000000
   12.12638855  233.23899841    4.90999985    2.50000000
   12.13249969  233.23899841    4.90999985    2.50000000
   12.13666630  234.95899963    4.90999985    2.51999998
   12.14000034  252.27400208    4.90999985    2.50000000
   12.14305496  234.95399475    4.90999985    2.51999998
   12.14638901  226.76300049    4.90999985    2.51999998
   12.14972210  262.66699219    4.90999985    2.51999998
   12.15083313  253.55000305    4.90999985    2.51999998
   12.15305519  221.23500061    4.90999985    2.51999998
   12.15638828  241.08200073    4.90999985    2.51999998
   12.15944386  217.68400574    4.90999985    2.51999998
   12.16277695  224.00300598    4.90999985    2.51999998
   12.16611099  190.66999817    4.90999985    2.51999998
   12.16916656  235.37100220    4.90999985    2.51999998
   12.17555618  235.37100220    4.90999985    2.51999998
   12.17944431  198.36300659    4.90999985    2.51999998
   12.18277836  200.71699524    4.90999985    2.53999996
   12.18416691  230.61999512    4.90999985    2.53999996
   12.18638897  235.83299255    4.90999985    2.53999996
   12.18972206  219.13299561    4.90999985    2.53999996
   12.19277763  187.17999268    4.90999985    2.53999996
   12.19611073  203.08799744    4.90999985    2.53999996
   12.19944477  226.33000183    4.90999985    2.53999996
   12.20277786  216.80700684    4.90999985    2.53999996
   12.20583344  219.36599731    4.90999985    2.53999996
   12.20916653  214.88900757    4.90999985    2.53999996
   12.21222210  220.93499756    4.90999985    2.53999996
   12.21833324  220.93499756    4.90999985    2.53999996
   12.22277737  217.57499695    4.90999985    2.53999996
   12.22583294  140.92300415    4.90999985    2.53999996
   12.22916603  196.03700256    4.90999985    2.55999994
   12.23249912  185.09700012    4.90999985    2.53999996
   12.23555565  200.72799683    4.90999985    2.53999996
   12.23888874  179.67300415    4.90999985    2.53999996
   12.24194431  196.10600281    4.90999985    2.53999996
   12.24527836  173.46600342    4.90999985    2.53999996
   12.24861145  212.23399353    4.90999985    2.55999994
   12.25083351  184.02499390    4.90999985    2.53999996
   12.25222206  200.20100403    4.90999985    2.55999994
   12.25555515  182.41099548    4.90999985    2.55999994
   12.26111126  182.41099548    4.90999985    2.53999996
   12.26527786  210.38200378    4.90999985    2.55999994
   12.26833344  157.81100464    4.90999985    2.55999994
   12.27166653  158.46099854    4.90999985    2.55999994
   12.27499962  162.36500549    4.90999985    2.55999994
   12.27805519  171.36000061    4.90999985    2.55999994
   12.28138828  173.89799500    4.90999985    2.55999994
   12.28416729  156.22900391    4.90999985    2.55999994
   12.28500080  155.74099731    4.90999985    2.55999994
   12.28833389  133.78500366    4.90999985    2.55999994
   12.29138947  202.43699646    4.90999985    2.55999994
   12.29472256  187.01899719    4.90999985    2.55999994
   12.29805565  175.51100159    4.90999985    2.57999992
   12.30388927  175.51100159    4.90999985    2.55999994
   12.30805588  152.15100098    4.90999985    2.55999994
   12.31138897  180.95399475    4.90999985    2.55999994
   12.31444454  141.78100586    4.90999985    2.57999992
   12.31750011  166.89799500    4.90999985    2.55999994
   12.31805515  150.88600159    4.90999985    2.55999994
   12.32138920  136.72900391    4.90999985    2.55999994
   12.32444477  175.08900452    4.90999985    2.55999994
   12.32777786  141.89999390    4.90999985    2.55999994
   12.33111095  145.08200073    4.90999985    2.57999992
   12.33416653  153.85699463    4.90999985    2.57999992
   12.33749962  140.89199829    4.90999985    2.57999992
   12.34083271  162.35299683    4.90999985    2.57999992
   12.34694386  162.35299683    4.90999985    2.57999992
   12.35083389  165.23899841    4.90999985    2.57999992
   12.35416698  139.14199829    4.90999985    2.57999992
   12.35750008  150.20899963    4.90999985    2.57999992
   12.36055565  127.60900116    4.90999985    2.55999994
   12.36388969  156.09800720    4.90999985    2.57999992
   12.36722279  160.04699707    4.90999985    2.57999992
   12.37027836  136.29800415    4.90999985    2.59999990
   12.37361145  128.35800171    4.90999985    2.57999992
   12.37666702  134.29699707    4.90999985    2.57999992
   12.38000011  137.30200195    4.90999985    2.57999992
   12.38333321  132.15499878    4.90999985    2.57999992
   12.38416672  120.00099945    4.90999985    2.57999992
   12.38972187  120.00099945    4.90999985    2.57999992
   12.39388847  118.94200134    4.90999985    2.57999992
   12.39694405  130.96499634    4.90999985    2.57999992
   12.40027714  127.45700073    4.90999985    2.57999992
   12.40333271  119.80400085    4.90999985    2.57999992
   12.40666676  128.78300476    4.90999985    2.57999992
   12.40999985  125.97000122    4.90999985    2.57999992
   12.41305542  124.18399811    4.90999985    2.57999992
   12.41638851  123.70099640    4.90999985    2.59999990
   12.41750050  152.26800537    4.90999985    2.59999990
   12.42000008  124.05300140    4.90999985    2.57999992
   12.42333412  129.56900024    4.90999985    2.57999992
   12.42666721  139.55099487    4.90999985    2.59999990
   12.43249989  139.55099487    4.90999985    2.59999990
   12.43666649  133.94400024    4.90999985    2.59999990
   12.43972206  130.62300110    4.90999985    2.59999990
   12.44305515  145.81700134    4.90999985    2.57999992
   12.44638920  134.14199829    4.90999985    2.57999992
   12.44944477  132.53500366    4.90999985    2.59999990
   12.45083332  127.59500122    4.90999985    2.59999990
   12.45305538  136.09100342    4.90999985    2.59999990
   12.45638847  136.10099792    4.90999985    2.59999990
   12.45972157  139.05000305    4.90999985    2.59999990
   12.46277714  121.11699677    4.90999985    2.59999990
   12.46611118  126.50900269    4.90999985    2.59999990
   12.46916580  127.39099884    4.90999985    2.59999990
   12.47527695  127.39099884    4.90999985    2.59999990
   12.47944355  137.13900757    4.90999985    2.59999990
   12.48277760  148.19400024    4.90999985    2.59999990
   12.48416710  150.38200378    4.90999985    2.59999990
   12.48611164  187.38099670    4.90999985    2.61999989
   12.48944473  171.21699524    4.90999985    2.59999990
   12.49277782  161.05799866    4.90999985    2.59999990
   12.49583340  145.20799255    4.90999985    2.61999989
   12.49916649  135.10499573    4.90999985    2.59999990
   12.50222206  139.27299500    4.90999985    2.61999989
   12.50555515  153.20199585    4.90999985    2.61999989
   12.50888920  143.93699646    4.90999985    2.61999989
   12.51194477  153.88200378    4.90999985    2.61999989
   12.51833344  153.88200378    4.90999985    2.61999989
   12.52222157  146.27200317    4.90999985    2.61999989
   12.52555561  123.94100189    4.90999985    2.61999989
   12.52888870  136.23100281    4.90999985    2.61999989
   12.53194427  136.36399841    4.90999985    2.61999989
   12.53527832  141.88499451    4.90999985    2.61999989
   12.53861141  132.16400146    4.90999985    2.61999989
   12.54166698  139.50000000    4.90999985    2.61999989
   12.54500008  134.99000549    4.90999985    2.61999989
   12.54833412  150.94500732    4.90999985    2.64000010
   12.55083370  139.06199646    4.90999985    2.61999989
   12.55166721  127.87200165    4.90999985    2.61999989
   12.55500031  134.48199463    4.90999985    2.61999989
   12.56111145  134.48199463    4.90999985    2.61999989
   12.56527805  128.77600098    4.90999985    2.64000010
   12.56833363  138.17199707    4.90999985    2.64000010
   12.57166672  131.13099670    4.90999985    2.61999989
   12.57499981  140.33399963    4.90999985    2.64000010
   12.57805538  128.97500610    4.90999985    2.64000010
   12.58138847  132.16700745    4.90999985    2.64000010
   12.58416653  136.57800293    4.90999985    2.64000010
   12.58500004  130.72599792    4.90999985    2.61999989
   12.58833313  136.55499268    4.90999985    2.61999989
   12.59166622  152.23800659    4.90999985    2.61999989
   12.59472179  153.36799622    4.90999985    2.64000010
   12.59805489  133.83200073    4.90999985    2.64000010
   12.60388947  133.83200073    4.90999985    2.61999989
   12.60805607  138.66499329    4.90999985    2.61999989
   12.61111164  128.86199951    4.90999985    2.61999989
   12.61444473  125.61100006    4.90999985    2.64000010
   12.61750031  131.75100708    4.90999985    2.64000010
   12.61805534  120.39800262    4.90999985    2.64000010
   12.62138939  134.27200317    4.90999985    2.64000010
   12.62472248  128.03399658    4.90999985    2.64000010
   12.62805557  135.30999756    4.90999985    2.64000010
   12.63111115  130.52400208    4.90999985    2.64000010
   12.63444424  123.35199738    4.90999985    2.64000010
   12.63749981  148.11999512    4.90999985    2.64000010
   12.64083290  132.62399292    4.90999985    2.64000010
   12.64666653  132.62399292    4.90999985    2.64000010
   12.65083313  135.80299377    4.90999985    2.64000010
   12.65416622  146.05900574    4.90999985    2.64000010
   12.65722179  135.17199707    4.90999985    2.64000010
   12.66055489  136.00399780    4.90999985    2.64000010
   12.66388893  131.56799316    4.90999985    2.64000010
   12.66694450  136.55900574    4.90999985    2.64000010
   12.67027855  134.69700623    4.90999985    2.64000010
   12.67333412  141.72200012    4.90999985    2.64000010
   12.67666721  135.62699890    4.90999985    2.64000010
   12.68000031  146.02699280    4.90999985    2.64000010
   12.68305588  134.60699463    4.90999985    2.64000010
   12.68416691  130.68600464    4.90999985    2.64000010
   12.68944454  130.68600464    4.90999985    2.64000010
   12.69361115  137.81799316    4.90999985    2.66000009
   12.69694424  142.39500427    4.90999985    2.64000010
   12.70027733  157.36799622    4.90999985    2.66000009
   12.70333290  139.19900513    4.90999985    2.66000009
   12.70666695  150.97599792    4.90999985    2.66000009
   12.71000004  127.49400330    4.90999985    2.66000009
   12.71305561  142.14199829    4.90999985    2.67000008
   12.71638870  178.28100586    4.90999985    2.66000009
   12.71749973  137.17199707    4.90999985    2.66000009
   12.71972179  147.92199707    4.90999985    2.66000009
   12.72305489  173.66700745    4.90999985    2.66000009
   12.72638798  176.25300598    4.90999985    2.66000009
   12.73249912  176.25300598    4.90999985    2.64000010
   12.73666668  165.20899963    4.90999985    2.66000009
   12.73972225  153.52600098    4.90999985    2.66000009
   12.74305534  182.16999817    4.90999985    2.66000009
   12.74611092  177.01100159    4.90999985    2.66000009
   12.74944496  189.87500000    4.90999985    2.66000009
   12.75083351  196.36000061    4.90999985    2.66000009
   12.75305557  195.75100708    4.90999985    2.66000009
   12.75638866  188.58999634    4.90999985    2.66000009
   12.75972176  206.09199524    4.90999985    2.67000008
   12.76277733  211.61300659    4.90999985    2.66000009
   12.76611137  241.72000122    4.90999985    2.66000009
   12.76944447  211.03100586    4.90999985    2.66000009
   12.77527714  211.03100586    4.90999985    2.66000009
   12.77944374  282.66101074    4.90999985    2.66000009
   12.78249931  344.15600586    4.90999985    2.66000009
   12.78472233  334.09298706    4.90999985    2.66000009
   12.78583336  318.40200806    4.90999985    2.66000009
   12.78722286  386.11499023    4.90999985    2.66000009
   12.78861141  388.48699951    4.90999985    2.66000009
   12.79000092  432.66799927    4.90999985    2.66000009
   12.79138947  426.93499756    4.90999985    2.66000009
   12.79277802  452.17098999    4.90999985    2.66000009
   12.79416752  412.92898560    4.90999985    2.66000009
   12.79555607  482.15200806    4.90999985    2.66000009
   12.79694462  525.29797363    4.90999985    2.67000008
   12.79833412  459.24398804    4.90999985    2.67000008
   12.79972267  447.77700806    4.90999985    2.66000009
   12.80111122  406.10800171    4.90999985    2.67000008
   12.80249977  426.21899414    4.90999985    2.67000008
   12.80388927  388.73498535    4.90999985    2.67000008
   12.80527782  389.87799072    4.90999985    2.66000009
   12.80666733  431.29901123    4.90999985    2.66000009
   12.80805588  373.67199707    4.90999985    2.66000009
   12.80944443  390.50201416    4.90999985    2.66000009
   12.81083393  413.32998657    4.90999985    2.66000009
   12.81222248  420.55700684    4.90999985    2.67000008
   12.81361103  386.67800903    4.90999985    2.67000008
   12.81500053  421.50399780    4.90999985    2.66000009
   12.81638908  435.26901245    4.90999985    2.67000008
   12.81777763  444.39801025    4.90999985    2.66000009
   12.81916618  455.14001465    4.90999985    2.66000009
   12.82055569  455.07400513    4.90999985    2.66000009
   12.82194424  498.03601074    4.90999985    2.66000009
   12.82333374  488.29800415    4.90999985    2.66000009
   12.82472229  597.81201172    4.90999985    2.67000008
   12.82611084  575.66101074    4.90999985    2.66000009
   12.82750034  593.98699951    4.90999985    2.66000009
   12.82888889  540.92797852    4.90999985    2.67000008
   12.83027744  591.75701904    4.90999985    2.67000008
   12.83166695  693.30902100    4.90999985    2.67000008
   12.83305550  613.14398193    4.90999985    2.67000008
   12.83444405  612.11602783    4.90999985    2.67000008
   12.83583260  615.21099854    4.90999985    2.66000009
   12.83722210  601.73999023    4.90999985    2.67000008
   12.83861065  509.59799194    4.90999985    2.66000009
   12.84000015  619.18103027    4.90999985    2.67000008
   12.84138870  558.39202881    4.90999985    2.66000009
   12.84277725  528.17498779    4.90999985    2.66000009
   12.84416676  580.14599609    4.90999985    2.67000008
   12.84555531  570.30902100    4.90999985    2.67000008
   12.84694386  533.84301758    4.90999985    2.66000009
   12.84833336  522.92602539    4.90999985    2.67000008
   12.84972191  454.79501343    4.90999985    2.66000009
   12.85111141  528.75299072    4.90999985    2.66000009
   12.85249996  511.38699341    4.90999985    2.66000009
   12.85388947  518.09002686    4.90999985    2.67000008
   12.85527802  422.24700928    4.90999985    2.67000008
   12.85666752  495.02301025    4.90999985    2.67000008
   12.85805607  460.25698853    4.90999985    2.67000008
   12.85944462  391.15798950    4.90999985    2.67000008
   12.86083412  393.36801147    4.90999985    2.67000008
   12.86222267  492.24301147    4.90999985    2.67000008
   12.86361122  477.87200928    4.90999985    2.69000006
   12.86500072  469.83300781    4.90999985    2.67000008
   12.86638927  488.26501465    4.90999985    2.67000008
   12.86777782  474.85400391    4.90999985    2.67000008
   12.86916637  443.45401001    4.90999985    2.67000008
   12.87055588  427.89001465    4.90999985    2.67000008
   12.87194443  399.38900757    4.90999985    2.67000008
   12.87333393  463.80599976    4.90999985    2.67000008
   12.87472248  382.65200806    4.90999985    2.67000008
   12.87611103  394.35699463    4.90999985    2.67000008
   12.87750053  401.74499512    4.90999985    2.67000008
   12.87888908  402.57299805    4.90999985    2.67000008
   12.88027763  439.52200317    4.90999985    2.67000008
   12.88166714  414.07800293    4.90999985    2.67000008
   12.88305569  416.45098877    4.90999985    2.67000008
   12.88444424  411.79699707    4.90999985    2.67000008
   12.88583279  375.03201294    4.90999985    2.67000008
   12.88722229  440.36700439    4.90999985    2.67000008
   12.88861084  386.21701050    4.90999985    2.67000008
   12.89000034  384.10501099    4.90999985    2.67000008
   12.89138889  418.20300293    4.90999985    2.67000008
   12.89277744  397.03201294    4.90999985    2.67000008
   12.89416695  409.67199707    4.90999985    2.67000008
   12.89555550  403.47000122    4.90999985    2.67000008
   12.89694405  408.64001465    4.90999985    2.67000008
   12.89833355  376.59799194    4.90999985    2.67000008
   12.89972210  430.19000244    4.90999985    2.67000008
   12.90111065  397.45901489    4.90999985    2.67000008
   12.90249920  397.73199463    4.90999985    2.69000006
   12.90388870  388.29199219    4.90999985    2.67000008
   12.90527725  398.46301270    4.90999985    2.67000008
   12.90666676  400.72500610    4.90999985    2.69000006
   12.90805531  374.86599731    4.90999985    2.67000008
   12.90944386  360.57501221    4.90999985    2.67000008
   12.91083336  406.78500366    4.90999985    2.67000008
   12.91222191  370.30700684    4.90999985    2.67000008
   12.91361046  408.42498779    4.90999985    2.67000008
   12.91499996  391.54400635    4.90999985    2.67000008
   12.91638851  383.52200317    4.90999985    2.67000008
   12.91777802  371.28601074    4.90999985    2.67000008
   12.91916656  393.83801270    4.90999985    2.67000008
   12.92055607  394.53500366    4.90999985    2.67000008
   12.92194462  375.60101318    4.90999985    2.67000008
   12.92333412  388.10900879    4.90999985    2.67000008
   12.92472267  377.87298584    4.90999985    2.69000006
   12.92611122  380.02600098    4.90999985    2.67000008
   12.92750072  379.51998901    4.90999985    2.67000008
   12.92888927  367.58099365    4.90999985    2.67000008
   12.93027782  336.28298950    4.90999985    2.67000008
   12.93166733  365.21499634    4.90999985    2.69000006
   12.93305588  394.70999146    4.90999985    2.69000006
   12.93444443  377.50100708    4.90999985    2.67000008
   12.93583298  357.24499512    4.90999985    2.67000008
   12.93722248  358.27099609    4.90999985    2.67000008
   12.93861103  361.29699707    4.90999985    2.67000008
   12.94000053  383.63299561    4.90999985    2.67000008
   12.94138908  346.11099243    4.90999985    2.69000006
   12.94277763  345.75100708    4.90999985    2.69000006
   12.94416714  358.42001343    4.90999985    2.69000006
   12.94555569  375.56399536    4.90999985    2.67000008
   12.94694424  387.31698608    4.90999985    2.69000006
   12.94833374  355.73098755    4.90999985    2.69000006
   12.94972229  348.11700439    4.90999985    2.67000008
   12.95111084  359.20098877    4.90999985    2.69000006
   12.95249939  352.16101074    4.90999985    2.69000006
   12.95388889  336.95700073    4.90999985    2.67000008
   12.95527744  356.43301392    4.90999985    2.69000006
   12.95666695  338.76599121    4.90999985    2.69000006
   12.95805550  355.01901245    4.90999985    2.69000006
   12.95944405  339.18301392    4.90999985    2.69000006
   12.96083355  373.45999146    4.90999985    2.69000006
   12.96222210  316.45098877    4.90999985    2.69000006
   12.96361065  354.75100708    4.90999985    2.67000008
   12.96500015  351.87701416    4.90999985    2.67000008
   12.96638870  346.74700928    4.90999985    2.69000006
   12.96777725  330.09899902    4.90999985    2.69000006
   12.96916580  373.84600830    4.90999985    2.69000006
   12.97055531  353.04199219    4.90999985    2.69000006
   12.97194386  340.17401123    4.90999985    2.69000006
   12.97333336  351.35998535    4.90999985    2.69000006
   12.97472191  357.19198608    4.90999985    2.69000006
   12.97611046  316.12799072    4.90999985    2.69000006
   12.97749996  355.00799561    4.90999985    2.67000008
   12.97888851  311.71200562    4.90999985    2.69000006
   12.98027706  313.37799072    4.90999985    2.69000006
   12.98166656  312.44500732    4.90999985    2.69000006
   12.98305511  331.79998779    4.90999985    2.69000006
   12.98444462  337.89898682    4.90999985    2.69000006
   12.98583317  348.10198975    4.90999985    2.69000006
   12.98722267  330.40200806    4.90999985    2.69000006
   12.98861122  361.59899902    4.90999985    2.69000006
   12.99000072  340.72100830    4.90999985    2.69000006
   12.99138927  343.76400757    4.90999985    2.69000006
   12.99277782  341.70999146    4.90999985    2.69000006
   12.99416733  350.49398804    4.90999985    2.69000006
   12.99555588  343.49600220    4.90999985    2.67000008
   12.99694443  299.75799561    4.90999985    2.67000008
   12.99833393  337.00601196    4.90999985    2.69000006
   12.99972248  339.84399414    4.90999985    2.67000008
   13.00111103  350.48699951    4.90999985    2.69000006
   13.00249958  340.99700928    4.90999985    2.69000006
   13.00388908  325.43798828    4.90999985    2.69000006
   13.00527763  326.01199341    4.90999985    2.69000006
   13.00666714  339.99398804    4.90999985    2.69000006
   13.00805569  321.21099854    4.90999985    2.69000006
   13.00944424  314.01400757    4.90999985    2.69000006
   13.01083374  325.69400024    4.90999985    2.71000004
   13.01222229  326.14401245    4.90999985    2.69000006
   13.01388931  320.29299927    4.90999985    2.69000006
   13.01500034  319.67599487    4.90999985    2.71000004
   13.01638889  331.99200439    4.90999985    2.69000006
   13.01777744  328.84500122    4.90999985    2.69000006
   13.01916599  326.95700073    4.90999985    2.69000006
   13.02055550  320.31600952    4.90999985    2.69000006
   13.02194405  352.80599976    4.90999985    2.69000006
   13.02333355  311.81600952    4.90999985    2.69000006
   13.02472210  325.05899048    4.90999985    2.69000006
   13.02611065  298.95199585    4.90999985    2.69000006
   13.02750015  324.85598755    4.90999985    2.69000006
   13.02888870  339.47399902    4.90999985    2.69000006
   13.03027725  324.36999512    4.90999985    2.69000006
   13.03166676  340.03298950    4.90999985    2.69000006
   13.03305531  298.63900757    4.90999985    2.69000006
   13.03444481  323.81600952    4.90999985    2.69000006
   13.03583336  329.56298828    4.90999985    2.69000006
   13.03722286  297.81600952    4.90999985    2.69000006
   13.03861141  312.28100586    4.90999985    2.69000006
   13.04000092  319.13699341    4.90999985    2.69000006
   13.04138947  307.00000000    4.90999985    2.69000006
   13.04277802  304.38500977    4.90999985    2.69000006
   13.04416752  299.34201050    4.90999985    2.71000004
   13.04555607  297.57598877    4.90999985    2.69000006
   13.04694462  289.81799316    4.90999985    2.69000006
   13.04833412  297.48599243    4.90999985    2.69000006
   13.04972267  308.77801514    4.90999985    2.71000004
   13.05111122  244.79800415    4.90999985    2.69000006
   13.05138874  344.15600586    4.90999985    2.66000009
   13.05138874  189.87500000    4.90999985    2.66000009
   13.05166721  195.75100708    4.90999985    2.66000009
   13.05166721  188.58999634    4.90999985    2.66000009
   13.05166721  206.09199524    4.90999985    2.67000008
   13.05194473  211.61300659    4.90999985    2.66000009
   13.05194473  241.72000122    4.90999985    2.66000009
   13.05194473  211.03100586    4.90999985    2.66000009
   13.05222225  282.66101074    4.90999985    2.66000009
   13.05277824  283.35998535    4.90999985    2.69000006
   13.05583382  290.50299072    4.90999985    2.71000004
   13.05916691  297.94699097    4.90999985    2.69000006
   13.06250000  298.59899902    4.90999985    2.69000006
   13.06555557  310.95001221    4.90999985    2.69000006
   13.06750011  297.58099365    4.90999985    2.71000004
   13.06888866  310.01599121    4.90999985    2.71000004
   13.07027817  301.19400024    4.90999985    2.71000004
   13.07166672  297.88101196    4.90999985    2.69000006
   13.07305527  305.72900391    4.90999985    2.69000006
   13.07444477  306.14898682    4.90999985    2.71000004
   13.07583332  318.90399170    4.90999985    2.69000006
   13.07722187  304.81100464    4.90999985    2.71000004
   13.07861137  310.64300537    4.90999985    2.71000004
   13.07999992  278.68099976    4.90999985    2.71000004
   13.08138847  267.65499878    4.90999985    2.69000006
   13.08277798  311.48498535    4.90999985    2.69000006
   13.08416653  311.58999634    4.90999985    2.71000004
   13.08555508  321.64401245    4.90999985    2.71000004
   13.08694458  312.15600586    4.90999985    2.69000006
   13.08833313  328.49200439    4.90999985    2.69000006
   13.08972168  328.08200073    4.90999985    2.71000004
   13.09111118  314.58999634    4.90999985    2.69000006
   13.09249973  339.74899292    4.90999985    2.69000006
   13.09388828  326.39099121    4.90999985    2.69000006
   13.09527779  339.07598877    4.90999985    2.71000004
   13.09666634  326.17999268    4.90999985    2.69000006
   13.09805489  310.70999146    4.90999985    2.69000006
   13.09944439  340.64898682    4.90999985    2.71000004
   13.10083389  311.73199463    4.90999985    2.71000004
   13.10222244  287.30801392    4.90999985    2.69000006
   13.10361195  312.73901367    4.90999985    2.71000004
   13.10500050  307.80499268    4.90999985    2.71000004
   13.10638905  292.61898804    4.90999985    2.71000004
   13.10777855  297.64099121    4.90999985    2.69000006
   13.10916710  333.60598755    4.90999985    2.69000006
   13.11055565  325.61300659    4.90999985    2.71000004
   13.11194515  330.48800659    4.90999985    2.69000006
   13.11333370  318.05300903    4.90999985    2.71000004
   13.11472225  295.82199097    4.90999985    2.69000006
   13.11611176  317.77801514    4.90999985    2.71000004
   13.11750031  341.67800903    4.90999985    2.71000004
   13.11888885  335.20199585    4.90999985    2.71000004
   13.12027836  332.79199219    4.90999985    2.71000004
   13.12166691  328.33898926    4.90999985    2.71000004
   13.12305546  271.05999756    4.90999985    2.69000006
   13.12444496  269.37298584    4.90999985    2.71000004
   13.12583351  270.38800049    4.90999985    2.71000004
   13.12722206  266.93499756    4.90999985    2.71000004
   13.12861156  275.71701050    4.90999985    2.71000004
   13.13000011  287.97100830    4.90999985    2.71000004
   13.13138866  282.81298828    4.90999985    2.71000004
   13.13277817  286.99099731    4.90999985    2.71000004
   13.13416672  248.49600220    4.90999985    2.71000004
   13.13444424  283.35998535    4.90999985    2.69000006
   13.13444424  290.50299072    4.90999985    2.71000004
   13.13444424  297.94699097    4.90999985    2.69000006
   13.13472176  298.59899902    4.90999985    2.69000006
   13.13472176  310.95001221    4.90999985    2.69000006
   13.13527775  266.76400757    4.90999985    2.71000004
   13.13861084  277.38299561    4.90999985    2.71000004
   13.14166641  281.39700317    4.90999985    2.71000004
   13.14499950  269.73800659    4.90999985    2.69000006
   13.16666698  269.73800659    4.90999985    2.73000002
   13.17083359  257.46499634    4.90999985    2.71000004
   13.17388916  258.64801025    4.90999985    2.69000006
   13.17722225  448.51800537    4.90999985    2.69000006
   13.17916679  458.92599487    4.90999985    2.71000004
   13.18055630  453.12500000    4.90999985    2.71000004
   13.18194485  436.33300781    4.90999985    2.71000004
   13.18333340  460.67498779    4.90999985    2.71000004
   13.18472195  478.24798584    4.90999985    2.71000004
   13.18611145  492.94699097    4.90999985    2.71000004
   13.18750000  494.61401367    4.90999985    2.71000004
   13.18888855  452.73199463    4.90999985    2.71000004
   13.19027805  427.67800903    4.90999985    2.71000004
   13.19166660  426.86300659    4.90999985    2.71000004
   13.19305515  469.96099854    4.90999985    2.71000004
   13.19444466  454.05700684    4.90999985    2.71000004
   13.19583321  540.61999512    4.90999985    2.71000004
   13.19722271  508.44000244    4.90999985    2.71000004
   13.19861126  522.99499512    4.90999985    2.71000004
   13.19999981  502.70300293    4.90999985    2.71000004
   13.20138836  531.44799805    4.90999985    2.71000004
   13.20277786  551.19702148    4.90999985    2.71000004
   13.20416641  575.84301758    4.90999985    2.71000004
   13.20555496  543.92901611    4.90999985    2.71000004
   13.20694447  556.65002441    4.90999985    2.71000004
   13.20833302  578.87500000    4.90999985    2.71000004
   13.20972157  619.03302002    4.90999985    2.71000004
   13.21111107  626.29101563    4.90999985    2.71000004
   13.21249962  632.79302979    4.90999985    2.71000004
   13.21388912  580.79498291    4.90999985    2.71000004
   13.21527767  618.65698242    4.90999985    2.71000004
   13.21666622  609.09002686    4.90999985    2.71000004
   13.21805477  614.93200684    4.90999985    2.73000002
   13.21944427  595.25701904    4.90999985    2.71000004
   13.22083282  625.79797363    4.90999985    2.71000004
   13.22222137  701.59100342    4.90999985    2.71000004
   13.22361088  253.15600586    4.90999985    2.71000004
   13.22499943  245.65299988    4.90999985    2.71000004
   13.22499943  266.76400757    4.90999985    2.71000004
   13.22527695  277.38299561    4.90999985    2.71000004
   13.22527695  281.39700317    4.90999985    2.71000004
   13.22555542  269.73800659    4.90999985    2.69000006
   13.22555542  257.46499634    4.90999985    2.71000004
   13.22555542  258.64801025    4.90999985    2.69000006
   13.22583294  448.51800537    4.90999985    2.69000006
   13.22638798  244.40800476    4.90999985    2.73000002
   13.22944355  252.60499573    4.90999985    2.71000004
   13.23277760  227.07299805    4.90999985    2.71000004
   13.23583317  238.70799255    4.90999985    2.71000004
   13.23916721  236.80999756    4.90999985    2.73000002
   13.24583340  236.80999756    4.90999985    2.71000004
   13.25000000  246.72399902    4.90999985    2.73000002
   13.25333309  231.56300354    4.90999985    2.71000004
   13.25638866  215.53100586    4.90999985    2.73000002
   13.25888920  219.57600403    4.90999985    2.73000002
   13.26027775  226.59800720    4.90999985    2.73000002
   13.26333332  231.66799927    4.90999985    2.73000002
   13.26666641  216.57600403    4.90999985    2.71000004
   13.26999950  220.94000244    4.90999985    2.71000004
   13.27305508  236.76800537    4.90999985    2.71000004
   13.27638817  111.41899872    4.90999985    2.73000002
   13.27944374  114.04100037    4.90999985    2.73000002
   13.28277779  118.88700104    4.90999985    2.71000004
   13.39722252   -1.00000000   -1.00000000   -1.00000000
   13.49694443   -1.00000000   -1.00000000   -1.00000000
   13.60027790   -1.00000000   -1.00000000   -1.00000000
   13.62777805   86.51989746    4.90999985    2.75000000
   13.63111115  171.07699585    4.90999985    2.76999998
   13.63416672  182.86799622    4.90999985    2.75000000
   13.63749981  186.84899902    4.90999985    2.76999998
   13.64055538  187.04200745    4.90999985    2.75000000
   13.64388847  179.52999878    4.90999985    2.75000000
   13.64805508  179.52999878    4.90999985    2.75000000
   13.65222168  188.66000366    4.90999985    2.75000000
   13.65527725  203.14799500    4.90999985    2.76999998
   13.65861034  173.26499939    4.90999985    2.76999998
   13.66111088  171.49899292    4.90999985    2.76999998
   13.66222191  202.92700195    4.90999985    2.76999998
   13.66555500  176.22000122    4.90999985    2.76999998
   13.66861153  188.63999939    4.90999985    2.75000000
   13.67194462  195.36099243    4.90999985    2.75000000
   13.67527771  204.45700073    4.90999985    2.76999998
   13.67833328  188.25999451    4.90999985    2.76999998
   13.68166733  208.33299255    4.90999985    2.76999998
   13.68500042  194.83599854    4.90999985    2.76999998
   13.69083309  194.83599854    4.90999985    2.76999998
   13.69499969  175.42100525    4.90999985    2.76999998
   13.69833374  149.50399780    4.90999985    2.78999996
   13.70138836  182.22500610    4.90999985    2.78999996
   13.70472240  185.47099304    4.90999985    2.76999998
   13.70805550  174.25399780    4.90999985    2.75000000
   13.71111107  190.63600159    4.90999985    2.76999998
   13.71444416  152.16000366    4.90999985    2.76999998
   13.71749973  180.09800720    4.90999985    2.76999998
   13.72083282  138.78199768    4.90999985    2.76999998
   13.72416592  191.46899414    4.90999985    2.76999998
   13.72722149  176.98599243    4.90999985    2.76999998
   13.72777748  151.36199951    4.90999985    2.76999998
   13.73361111  151.36199951    4.90999985    2.76999998
   13.73777771  195.73699951    4.90999985    2.76999998
   13.74111176  177.17199707    4.90999985    2.78999996
   13.74444485  178.74499512    4.90999985    2.76999998
   13.74750042  200.25799561    4.90999985    2.75000000
   13.75083351  188.00199890    4.90999985    2.76999998
   13.75388908  175.84300232    4.90999985    2.76999998
   13.75722218  176.24800110    4.90999985    2.76999998
   13.76055527  207.63999939    4.90999985    2.76999998
   13.76111126  202.78999329    4.90999985    2.76999998
   13.76416683  198.54600525    4.90999985    2.76999998
   13.76749992  169.78799438    4.90999985    2.78999996
   13.77055550  187.80099487    4.90999985    2.76999998
   13.77666664  187.80099487    4.90999985    2.76999998
   13.78083324  191.22799683    4.90999985    2.76999998
   13.78388977  179.60299683    4.90999985    2.76999998
   13.78722286  177.25399780    4.90999985    2.76999998
   13.79027843  200.69400024    4.90999985    2.76999998
   13.79361153  174.24800110    4.90999985    2.78999996
   13.79444504  180.49600220    4.90999985    2.76999998
   13.79722309  154.59700012    4.90999985    2.76999998
   13.80055618  186.89900208    4.90999985    2.78999996
   13.80361176  185.38099670    4.90999985    2.76999998
   13.80694485  196.61599731    4.90999985    2.78999996
   13.81000042  192.39900208    4.90999985    2.76999998
   13.81333351  166.60099792    4.90999985    2.76999998
   13.81944466  166.60099792    4.90999985    2.76999998
   13.82361126  170.43299866    4.90999985    2.76999998
   13.82666683  171.68200684    4.90999985    2.76999998
   13.82777786  182.89700317    4.90999985    2.78999996
   13.83055592  193.31700134    4.90999985    2.76999998
   13.83388901  192.79499817    4.90999985    2.76999998
   13.83694458  190.11000061    4.90999985    2.76999998
   13.84027767  178.78500366    4.90999985    2.78999996
   13.84333324  168.35200500    4.90999985    2.78999996
   13.84666634  183.68200684    4.90999985    2.76999998
   13.85000038  178.08000183    4.90999985    2.76999998
   13.85305595  206.93800354    4.90999985    2.76999998
   13.85638905  182.92999268    4.90999985    2.76999998
   13.86222267  182.92999268    4.90999985    2.78999996
   13.86638927  190.16900635    4.90999985    2.76999998
   13.86972237  190.29899597    4.90999985    2.78999996
   13.87277794  168.81599426    4.90999985    2.78999996
   13.87611103  182.30900574    4.90999985    2.78999996
   13.87944412  173.81500244    4.90999985    2.78999996
   13.88249969  179.75500488    4.90999985    2.78999996
   13.88583279  196.71200562    4.90999985    2.78999996
   13.88888836  186.46200562    4.90999985    2.78999996
   13.89222240  167.42199707    4.90999985    2.76999998
   13.89444447  190.95500183    4.90999985    2.76999998
   13.89583302  179.16499329    4.90999985    2.78999996
   13.89916611  193.84599304    4.90999985    2.76999998
   13.90499973  193.84599304    4.90999985    2.76999998
   13.90916634  190.09100342    4.90999985    2.76999998
   13.91249943  170.71499634    4.90999985    2.76999998
   13.91583252  197.30099487    4.90999985    2.78999996
   13.91888905  185.25900269    4.90999985    2.78999996
   13.92222214  188.87500000    4.90999985    2.76999998
   13.92527771  183.93899536    4.90999985    2.76999998
   13.92777824  161.43899536    4.90999985    2.76999998
   13.92916679  169.06399536    4.90999985    2.78999996
   13.93249989  173.69999695    4.90999985    2.76999998
   13.93555546  175.63600159    4.90999985    2.78999996
   13.93888855  175.15100098    4.90999985    2.76999998
   13.94194412  173.36599731    4.90999985    2.78999996
   13.94805527  173.36599731    4.90999985    2.78999996
   13.95222187  172.11500549    4.90999985    2.78999996
   13.95527744  158.76800537    4.90999985    2.78999996
   13.95861053  181.12100220    4.90999985    2.78999996
   13.96111107  160.61799622    4.90999985    2.76999998
   13.96222210  149.68600464    4.90999985    2.76999998
   13.96555519  150.75100708    4.90999985    2.78999996
   13.96861076  158.05599976    4.90999985    2.78999996
   13.97194386  143.57099915    4.90999985    2.78999996
   13.97499943  156.96299744    4.90999985    2.78999996
   13.97833252  147.30700684    4.90999985    2.78999996
   13.98166656  165.90100098    4.90999985    2.78999996
   13.98472214  153.11799622    4.90999985    2.78999996
   13.99083328  153.11799622    4.90999985    2.78999996
   13.99499989  148.25599670    4.90999985    2.76999998
   13.99805546  156.54299927    4.90999985    2.78999996
   14.00138855  145.97799683    4.90999985    2.78999996
   14.00472260  160.46899414    4.90999985    2.78999996
   14.00777817  156.17100525    4.90999985    2.78999996
   14.01111126  165.74899292    4.90999985    2.78999996
   14.01444435  152.51300049    4.90999985    2.78999996
   14.01749992  146.27299500    4.90999985    2.78999996
   14.02083302  166.52299500    4.90999985    2.78999996
   14.02388859  145.21600342    4.90999985    2.78999996
   14.02722168  161.44599915    4.90999985    2.78999996
   14.02777767  167.83500671    4.90999985    2.78999996
   14.03361130  167.83500671    4.90999985    2.78999996
   14.03777790  147.87600708    4.90999985    2.80999994
   14.04111195  148.81700134    4.90999985    2.78999996
   14.04416752  138.26300049    4.90999985    2.78999996
   14.04750061  161.90899658    4.90999985    2.78999996
   14.05083370  158.75599670    4.90999985    2.78999996
   14.05388927  145.75500488    4.90999985    2.78999996
   14.05722237  153.10000610    4.90999985    2.78999996
   14.06027794  148.31500244    4.90999985    2.78999996
   14.06111145  137.20500183    4.90999985    2.78999996
   14.06388950  151.99699402    4.90999985    2.78999996
   14.06722260  145.30299377    4.90999985    2.76999998
   14.07027817  138.99099731    4.90999985    2.76999998
   14.07638836  138.99099731    4.90999985    2.78999996
   14.08055592  136.87199402    4.90999985    2.78999996
   14.08388901  143.31599426    4.90999985    2.78999996
   14.08722210  151.94500732    4.90999985    2.78999996
   14.09027767  166.47399902    4.90999985    2.78999996
   14.09361076  140.15100098    4.90999985    2.78999996
   14.09444427  144.11399841    4.90999985    2.78999996
   14.09722233  150.92500305    4.90999985    2.80999994
   14.10055637  145.42500305    4.90999985    2.78999996
   14.10361195  160.58099365    4.90999985    2.80999994
   14.10694504  151.92199707    4.90999985    2.78999996
   14.11027813  155.30499268    4.90999985    2.80999994
   14.11333370  168.65199280    4.90999985    2.78999996
   14.11944485  168.65199280    4.90999985    2.80999994
   14.12361145  149.48100281    4.90999985    2.78999996
   14.12666702  172.63800049    4.90999985    2.78999996
   14.12777805  154.21400452    4.90999985    2.78999996
   14.13027763  157.56300354    4.90999985    2.80999994
   14.13361073  136.45199585    4.90999985    2.78999996
   14.13666630  158.09300232    4.90999985    2.80999994
   14.14000034  160.24200439    4.90999985    2.78999996
   14.14333344  134.94500732    4.90999985    2.78999996
   14.14638901  135.87800598    4.90999985    2.78999996
   14.14972210  152.60499573    4.90999985    2.80999994
   14.15277767  145.75399780    4.90999985    2.80999994
   14.15611076  147.86099243    4.90999985    2.80999994
   14.16222191  147.86099243    4.90999985    2.80999994
   14.16638851  162.47300720    4.90999985    2.80999994
   14.16944504  135.59899902    4.90999985    2.80999994
   14.17277813  170.33500671    4.90999985    2.78999996
   14.17611122  154.61900330    4.90999985    2.78999996
   14.17916679  167.98699951    4.90999985    2.78999996
   14.18249989  168.16999817    4.90999985    2.80999994
   14.18583298  150.75700378    4.90999985    2.78999996
   14.18888855  165.53900146    4.90999985    2.78999996
   14.19222260  165.04200745    4.90999985    2.78999996
   14.19444466  167.73500061    4.90999985    2.80999994
   14.19583321  165.26499939    4.90999985    2.80999994
   14.19916630  168.00100708    4.90999985    2.80999994
   14.20499992  168.00100708    4.90999985    2.80999994
   14.20916653  149.35299683    4.90999985    2.80999994
   14.21249962  168.56300354    4.90999985    2.78999996
   14.21555519  164.84899902    4.90999985    2.80999994
   14.21888828  167.76100159    4.90999985    2.82999992
   14.22222137  185.93600464    4.90999985    2.78999996
   14.22527695  144.71600342    4.90999985    2.80999994
   14.22777748  144.52600098    4.90999985    2.80999994
   14.22888851  153.27099609    4.90999985    2.80999994
   14.23222160  168.62199402    4.90999985    2.78999996
   14.23527813  169.77600098    4.90999985    2.80999994
   14.23861122  182.20700073    4.90999985    2.80999994
   14.24194431  151.60200500    4.90999985    2.78999996
   14.24777794  151.60200500    4.90999985    2.80999994
   14.25194454  156.13900757    4.90999985    2.80999994
   14.25527763  167.37100220    4.90999985    2.78999996
   14.25861073  160.42300415    4.90999985    2.80999994
   14.26111126  159.91600037    4.90999985    2.80999994
   14.26222229  151.63800049    4.90999985    2.78999996
   14.26555538  187.80999756    4.90999985    2.78999996
   14.26861095  169.79400635    4.90999985    2.80999994
   14.27194405  169.91700745    4.90999985    2.80999994
   14.27527714  169.43299866    4.90999985    2.80999994
   14.27833271  159.68400574    4.90999985    2.78999996
   14.28166676  151.11000061    4.90999985    2.80999994
   14.28472233  160.08900452    4.90999985    2.80999994
   14.29083347  160.08900452    4.90999985    2.80999994
   14.29500008  147.96899414    4.90999985    2.80999994
   14.29805565  164.36500549    4.90999985    2.80999994
   14.30138874  172.92100525    4.90999985    2.80999994
   14.30444431  165.31500244    4.90999985    2.80999994
   14.30777836  152.63999939    4.90999985    2.80999994
   14.31111145  183.81799316    4.90999985    2.80999994
   14.31416702  160.68800354    4.90999985    2.80999994
   14.31750011  181.15299988    4.90999985    2.80999994
   14.32083321  179.72599792    4.90999985    2.80999994
   14.32388878  174.22700500    4.90999985    2.80999994
   14.32722187  171.86399841    4.90999985    2.82999992
   14.32777786  153.64599609    4.90999985    2.80999994
   14.33361053  153.64599609    4.90999985    2.80999994
   14.33777714  170.18600464    4.90999985    2.80999994
   14.34083271  163.38200378    4.90999985    2.80999994
   14.34416676  177.91499329    4.90999985    2.80999994
   14.34749985  166.11000061    4.90999985    2.82999992
   14.35055637  153.21200562    4.90999985    2.82999992
   14.35388947  154.64199829    4.90999985    2.82999992
   14.35722256  159.00799561    4.90999985    2.82999992
   14.36027813  158.00799561    4.90999985    2.80999994
   14.36111164  177.28900146    4.90999985    2.82999992
   14.36388969  148.68800354    4.90999985    2.80999994
   14.36722279  160.91999817    4.90999985    2.80999994
   14.37027836  146.32600403    4.90999985    2.80999994
   14.37638855  146.32600403    4.90999985    2.80999994
   14.38055611  160.79699707    4.90999985    2.80999994
   14.38388920  149.36599731    4.90999985    2.82999992
   14.38694477  180.54100037    4.90999985    2.82999992
   14.39027786  164.09899902    4.90999985    2.80999994
   14.39361095  150.22000122    4.90999985    2.80999994
   14.39472198  164.41099548    4.90999985    2.82999992
   14.39694405  157.71499634    4.90999985    2.80999994
   14.40027714  147.49200439    4.90999985    2.80999994
   14.40361118  157.94000244    4.90999985    2.80999994
   14.40666676  149.82899475    4.90999985    2.80999994
   14.40999985  155.06900024    4.90999985    2.82999992
   14.41333294  153.92999268    4.90999985    2.82999992
   14.41916656  153.92999268    4.90999985    2.82999992
   14.42333412  148.79499817    4.90999985    2.82999992
   14.42666721  148.31900024    4.90999985    2.82999992
   14.42805576  148.35699463    4.90999985    2.82999992
   14.43027782  143.02000427    4.90999985    2.82999992
   14.43361092  142.47000122    4.90999985    2.80999994
   14.43666649  137.32400513    4.90999985    2.80999994
   14.44000053  147.78100586    4.90999985    2.80999994
   14.44333363  138.67799377    4.90999985    2.80999994
   14.44638920  139.52200317    4.90999985    2.80999994
   14.44972229  144.47900391    4.90999985    2.82999992
   14.45305538  150.71000671    4.90999985    2.82999992
   14.45611095  150.13499451    4.90999985    2.80999994
   14.46222210  150.13499451    4.90999985    2.82999992
   14.46638870  139.57000732    4.90999985    2.82999992
   14.46944427  146.06199646    4.90999985    2.82999992
   14.47277737  145.49499512    4.90999985    2.82999992
   14.47583294  150.82099915    4.90999985    2.80999994
   14.47916603  140.48800659    4.90999985    2.80999994
   14.48249912  144.98500061    4.90999985    2.82999992
   14.48555565  148.86999512    4.90999985    2.80999994
   14.48888874  152.72300720    4.90999985    2.82999992
   14.49222279  150.11799622    4.90999985    2.82999992
   14.49472237  143.37699890    4.90999985    2.82999992
   14.49555588  144.39399719    4.90999985    2.80999994
   14.49888897  144.03199768    4.90999985    2.82999992
   14.50500011  144.03199768    4.90999985    2.80999994
   14.50916672  145.12399292    4.90999985    2.80999994
   14.51249981  147.13299561    4.90999985    2.80999994
   14.51555538  137.59500122    4.90999985    2.82999992
   14.51888847  139.81300354    4.90999985    2.82999992
   14.52194405  135.75500488    4.90999985    2.82999992
   14.52527714  146.94299316    4.90999985    2.82999992
   14.52805519  140.22200012    4.90999985    2.82999992
   14.52888870  137.48599243    4.90999985    2.80999994
   14.53222179   -1.00000000    4.90999985    2.82999992
   14.53527832  150.25300598    4.90999985    2.82999992
   14.53861141  145.09300232    4.90999985    2.82999992
   14.54194450  151.01400757    4.90999985    2.82999992
   14.54777813  151.01400757    4.90999985    2.82999992
   14.55194473  152.97500610    4.90999985    2.82999992
   14.55527782  143.66000366    4.90999985    2.82999992
   14.55833340  150.39599609    4.90999985    2.82999992
   14.56138897  151.33799744    4.90999985    2.82999992
   14.56194496  144.62899780    4.90999985    2.80999994
   14.56527805  149.61999512    4.90999985    2.82999992
   14.56861115  157.52999878    4.90999985    2.82999992
   14.57166672  146.19599915    4.90999985    2.82999992
   14.57499981  146.48899841    4.90999985    2.82999992
   14.57833290  155.88299561    4.90999985    2.82999992
   14.58138847   -1.00000000    4.90999985    2.80999994
   14.58472157  144.66799927    4.90999985    2.82999992
   14.59083271  144.66799927    4.90999985    2.82999992
   14.59472179  141.90100098    4.90999985    2.82999992
   14.59805489  132.85600281    4.90999985    2.84999990
   14.60138893  138.08700562    4.90999985    2.82999992
   14.60444450  133.48199463    4.90999985    2.82999992
   14.60777855  150.39700317    4.90999985    2.82999992
   14.61111164  143.74200439    4.90999985    2.82999992
   14.61416721  137.96899414    4.90999985    2.80999994
   14.61750031  143.96400452    4.90999985    2.84999990
   14.62055588  144.97099304    4.90999985    2.82999992
   14.62388897  136.21000671    4.90999985    2.82999992
   14.62722206  156.99699402    4.90999985    2.82999992
   14.62805557  148.63499451    4.90999985    2.82999992
   14.64861107  148.63499451    4.90999985    2.82999992
   14.65277767  143.75999451    4.90999985    2.82999992
   14.65611076  141.78700256    4.90999985    2.82999992
   14.65916634  142.80400085    4.90999985    2.84999990
   14.66138840  151.62899780    4.90999985    2.82999992
   14.66305542  142.61399841    4.90999985    2.82999992
   14.66611099  145.92199707    4.90999985    2.82999992
   14.66944504  143.84800720    4.90999985    2.82999992
   14.67250061  146.02200317    4.90999985    2.82999992
   14.67583370  166.47900391    4.90999985    2.82999992
   14.67916679  141.47599792    4.90999985    2.82999992
   14.68222237   -1.00000000    4.90999985    2.82999992
   14.68555546  153.84199524    4.90999985    2.82999992
   14.69138908  153.84199524    4.90999985    2.82999992
   14.69555569  144.69299316    4.90999985    2.82999992
   14.69861126  157.25000000    4.90999985    2.84999990
   14.70194435  174.44700623    4.90999985    2.82999992
   14.70527744  147.08599854    4.90999985    2.82999992
   14.70833302  153.16999817    4.90999985    2.82999992
   14.71166611  176.00000000    4.90999985    2.82999992
   14.71500015  176.67799377    4.90999985    2.84999990
   14.71805477  174.28700256    4.90999985    2.84999990
   14.72138882  165.90699768    4.90999985    2.82999992
   14.72444439  186.38900757    4.90999985    2.82999992
   14.72777748  150.88099670    4.90999985    2.82999992
   14.72833252  170.49200439    4.90999985    2.82999992
   14.73833370  180.79699707    4.90999985    2.82999992
   14.74138927  164.53999329    4.90999985    2.84999990
   14.74472237  147.67999268    4.90999985    2.84999990
   14.74805546  154.35699463    4.90999985    2.84999990
   14.75111103  154.14700317    4.90999985    2.84999990
   14.75444412  159.50399780    4.90999985    2.82999992
   14.75749969  155.94000244    4.90999985    2.82999992
   14.76083374  161.24200439    4.90999985    2.82999992
   14.76166630  151.44099426    4.90999985    2.82999992
   14.76444435  158.23899841    4.90999985    2.82999992
   14.76749992  139.81599426    4.90999985    2.82999992
   14.77083302  172.36300659    4.90999985    2.84999990
   14.77694416  172.36300659    4.90999985    2.84999990
   14.78111076   -1.00000000    4.90999985    2.82999992
   14.78444481   -1.00000000    4.90999985    2.84999990
   14.78777790  165.67799377    4.90999985    2.84999990
   14.79083347  176.48199463    4.90999985    2.82999992
   14.79416752  155.10499573    4.90999985    2.82999992
   14.79500008  153.35299683    4.90999985    2.82999992
   14.79777813  165.68499756    4.90999985    2.82999992
   14.80083370  153.67100525    4.90999985    2.82999992
   14.80416679  150.36999512    4.90999985    2.82999992
   14.80749989  157.86900330    4.90999985    2.84999990
   14.81055546  144.10200500    4.90999985    2.84999990
   14.81388950  138.52600098    4.90999985    2.84999990
   14.81999969  138.52600098    4.90999985    2.84999990
   14.82388878  127.77600098    4.90999985    2.82999992
   14.82722187  153.80099487    4.90999985    2.82999992
   14.82833290  140.41499329    4.90999985    2.84999990
   14.83083344   -1.00000000    4.90999985    2.82999992
   14.83388901   -1.00000000    4.90999985    2.82999992
   14.83722210  132.86099243    4.90999985    2.82999992
   14.84055519  153.30799866    4.90999985    2.82999992
   14.84361076  140.79899597    4.90999985    2.82999992
   14.84694386  169.21600342    4.90999985    2.84999990
   14.85000038  139.78399658    4.90999985    2.82999992
   14.85333347  163.87600708    4.90999985    2.84999990
   14.85666752  141.52299500    4.90999985    2.84999990
   14.86277771  141.52299500    4.90999985    2.84999990
   14.86694431  154.38999939    4.90999985    2.82999992
   14.86999989  169.38999939    4.90999985    2.84999990
   14.87333393  149.18699646    4.90999985    2.84999990
   14.87666702  152.65199280    4.90999985    2.82999992
   14.87972260  227.70799255    4.90999985    2.82999992
   14.88305569   -1.00000000    4.90999985    2.82999992
   14.88611126  176.70100403    4.90999985    2.84999990
   14.88944435  148.96200562    4.90999985    2.84999990
   14.89277744  167.14300537    4.90999985    2.82999992
   14.89499950  158.10800171    4.90999985    2.84999990
   14.89638901  144.48199463    4.90999985    2.84999990
   14.89944458  163.14900208    4.90999985    2.82999992
   14.90555477  163.14900208    4.90999985    2.84999990
   14.90972137  149.37300110    4.90999985    2.84999990
   14.91277695  164.86599731    4.90999985    2.84999990
   14.91611099  166.45799255    4.90999985    2.84999990
   14.91944504  157.06399536    4.90999985    2.84999990
   14.92250061  159.35600281    4.90999985    2.84999990
   14.92583370  167.83999634    4.90999985    2.84999990
   14.92833328  177.18499756    4.90999985    2.84999990
   14.92944431  180.24600220    4.90999985    2.84999990
   14.93249989   -1.00000000    4.90999985    2.82999992
   14.93583298  169.39199829    4.90999985    2.84999990
   14.93888855  178.82699585    4.90999985    2.84999990
   14.94222260  168.73800659    4.90999985    2.84999990
   14.94833374  168.73800659    4.90999985    2.84999990
   14.95249939  166.63600159    4.90999985    2.84999990
   14.95583344  167.68299866    4.90999985    2.84999990
   14.95916653  156.77400208    4.90999985    2.84999990
   14.96166611  174.01499939    4.90999985    2.84999990
   14.96277714  174.75399780    4.90999985    2.84999990
   14.96583271  163.09599304    4.90999985    2.84999990
   14.96916580  173.22200012    4.90999985    2.84999990
   14.97249985  183.43899536    4.90999985    2.84999990
   14.97555542  202.33099365    4.90999985    2.82999992
   14.97888851  170.16200256    4.90999985    2.84999990
   14.98194408   -1.00000000    4.90999985    2.84999990
   14.98527813  192.00000000    4.90999985    2.84999990
   14.99138927  192.00000000    4.90999985    2.84999990
   14.99527836  201.05299377    4.90999985    2.84999990
   14.99861145  181.08999634    4.90999985    2.84999990
   15.00194454  186.62899780    4.90999985    2.84999990
   15.00500011  152.00300598    4.90999985    2.84999990
   15.00833321  175.56300354    4.90999985    2.84999990
   15.01166630  170.95700073    4.90999985    2.84999990
   15.01472187  150.16999817    4.90999985    2.84999990
   15.01805496  171.77000427    4.90999985    2.84999990
   15.02111053  162.39999390    4.90999985    2.84999990
   15.02444458  154.91900635    4.90999985    2.84999990
   15.02777767  172.22999573    4.90999985    2.84999990
   15.02833271  152.28900146    4.90999985    2.84999990
   15.03805637  162.94200134    4.90999985    2.84999990
   15.04138947  161.67900085    4.90999985    2.84999990
   15.04472256  168.95500183    4.90999985    2.84999990
   15.04777813  152.82499695    4.90999985    2.84999990
   15.05111122  158.91900635    4.90999985    2.84999990
   15.05444431  158.65199280    4.90999985    2.84999990
   15.05749989  144.20100403    4.90999985    2.84999990
   15.06083393  151.83599854    4.90999985    2.84999990
   15.06166649  158.74400330    4.90999985    2.84999990
   15.06444454  152.82299805    4.90999985    2.84999990
   15.06750011  146.42799377    4.90999985    2.84999990
   15.07083321  140.34800720    4.90999985    2.86999989
   15.07694435  140.34800720    4.90999985    2.84999990
   15.08111095   -1.00000000    4.90999985    2.84999990
   15.08444405   -1.00000000    4.90999985    2.84999990
   15.08749962  144.90800476    4.90999985    2.84999990
   15.09083271  148.51699829    4.90999985    2.84999990
   15.09388828  138.47799683    4.90999985    2.84999990
   15.09499931  145.13800049    4.90999985    2.84999990
   15.09777737  148.28900146    4.90999985    2.84999990
   15.10083389  140.30000305    4.90999985    2.86999989
   15.10416698  143.82600403    4.90999985    2.84999990
   15.10750008  149.17500305    4.90999985    2.84999990
   15.11055565  160.53799438    4.90999985    2.86999989
   15.11388969  146.51499939    4.90999985    2.84999990
   15.11972237  146.51499939    4.90999985    2.84999990
   15.12388897  155.84599304    4.90999985    2.84999990
   15.12722206  154.43699646    4.90999985    2.84999990
   15.12833309  148.88900757    4.90999985    2.86999989
   15.13083363   -1.00000000    4.90999985    2.84999990
   15.13388920   -1.00000000    4.90999985    2.84999990
   15.13722229  149.25599670    4.90999985    2.84999990
   15.14055538  166.64599609    4.90999985    2.84999990
   15.14361095  158.03900146    4.90999985    2.84999990
   15.14694405  151.75700378    4.90999985    2.84999990
   15.15027714  142.35699463    4.90999985    2.86999989
   15.15333271  140.18800354    4.90999985    2.84999990
   15.15666676  143.54100037    4.90999985    2.84999990
   15.16277695  143.54100037    4.90999985    2.84999990
   15.16666698  140.08999634    4.90999985    2.84999990
   15.17000008  140.71600342    4.90999985    2.84999990
   15.17333412  141.85499573    4.90999985    2.84999990
   15.17638874  147.37500000    4.90999985    2.86999989
   15.17972279  146.37300110    4.90999985    2.84999990
   15.18277836   -1.00000000    4.90999985    2.84999990
   15.18611145  137.66299438    4.90999985    2.84999990
   15.18944454  151.40400696    4.90999985    2.84999990
   15.19250011  140.94299316    4.90999985    2.84999990
   15.19499969  139.82800293    4.90999985    2.84999990
   15.19638920  158.72799683    4.90999985    2.84999990
   15.19944477  153.68099976    4.90999985    2.84999990
   15.20555496  153.68099976    4.90999985    2.84999990
   15.20972157  146.07400513    4.90999985    2.84999990
   15.21277714  166.06599426    4.90999985    2.84999990
   15.21611118  155.64300537    4.90999985    2.84999990
   15.21916580  140.43800354    4.90999985    2.84999990
   15.22249985  145.64300537    4.90999985    2.84999990
   15.22583294  145.25100708    4.90999985    2.84999990
   15.22833252  169.27999878    4.90999985    2.84999990
   15.22944355  148.94400024    4.90999985    2.84999990
   15.23249912   -1.00000000    4.90999985    2.84999990
   15.23583317  163.78999329    4.90999985    2.84999990
   15.23916721  153.21699524    4.90999985    2.84999990
   15.24222279  165.89999390    4.90999985    2.84999990
   15.24833393  165.89999390    4.90999985    2.84999990
   15.25249958  154.52299500    4.90999985    2.86999989
   15.25555515  163.10899353    4.90999985    2.86999989
   15.25888920  152.45199585    4.90999985    2.84999990
   15.26166630  147.38400269    4.90999985    2.86999989
   15.26249981  148.53599548    4.90999985    2.84999990
   15.26583290  180.63600159    4.90999985    2.86999989
   15.26888847  156.37199402    4.90999985    2.84999990
   15.27222157  146.10099792    4.90999985    2.84999990
   15.27527714  138.97700500    4.90999985    2.84999990
   15.27861118  137.94700623    4.90999985    2.84999990
   15.28194427  146.86199951    4.90999985    2.86999989
   15.28500080  162.05200195    4.90999985    2.86999989
   15.29111195  162.05200195    4.90999985    2.86999989
   15.29527855  140.23800659    4.90999985    2.84999990
   15.29861164  186.13499451    4.90999985    2.84999990
   15.30166721  151.81599426    4.90999985    2.84999990
   15.30500031  163.65800476    4.90999985    2.84999990
   15.30833340  163.98899841    4.90999985    2.84999990
   15.31138897  160.18899536    4.90999985    2.84999990
   15.31472206  137.06700134    4.90999985    2.84999990
   15.31777763  154.99800110    4.90999985    2.86999989
   15.32111073  146.44500732    4.90999985    2.86999989
   15.32444477  138.92799377    4.90999985    2.84999990
   15.32750034  137.21899414    4.90999985    2.86999989
   15.32833290  142.16400146    4.90999985    2.84999990
   15.33388901  142.16400146    4.90999985    2.86999989
   15.33805561  144.55299377    4.90999985    2.84999990
   15.34138870  149.31900024    4.90999985    2.86999989
   15.34472179  153.76199341    4.90999985    2.86999989
   15.34777737  148.23300171    4.90999985    2.84999990
   15.35111141  145.56199646    4.90999985    2.86999989
   15.35444450  152.31100464    4.90999985    2.84999990
   15.35750008  149.80299377    4.90999985    2.84999990
   15.36083412  147.30799866    4.90999985    2.86999989
   15.36166668  149.31799316    4.90999985    2.86999989
   15.36444473  155.44799805    4.90999985    2.84999990
   15.36750031  148.78199768    4.90999985    2.86999989
   15.37083340  141.97700500    4.90999985    2.84999990
   15.37694454  141.97700500    4.90999985    2.84999990
   15.38111115  162.15299988    4.90999985    2.84999990
   15.38416672  145.43200684    4.90999985    2.84999990
   15.38749981  147.00900269    4.90999985    2.84999990
   15.39055538  172.98199463    4.90999985    2.84999990
   15.39388847  148.07099915    4.90999985    2.84999990
   15.39499950  169.64599609    4.90999985    2.84999990
   15.39750004  144.99400330    4.90999985    2.84999990
   15.40055561  135.42799377    4.90999985    2.86999989
   15.40388870  148.78599548    4.90999985    2.84999990
   15.40722179  142.69000244    4.90999985    2.84999990
   15.41027737  137.89799500    4.90999985    2.86999989
   15.41361046  157.30400085    4.90999985    2.84999990
   15.41972256  157.30400085    4.90999985    2.86999989
   15.42388916  143.33200073    4.90999985    2.84999990
   15.42694473  145.20700073    4.90999985    2.84999990
   15.42833328  139.77200317    4.90999985    2.84999990
   15.43083382  147.39900208    4.90999985    2.84999990
   15.43388939  151.31500244    4.90999985    2.86999989
   15.43722248  157.52999878    4.90999985    2.84999990
   15.44055557  144.87699890    4.90999985    2.86999989
   15.44361115  159.83999634    4.90999985    2.84999990
   15.44694424  153.97999573    4.90999985    2.84999990
   15.45027733  152.92799377    4.90999985    2.86999989
   15.45333290  146.15199280    4.90999985    2.84999990
   15.45666695  139.30299377    4.90999985    2.84999990
   15.46249962  139.30299377    4.90999985    2.86999989
   15.46666622  149.04800415    4.90999985    2.84999990
   15.46999931  144.19099426    4.90999985    2.84999990
   15.47305489  147.55900574    4.90999985    2.86999989
   15.47638798  147.98599243    4.90999985    2.84999990
   15.47972202  145.39399719    4.90999985    2.84999990
   15.48277760  150.84399414    4.90999985    2.86999989
   15.48611164  150.14599609    4.90999985    2.86999989
   15.48916721  145.39300537    4.90999985    2.86999989
   15.49250031  144.91799927    4.90999985    2.84999990
   15.49499989  147.87899780    4.90999985    2.84999990
   15.49611092  151.95799255    4.90999985    2.84999990
   15.49916649  150.46499634    4.90999985    2.86999989
   15.50527763  150.46499634    4.90999985    2.86999989
   15.50944424  151.25799561    4.90999985    2.86999989
   15.51277733  149.21699524    4.90999985    2.84999990
   15.51611137  142.43299866    4.90999985    2.86999989
   15.51916599  141.57200623    4.90999985    2.84999990
   15.52250004  149.87899780    4.90999985    2.84999990
   15.52555561  143.15400696    4.90999985    2.86999989
   15.52833271  140.12500000    4.90999985    2.86999989
   15.52944374  145.67799377    4.90999985    2.86999989
   15.53277779  142.90699768    4.90999985    2.84999990
   15.53583336  144.59599304    4.90999985    2.86999989
   15.53916740  138.82600403    4.90999985    2.84999990
   15.54222298  142.91499329    4.90999985    2.86999989
   15.54833412  142.91499329    4.90999985    2.86999989
   15.55222225  151.40400696    4.90999985    2.86999989
   15.55555534  147.45300293    4.90999985    2.86999989
   15.55888939  147.12100220    4.90999985    2.86999989
   15.56166649  142.21499634    4.90999985    2.86999989
   15.56250000  151.35899353    4.90999985    2.84999990
   15.56583309  153.96299744    4.90999985    2.86999989
   15.56888866  151.79200745    4.90999985    2.86999989
   15.57222176  143.98100281    4.90999985    2.84999990
   15.57527733  165.66099548    4.90999985    2.86999989
   15.57861137  155.81900024    4.90999985    2.86999989
   15.58194447  154.65499878    4.90999985    2.84999990
   15.58500004  150.93400574    4.90999985    2.86999989
   15.59111118  150.93400574    4.90999985    2.84999990
   15.59527779  158.47300720    4.90999985    2.84999990
   15.59833336  157.36199951    4.90999985    2.84999990
   15.60166740  155.92100525    4.90999985    2.84999990
   15.60500050  157.30900574    4.90999985    2.84999990
   15.60805607  158.92199707    4.90999985    2.84999990
   15.61138916  146.42100525    4.90999985    2.84999990
   15.61444473  151.12300110    4.90999985    2.84999990
   15.61777782  148.95700073    4.90999985    2.86999989
   15.62111092  147.87199402    4.90999985    2.86999989
   15.62416649  144.93200684    4.90999985    2.84999990
   15.62750053  148.75700378    4.90999985    2.84999990
   15.62833309  152.91099548    4.90999985    2.84999990
   15.63388920  152.91099548    4.90999985    2.84999990
   15.63805580  151.62100220    4.90999985    2.84999990
   15.64138889  155.05400085    4.90999985    2.84999990
   15.64444447  139.50100708    4.90999985    2.86999989
   15.66194439  147.56199646    4.90999985    2.84999990
   15.66444397  155.41400146    4.90999985    2.84999990
   15.66777802  147.74600220    4.90999985    2.86999989
   15.67083359  142.37300110    4.90999985    2.84999990
   15.67694473  142.37300110    4.90999985    2.86999989
   15.68111134  154.52000427    4.90999985    2.86999989
   15.68444443  147.39500427    4.90999985    2.86999989
   15.68750000  147.44500732    4.90999985    2.89000010
   15.69083309  138.80999756    4.90999985    2.86999989
   15.69388866  151.98199463    4.90999985    2.86999989
   15.69527817  153.92500305    4.90999985    2.86999989
   15.69777775  151.81500244    4.90999985    2.86999989
   15.70111084  138.05499268    4.90999985    2.86999989
   15.70416641  133.70700073    4.90999985    2.86999989
   15.70749950  146.31599426    4.90999985    2.86999989
   15.71055508  145.34599304    4.90999985    2.84999990
   15.71388912  142.16600037    4.90999985    2.86999989
   15.71972179  142.16600037    4.90999985    2.86999989
   15.72388840  140.43299866    4.90999985    2.86999989
   15.72722149  147.49899292    4.90999985    2.86999989
   15.72861099  153.22200012    4.90999985    2.86999989
   15.73083305  143.50700378    4.90999985    2.86999989
   15.73388958  144.15800476    4.90999985    2.86999989
   15.73722267  149.73100281    4.90999985    2.86999989
   15.74055576  125.95200348    4.90999985    2.86999989
   15.74361134  140.89300537    4.90999985    2.86999989
   15.74694443  147.73399353    4.90999985    2.86999989
   15.75000000  146.68299866    4.90999985    2.86999989
   15.75333309  148.08700562    4.90999985    2.86999989
   15.75666714  142.53999329    4.90999985    2.86999989
   15.76277733  142.53999329    4.90999985    2.86999989
   15.76666641  134.65800476    4.90999985    2.86999989
   15.76999950  138.40899658    4.90999985    2.86999989
   15.77333355  140.07699585    4.90999985    2.84999990
   15.77638817  144.76600647    4.90999985    2.86999989
   15.77972221  133.53399658    4.90999985    2.84999990
   15.78305531  141.58500671    4.90999985    2.86999989
   15.78611183  142.91799927    4.90999985    2.84999990
   15.78944492  141.68299866    4.90999985    2.86999989
   15.79250050  139.56500244    4.90999985    2.86999989
   15.79527855  138.25000000    4.90999985    2.86999989
   15.79638958  143.64500427    4.90999985    2.86999989
   15.79972267  142.48500061    4.90999985    2.86999989
   15.80555534  142.48500061    4.90999985    2.86999989
   15.80972195  149.71099854    4.90999985    2.86999989
   15.81277752  138.87699890    4.90999985    2.86999989
   15.81611156  147.05400085    4.90999985    2.86999989
   15.81944466  136.05400085    4.90999985    2.86999989
   15.82250023  144.59599304    4.90999985    2.86999989
   15.82583332  143.56100464    4.90999985    2.86999989
   15.82861137  147.49200439    4.90999985    2.86999989
   15.82944393  146.06100464    4.90999985    2.86999989
   15.83277798  129.39999390    4.90999985    2.86999989
   15.83583260  133.45599365    4.90999985    2.86999989
   15.83916664  131.04400635    4.90999985    2.86999989
   15.84222221  140.54899597    4.90999985    2.86999989
   15.84833336  140.54899597    4.90999985    2.86999989
   15.85249996  140.14700317    4.90999985    2.86999989
   15.85583401  145.89300537    4.90999985    2.89000010
   15.85888958  142.18600464    4.90999985    2.86999989
   15.86194515  141.43699646    4.90999985    2.86999989
   15.86250019  140.31500244    4.90999985    2.86999989
   15.86583328  138.84100342    4.90999985    2.86999989
   15.86888885  146.88299561    4.90999985    2.86999989
   15.87222195  141.36799622    4.90999985    2.86999989
   15.87555599  137.47700500    4.90999985    2.86999989
   15.87861156  139.76499939    4.90999985    2.86999989
   15.88194466  139.17999268    4.90999985    2.86999989
   15.88500023  138.52000427    4.90999985    2.86999989
   15.89111137  138.52000427    4.90999985    2.86999989
   15.89527798  133.66900635    4.90999985    2.86999989
   15.89861107  139.60299683    4.90999985    2.86999989
   15.90166664  129.71299744    4.90999985    2.86999989
   15.90499973  135.86900330    4.90999985    2.86999989
   15.90833282  138.61500549    4.90999985    2.86999989
   15.91138840  131.88800049    4.90999985    2.86999989
   15.91472149  139.54200745    4.90999985    2.86999989
   15.91777802  134.78300476    4.90999985    2.86999989
   15.92111111  137.56300354    4.90999985    2.86999989
   15.92444515  140.41000366    4.90999985    2.86999989
   15.92750072  139.99099731    4.90999985    2.86999989
   15.92861176  146.44400024    4.90999985    2.89000010
   15.93416691  146.44400024    4.90999985    2.86999989
   15.93805599  135.72300720    4.90999985    2.86999989
   15.94138908  139.30700684    4.90999985    2.86999989
   15.94472218  140.93299866    4.90999985    2.89000010
   15.94777775  132.88999939    4.90999985    2.86999989
   15.95111084  135.99299622    4.90999985    2.86999989
   15.95416641  135.82400513    4.90999985    2.86999989
   15.95749950  135.47500610    4.90999985    2.86999989
   15.96083355  122.40200043    4.90999985    2.86999989
   15.96194458  133.05200195    4.90999985    2.84999990
   15.96444416  141.00799561    4.90999985    2.86999989
   15.96777725  140.39900208    4.90999985    2.86999989
   15.97083282  136.26100159    4.90999985    2.86999989
   15.97694397  136.26100159    4.90999985    2.86999989
   15.98111057  138.75300598    4.90999985    2.86999989
   15.98416710  135.75900269    4.90999985    2.86999989
   15.98750019  138.42900085    4.90999985    2.86999989
   15.99055576  145.80200195    4.90999985    2.86999989
   15.99388885  138.73100281    4.90999985    2.86999989
   15.99527836  149.33700562    4.90999985    2.86999989
   15.99750042  136.54400635    4.90999985    2.86999989
   16.00083351  142.22900391    4.90999985    2.86999989
   16.00388908  139.04899597    4.90999985    2.86999989
   16.00722313  153.72700500    4.90999985    2.86999989
   16.01027870  143.75300598    4.90999985    2.86999989
   16.01361084  135.13400269    4.90999985    2.86999989
   16.01972198  135.13400269    4.90999985    2.86999989
   16.02388954  133.68699646    4.90999985    2.86999989
   16.02694511  133.07499695    4.90999985    2.86999989
   16.02861023  135.75500488    4.90999985    2.86999989
   16.03083229  126.43199921    4.90999985    2.86999989
   16.03416634  132.89100647    4.90999985    2.86999989
   16.03722191  131.22200012    4.90999985    2.86999989
   16.04055595  135.90699768    4.90999985    2.86999989
   16.04361153  134.67199707    4.90999985    2.86999989
   16.04694366  135.76100159    4.90999985    2.86999989
   16.05027771  140.42900085    4.90999985    2.86999989
   16.05333328  136.95500183    4.90999985    2.86999989
   16.05666542  140.27600098    4.90999985    2.89000010
   16.06250000  140.27600098    4.90999985    2.86999989
   16.06666756  148.51600647    4.90999985    2.86999989
   16.07000160  149.12699890    4.90999985    2.86999989
   16.07305717  131.80099487    4.90999985    2.86999989
   16.07638931  134.89199829    4.90999985    2.86999989
   16.07972336  137.09800720    4.90999985    2.86999989
   16.08277893  139.47900391    4.90999985    2.86999989
   16.08611107  147.86500549    4.90999985    2.89000010
   16.08916664  132.48699951    4.90999985    2.86999989
   16.09250069  132.10099792    4.90999985    2.86999989
   16.09527779  143.76300049    4.90999985    2.86999989
   16.09611130  141.29800415    4.90999985    2.86999989
   16.09944534  134.74800110    4.90999985    2.86999989
   16.10527802  134.74800110    4.90999985    2.86999989
   16.10944557  138.94000244    4.90999985    2.86999989
   16.11277771  137.56599426    4.90999985    2.86999989
   16.11611176  144.39999390    4.90999985    2.86999989
   16.11916733  133.84300232    4.90999985    2.86999989
   16.12249947  128.11300659    4.90999985    2.86999989
   16.12555504  135.97599792    4.90999985    2.89000010
   16.12861061  149.18200684    4.90999985    2.86999989
   16.12944412  141.94599915    4.90999985    2.86999989
   16.13277817  133.22200012    4.90999985    2.86999989
   16.13583374  156.81500244    4.90999985    2.86999989
   16.13916588  149.08399963    4.90999985    2.86999989
   16.14222145  153.11900330    4.90999985    2.86999989
   16.14833260  153.11900330    4.90999985    2.89000010
   16.15250015  147.81399536    4.90999985    2.86999989
   16.15555573  143.94700623    4.90999985    2.89000010
   16.15888786  155.96699524    4.90999985    2.86999989
   16.16194344  158.62100220    4.90999985    2.86999989
   16.16250038  146.99400330    4.90999985    2.86999989
   16.16583252  154.08000183    4.90999985    2.86999989
   16.16888809  147.28599548    4.90999985    2.86999989
   16.17222214  159.41799927    4.90999985    2.89000010
   16.17527771  149.35000610    4.90999985    2.89000010
   16.17860985  126.01899719    4.90999985    2.86999989
   16.18194389  141.49099731    4.90999985    2.86999989
   16.18499947  159.83599854    4.90999985    2.86999989
   16.19111061  159.83599854    4.90999985    2.86999989
   16.19527626  141.80200195    4.90999985    2.86999989
   16.19583321  136.49299622    4.90999985    2.89000010
   16.19888878  130.65299988    4.90999985    2.86999989
   16.20222282  144.62300110    4.90999985    2.89000010
   16.20555687  134.09399414    4.90999985    2.86999989
   16.20861244  133.22300720    4.90999985    2.89000010
   16.21194458  141.55999756    4.90999985    2.89000010
   16.21500015  138.21299744    4.90999985    2.86999989
   16.21833420  136.05099487    4.90999985    2.86999989
   16.22166634  130.38200378    4.90999985    2.89000010
   16.22472191  148.10299683    4.90999985    2.86999989
   16.22805595  133.72900391    4.90999985    2.86999989
   16.22916794  138.88800049    4.90999985    2.86999989
   16.23388863  138.88800049    4.90999985    2.89000010
   16.23805618  149.64999390    4.90999985    2.89000010
   16.24138832  145.42300415    4.90999985    2.86999989
   16.24444389  146.70500183    4.90999985    2.86999989
   16.24777794  150.32499695    4.90999985    2.86999989
   16.25083351  140.89599609    4.90999985    2.86999989
   16.25416756  168.67900085    4.90999985    2.86999989
   16.25749969  159.36999512    4.90999985    2.86999989
   16.26055527  157.29699707    4.90999985    2.86999989
   16.26277733  152.86399841    4.90999985    2.89000010
   16.26444435  147.21499634    4.90999985    2.86999989
   16.26777840  171.44200134    4.90999985    2.86999989
   16.27111053  154.01400757    4.90999985    2.86999989
   16.27666664  154.01400757    4.90999985    2.86999989
   16.28083229  156.65199280    4.90999985    2.86999989
   16.28416634  141.44500732    4.90999985    2.86999989
   16.28722191  155.16400146    4.90999985    2.86999989
   16.29055595  162.92100525    4.90999985    2.86999989
   16.29388809  165.40199280    4.90999985    2.86999989
   16.29583359  151.51600647    4.90999985    2.86999989
   16.29749870  162.78199768    4.90999985    2.86999989
   16.30083275  164.66900635    4.90999985    2.86999989
   16.30416679  150.21099854    4.90999985    2.89000010
   16.30722237  162.11099243    4.90999985    2.86999989
   16.31055450  150.94299316    4.90999985    2.86999989
   16.31361008  154.28799438    4.90999985    2.89000010
   16.31972313  154.28799438    4.90999985    2.86999989
   16.32361221  173.21200562    4.90999985    2.86999989
   16.32694626  163.36399841    4.90999985    2.89000010
   16.32916832  139.04499817    4.90999985    2.89000010
   16.33055687  140.64799500    4.90999985    2.89000010
   16.33388901  157.56100464    4.90999985    2.86999989
   16.33722305  176.12500000    4.90999985    2.86999989
   16.34027863  171.55700684    4.90999985    2.86999989
   16.34361267  183.70500183    4.90999985    2.86999989
   16.34666824  166.77200317    4.90999985    2.86999989
   16.35000038  170.59300232    4.90999985    2.89000010
   16.35333443  171.58099365    4.90999985    2.89000010
   16.35639000  175.94900513    4.90999985    2.89000010
   16.36250114  175.94900513    4.90999985    2.86999989
   16.36666679  132.85000610    4.90999985    2.86999989
   16.36972237  178.91200256    4.90999985    2.86999989
   16.37305641  170.45599365    4.90999985    2.84999990
   16.37638855  146.72000122    4.90999985    2.86999989
   16.37944412  168.91499329    4.90999985    2.86999989
   16.38277817  168.35899353    4.90999985    2.86999989
   16.38583374  157.22900391    4.90999985    2.86999989
   16.38916588  166.46899414    4.90999985    2.86999989
   16.39249992  161.95300293    4.90999985    2.89000010
   16.39555550  165.96400452    4.90999985    2.84999990
   16.39611053  138.17999268    4.90999985    2.84999990
   16.39944458  142.93299866    4.90999985    2.89000010
   16.40527725  142.93299866    4.90999985    2.86999989
   16.40944481  146.08099365    4.90999985    2.86999989
   16.41277695  152.82899475    4.90999985    2.86999989
   16.41583252  143.83000183    4.90999985    2.86999989
   16.41916656  162.70100403    4.90999985    2.86999989
   16.42222214  159.88499451    4.90999985    2.86999989
   16.42555428  154.69200134    4.90999985    2.86999989
   16.42888832  147.34899902    4.90999985    2.86999989
   16.42944336  149.28599548    4.90999985    2.86999989
   16.43249893  155.13200378    4.90999985    2.86999989
   16.43583298  163.55299377    4.90999985    2.89000010
   16.43888855  157.54699707    4.90999985    2.86999989
   16.44222069  174.56199646    4.90999985    2.89000010
   16.44833183  174.56199646    4.90999985    2.86999989
   16.45250130  149.55299377    4.90999985    2.86999989
   16.45555687  183.05000305    4.90999985    2.89000010
   16.45888901  155.57600403    4.90999985    2.86999989
   16.46222305  158.02999878    4.90999985    2.86999989
   16.46277809  155.76499939    4.90999985    2.86999989
   16.46583366  159.34899902    4.90999985    2.89000010
   16.46916771  175.72300720    4.90999985    2.86999989
   16.47222328  167.87399292    4.90999985    2.86999989
   16.47555542  148.98300171    4.90999985    2.86999989
   16.47861099  161.66700745    4.90999985    2.86999989
   16.48194504  163.95100403    4.90999985    2.86999989
   16.48527718  170.30999756    4.90999985    2.86999989
   16.49111176  170.30999756    4.90999985    2.89000010
   16.49500084  155.80599976    4.90999985    2.89000010
   16.49611092  166.24299622    4.90999985    2.86999989
   16.49888992  149.01699829    4.90999985    2.89000010
   16.50222206  164.21699524    4.90999985    2.89000010
   16.50527763  168.50300598    4.90999985    2.89000010
   16.50861168  146.78500366    4.90999985    2.86999989
   16.51166725  179.99099731    4.90999985    2.86999989
   16.51499939  182.91900635    4.90999985    2.86999989
   16.51833344  193.73699951    4.90999985    2.86999989
   16.52138901  169.08000183    4.90999985    2.86999989
   16.52472115  175.40199280    4.90999985    2.89000010
   16.52805519  176.30200195    4.90999985    2.86999989
   16.52944374  183.32000732    4.90999985    2.86999989
   16.53388786  183.32000732    4.90999985    2.86999989
   16.53805542  181.59599304    4.90999985    2.86999989
   16.54111099  170.09700012    4.90999985    2.86999989
   16.54444313  160.79100037    4.90999985    2.86999989
   16.54777718  168.10899353    4.90999985    2.89000010
   16.55083275  157.70300293    4.90999985    2.89000010
   16.55416679  185.90600586    4.90999985    2.89000010
   16.55722237  178.94999695    4.90999985    2.91000009
   16.56055450  176.58200073    4.90999985    2.86999989
   16.56277657  167.58999634    4.90999985    2.89000010
   16.56416512  162.39100647    4.90999985    2.89000010
   16.56750107  185.00500488    4.90999985    2.86999989
   16.57055664  158.60899353    4.90999985    2.86999989
   16.57666779  158.60899353    4.90999985    2.89000010
   16.58083344  185.61000061    4.90999985    2.89000010
   16.58416748  149.74600220    4.90999985    2.89000010
   16.58722305  168.52499390    4.90999985    2.86999989
   16.59055710  162.72999573    4.90999985    2.89000010
   16.59361267  161.64999390    4.90999985    2.91000009
   16.59611130  156.40499878    4.90999985    2.86999989
   16.59749985  152.02200317    4.90999985    2.86999989
   16.60083389  153.39900208    4.90999985    2.86999989
   16.60388947  154.20700073    4.90999985    2.86999989
   16.60722351  144.69200134    4.90999985    2.89000010
   16.61055565  147.83200073    4.90999985    2.86999989
   16.61361122  147.93699646    4.90999985    2.86999989
   16.61944389  147.93699646    4.90999985    2.89000010
   16.62361145  146.84500122    4.90999985    2.89000010
   16.62694550  151.55499268    4.90999985    2.89000010
   16.62944412  137.31799316    4.90999985    2.89000010
   16.63055611  166.85400391    4.90999985    2.86999989
   16.63388824  136.82000732    4.90999985    2.89000010
   16.63694382  138.57899475    4.90999985    2.89000010
   16.64027786  143.28700256    4.90999985    2.89000010
   16.64333344  147.21600342    4.90999985    2.89000010
   16.64666748  142.97300720    4.90999985    2.89000010
   16.64999962  140.28199768    4.90999985    2.86999989
   16.65305519  130.55799866    4.90999985    2.86999989
   16.65638924  147.17999268    4.90999985    2.89000010
   16.66250038  147.17999268    4.90999985    2.86999989
   16.68083191  144.78799438    4.90999985    2.86999989
   16.68388748  152.04499817    4.90999985    2.89000010
   16.68722153  146.70599365    4.90999985    2.86999989
   16.69055557  141.34700012    4.90999985    2.89000010
   16.69361115  143.85499573    4.90999985    2.86999989
   16.69694328  141.97700500    4.90999985    2.89000010
   16.70000076  144.64500427    4.90999985    2.86999989
   16.70555687  144.64500427    4.90999985    2.89000010
   16.70972252  148.03500366    4.90999985    2.89000010
   16.71305656  153.11900330    4.90999985    2.86999989
   16.71389008  148.56399536    4.90999985    2.86999989
   16.71666718  143.08700562    4.90999985    2.89000010
   16.72000122  145.97900391    4.90999985    2.89000010
   16.72333336  147.12100220    4.90999985    2.86999989
   16.72638893  145.83999634    4.90999985    2.86999989
   16.72972298  146.53500366    4.90999985    2.86999989
   16.73305511  147.21200562    4.90999985    2.86999989
   16.73611069  154.34599304    4.90999985    2.86999989
   16.73944473  172.77400208    4.90999985    2.86999989
   16.74250031  160.39900208    4.90999985    2.86999989
   16.74833298  160.39900208    4.90999985    2.86999989
   16.75250053  149.89100647    4.90999985    2.86999989
   16.75555611  161.58599854    4.90999985    2.86999989
   16.75888824  157.44400024    4.90999985    2.86999989
   16.76222229  156.09300232    4.90999985    2.86999989
   16.76527786  159.49400330    4.90999985    2.86999989
   16.76861000  179.43499756    4.90999985    2.86999989
   16.77194405  170.19099426    4.90999985    2.86999989
   16.77499962  170.28999329    4.90999985    2.89000010
   16.77833366  160.43600464    4.90999985    2.86999989
   16.78055573  155.19999695    4.90999985    2.86999989
   16.78194427  176.29800415    4.90999985    2.86999989
   16.78527641  152.15600586    4.90999985    2.86999989
   16.79111099  152.15600586    4.90999985    2.86999989
   16.79527664  162.49800110    4.90999985    2.86999989
   16.79861069  164.97099304    4.90999985    2.86999989
   16.80166626  144.30799866    4.90999985    2.86999989
   16.80499840  159.11099243    4.90999985    2.86999989
   16.80833244  160.40499878    4.90999985    2.89000010
   16.81138802  154.60899353    4.90999985    2.86999989
   16.81388855  141.52600098    4.90999985    2.89000010
   16.81499863  163.73899841    4.90999985    2.86999989
   16.81833458  152.11099243    4.90999985    2.86999989
   16.82166672  140.17799377    4.90999985    2.86999989
   16.82472229  142.66200256    4.90999985    2.86999989
   16.82805634  140.47399902    4.90999985    2.89000010
   16.83388901  140.47399902    4.90999985    2.89000010
   16.83805656  156.82099915    4.90999985    2.86999989
   16.84138870  136.81199646    4.90999985    2.86999989
   16.84444427  136.96499634    4.90999985    2.86999989
   16.84722328  144.17399597    4.90999985    2.89000010
   16.84805679  143.76899719    4.90999985    2.86999989
   16.85138893  157.38200378    4.90999985    2.89000010
   16.85472298  145.92300415    4.90999985    2.89000010
   16.85777855  135.96899414    4.90999985    2.89000010
   16.86111069  152.52200317    4.90999985    2.86999989
   16.86444473  136.53999329    4.90999985    2.86999989
   16.86750031  147.72399902    4.90999985    2.89000010
   16.87083435  145.50100708    4.90999985    2.89000010
   16.87694550  145.50100708    4.90999985    2.89000010
   16.88083267  147.44700623    4.90999985    2.89000010
   16.88416672  148.67799377    4.90999985    2.86999989
   16.88750076  156.34599304    4.90999985    2.86999989
   16.89055634  157.48100281    4.90999985    2.86999989
   16.89388847  140.10899353    4.90999985    2.86999989
   16.89722252  144.81700134    4.90999985    2.86999989
   16.90027809  150.99699402    4.90999985    2.86999989
   16.90361023  154.90100098    4.90999985    2.86999989
   16.90666580  147.85200500    4.90999985    2.86999989
   16.90999985  150.38099670    4.90999985    2.89000010
   16.91333389  143.34599304    4.90999985    2.86999989
   16.91388893  148.52999878    4.90999985    2.89000010
   16.91972160  148.52999878    4.90999985    2.86999989
   16.92388916  141.58099365    4.90999985    2.86999989
   16.92694473  145.08599854    4.90999985    2.86999989
   16.93027687  134.81799316    4.90999985    2.84999990
   16.93361092  148.34599304    4.90999985    2.86999989
   16.93666649  143.46299744    4.90999985    2.86999989
   16.93999863  145.42700195    4.90999985    2.86999989
   16.94305420  140.36599731    4.90999985    2.86999989
   16.94638824  126.99800110    4.90999985    2.86999989
   16.94722176  140.36599731    4.90999985    2.89000010
   16.95000076  148.74699402    4.90999985    2.86999989
   16.95333481  137.21299744    4.90999985    2.86999989
   16.95666695  127.46800232    4.90999985    2.89000010
   16.96250153  127.46800232    4.90999985    2.89000010
   16.96666718  152.48199463    4.90999985    2.86999989
   16.97000122  151.42900085    4.90999985    2.86999989
   16.97305679  151.49800110    4.90999985    2.89000010
   16.97638893  167.79100037    4.90999985    2.89000010
   16.97944450  147.80299377    4.90999985    2.86999989
   16.98055649  148.73300171    4.90999985    2.89000010
   16.98305511  154.41799927    4.90999985    2.86999989
   16.98638916  130.55299377    4.90999985    2.86999989
   16.98972321  159.94299316    4.90999985    2.89000010
   16.99277878  145.25000000    4.90999985    2.86999989
   16.99611092  134.99200439    4.90999985    2.89000010
   16.99944496  174.86099243    4.90999985    2.89000010
   17.00527763  174.86099243    4.90999985    2.86999989
   17.00944519  141.60400391    4.90999985    2.86999989
   17.01277733  144.94400024    4.90999985    2.86999989
   17.01388931  135.62699890    4.90999985    2.86999989
   17.01638794  134.87399292    4.90999985    2.86999989
   17.01944351  155.71699524    4.90999985    2.86999989
   17.02277756  141.68099976    4.90999985    2.89000010
   17.02583313  156.68600464    4.90999985    2.89000010
   17.02916718  157.95300293    4.90999985    2.86999989
   17.03249931  156.92500305    4.90999985    2.89000010
   17.03555489  154.43499756    4.90999985    2.89000010
   17.03888893  146.38400269    4.90999985    2.89000010
   17.04222107  158.61300659    4.90999985    2.89000010
   17.04833221  158.61300659    4.90999985    2.86999989
   17.05222130  140.06900024    4.90999985    2.86999989
   17.05555534  143.89599609    4.90999985    2.89000010
   17.05888748  146.94599915    4.90999985    2.86999989
   17.06194305  136.66700745    4.90999985    2.89000010
   17.06527710  159.60800171    4.90999985    2.86999989
   17.06861115  159.01899719    4.90999985    2.89000010
   17.07166672  146.46800232    0.07000000    0.41999999
   17.07500076  151.39100647    0.05000000    0.17000000
   17.07833481  151.17300415    0.03000000    0.05000000
   17.08055687  149.55000305    0.03000000    0.05000000
   17.08194542  146.22599792    0.03000000    0.05000000
   17.08500099  156.19000244    0.03000000    0.05000000
   17.09111214  156.19000244    0.03000000    0.05000000
   17.09527779  161.46400452    0.03000000    0.05000000
   17.09833336  154.11099243    0.03000000    0.05000000
   17.10166740  170.36099243    0.03000000    0.05000000
   17.10499954  170.55299377    0.03000000    0.05000000
   17.10805511  170.11700439    0.03000000    0.05000000
   17.11138916  169.15299988    0.03000000    0.05000000
   17.11388969  161.75599670    0.03000000    0.05000000
   17.11499977  170.21400452    0.03000000    0.05000000
   17.11805534  162.74000549    0.03000000    0.05000000
   17.12138939  162.70100403    0.03000000    0.05000000
   17.12444496  168.55400085    0.03000000    0.05000000
   17.12777710  160.80799866    0.03000000    0.05000000
   17.13388824  160.80799866    0.03000000    0.05000000
   17.13805580  171.48399353    0.03000000    0.05000000
   17.14138794  163.46099854    0.03000000    0.05000000
   17.14444351  177.05099487    0.03000000    0.05000000
   17.14722252  152.85800171    0.03000000    0.05000000
   17.14833260  157.38800049    0.03000000    0.05000000
   17.15138817  153.32499695    0.03000000    0.05000000
   17.15472221  149.11199951    0.03000000    0.05000000
   17.15777779  164.29400635    0.03000000    0.05000000
   17.16110992  165.03999329    0.03000000    0.05000000
   17.16444397  162.57400513    0.03000000    0.05000000
   17.17055511  158.96800232    0.03000000    0.05000000
   17.17388916  165.51499939    0.03000000    0.05000000
   17.17694473  159.93400574    0.03000000    0.05000000
   17.18027687  162.92599487    0.03000000    0.05000000
   17.18083191  163.97500610    0.03000000    0.05000000
   17.18361092  163.00000000    0.03000000    0.05000000
   17.18777657  163.00000000    0.03000000    0.05000000
   17.19194412  162.14500427    0.03000000    0.05000000
   17.19527626  157.45300293    0.03000000    0.05000000
   17.19861031  163.95199585    0.03000000    0.05000000
   17.20166779  155.86500549    0.03000000    0.05000000
   17.20499992  152.80200195    0.03000000    0.05000000
   17.20805550  152.14399719    0.03000000    0.05000000
   17.21138954  147.42500305    0.03000000    0.05000000
   17.21416664  157.67199707    0.03000000    0.05000000
   17.21500015  149.97700500    0.03000000    0.05000000
   17.21833420  151.88099670    0.03000000    0.05000000
   17.22166634  159.35699463    0.03000000    0.05000000
   17.22472191  150.78700256    0.03000000    0.05000000
   17.23083305  150.78700256    0.03000000    0.05000000
   17.23500061  160.15100098    0.03000000    0.05000000
   17.23805618  156.59800720    0.03000000    0.05000000
   17.24138832  148.02099609    0.03000000    0.05000000
   17.24444389  151.39599609    0.03000000    0.05000000
   17.24749947  157.07499695    0.03000000    0.05000000
   17.24833298  165.50599670    0.03000000    0.05000000
   17.25166702  161.76100159    0.03000000    0.05000000
   17.25472260  140.74099731    0.03000000    0.05000000
   17.25805473  154.47500610    0.03000000    0.05000000
   17.26111031  162.05499268    0.03000000    0.05000000
   17.26444435  154.82200623    0.03000000    0.05000000
   17.26777840  160.13099670    0.03000000    0.05000000
   17.27361107  160.13099670    0.03000000    0.05000000
   17.27777672  152.26199341    0.03000000    0.05000000
   17.28083229  156.09100342    0.03000000    0.05000000
   17.28138924  159.03999329    0.03000000    0.05000000
   17.28444481  152.28399658    0.03000000    0.05000000
   17.28777695  158.80900574    0.03000000    0.05000000
   17.29111099  154.51600647    0.03000000    0.05000000
   17.29416656  161.76699829    0.03000000    0.05000000
   17.29749870  172.07899475    0.03000000    0.05000000
   17.30055428  153.03700256    0.03000000    0.05000000
   17.30388832  163.87699890    0.03000000    0.05000000
   17.30722237  161.69299316    0.03000000    0.05000000
   17.31055450  148.60000610    0.03000000    0.05000000
   17.31638718  148.60000610    0.03000000    0.05000000
   17.32055664  146.52299500    0.03000000    0.05000000
   17.32361221  133.91700745    0.03000000    0.05000000
   17.32694626  141.11000061    0.03000000    0.05000000
   17.33027840  148.34399414    0.03000000    0.05000000
   17.33333397  159.30299377    0.03000000    0.05000000
   17.33666801  153.73899841    0.03000000    0.05000000
   17.34000015  159.42799377    0.03000000    0.05000000
   17.34305573  156.13900757    0.03000000    0.05000000
   17.34638977  158.52000427    0.03000000    0.05000000
   17.34749985  153.41000366    0.03000000    0.05000000
   17.35000038  155.77400208    0.03000000    0.05000000
   17.35333443  150.54800415    0.03000000    0.05000000
   17.35916710  150.54800415    0.03000000    0.05000000
   17.36333466  146.39199829    0.03000000    0.05000000
   17.36666679  146.65800476    0.03000000    0.05000000
   17.36972237  149.65899658    0.03000000    0.05000000
   17.37305641  144.16299438    0.03000000    0.05000000
   17.37638855  154.02099609    0.03000000    0.05000000
   17.37944412  147.09199524    0.03000000    0.05000000
   17.38083267  148.43699646    0.03000000    0.05000000
   17.38305473  152.17799377    0.03000000    0.05000000
   17.38638878  150.74800110    0.03000000    0.05000000
   17.38944435  162.79699707    0.03000000    0.05000000
   17.39277840  168.89999390    0.03000000    0.05000000
   17.39611053  154.74600220    0.03000000    0.05000000
   17.40222168  154.74600220    0.03000000    0.05000000
   17.40611076  160.63800049    0.03000000    0.05000000
   17.40944481  167.42500305    0.03000000    0.05000000
   17.41277695  152.67599487    0.03000000    0.05000000
   17.41444397  169.43800354    0.03000000    0.05000000
   17.41638756  160.51699829    0.03000000    0.05000000
   17.41972160  173.01100159    0.03000000    0.05000000
   17.42277718  164.98699951    0.03000000    0.05000000
   17.42611122  174.02099609    0.03000000    0.05000000
   17.42944336  158.00100708    0.03000000    0.05000000
   17.43249893  159.57699585    0.03000000    0.05000000
   17.43583298  151.24699402    0.03000000    0.05000000
   17.43888855  160.54699707    0.03000000    0.05000000
   17.44499969  160.54699707    0.03000000    0.05000000
   17.44916534  145.33700562    0.03000000    0.05000000
   17.45222282  140.55700684    0.03000000    0.05000000
   17.45555687  146.43899536    0.03000000    0.05000000
   17.45888901  146.17700195    0.03000000    0.05000000
   17.46194458  154.29200745    0.03000000    0.05000000
   17.46527863  160.37300110    0.03000000    0.05000000
   17.46833420  149.82000732    0.03000000    0.05000000
   17.47166634  160.21400452    0.03000000    0.05000000
   17.47500038  152.87399292    0.03000000    0.05000000
   17.47805595  153.84899902    0.03000000    0.05000000
   17.48111153  156.22099304    0.03000000    0.05000000
   17.48166656  156.41799927    0.03000000    0.05000000
   17.48777771  156.41799927    0.03000000    0.05000000
   17.49194527  146.86999512    0.03000000    0.05000000
   17.49527740  157.17599487    0.03000000    0.05000000
   17.49833298  150.71899414    0.03000000    0.05000000
   17.50166702  153.89199829    0.03000000    0.05000000
   17.50499916  147.83599854    0.03000000    0.05000000
   17.50805473  144.31599426    0.03000000    0.05000000
   17.51138878  141.59800720    0.03000000    0.05000000
   17.51444435  152.87500000    0.03000000    0.05000000
   17.51499939  148.72200012    0.03000000    0.05000000
   17.51833344  146.87600708    0.03000000    0.05000000
   17.52138901  151.21699524    0.03000000    0.05000000
   17.52472115  151.89799500    0.03000000    0.05000000
   17.53055573  151.89799500    0.03000000    0.05000000
   17.53472137  147.41400146    0.03000000    0.05000000
   17.53805542  153.54899597    0.03000000    0.05000000
   17.54111099  154.38400269    0.03000000    0.05000000
   17.54444313  150.55999756    0.03000000    0.05000000
   17.54777718  143.78100586    0.03000000    0.05000000
   17.54833221  146.22399902    0.03000000    0.05000000
   17.55138779  141.47599792    0.03000000    0.05000000
   17.55472183  149.02499390    0.03000000    0.05000000
   17.55805397  148.19799805    0.03000000    0.05000000
   17.56110954  143.88499451    0.03000000    0.05000000
   17.56444359  153.38999939    0.03000000    0.05000000
   17.56750107  146.65499878    0.03000000    0.05000000
   17.57361221  146.65499878    0.03000000    0.05000000
   17.57750130  147.17500305    0.03000000    0.05000000
   17.58083344  139.20100403    0.03000000    0.05000000
   17.58166695  137.29299927    0.03000000    0.05000000
   17.58444595  150.49600220    0.03000000    0.05000000
   17.58777809  148.08099365    0.03000000    0.05000000
   17.59111214  143.94000244    0.03000000    0.05000000
   17.59416771  152.93499756    0.03000000    0.05000000
   17.59749985  155.20799255    0.03000000    0.05000000
   17.60055542  163.05900574    0.03000000    0.05000000
   17.60388947  157.23300171    0.03000000    0.05000000
   17.60722351  152.58500671    0.03000000    0.05000000
   17.61027908  153.66000366    0.03000000    0.05000000
   17.61638832  153.66000366    0.03000000    0.05000000
   17.62055588  148.77000427    0.03000000    0.05000000
   17.62361145  159.86500549    0.03000000    0.05000000
   17.62694550  155.16499329    0.03000000    0.05000000
   17.63027763  151.21299744    0.03000000    0.05000000
   17.63333321  166.51600647    0.03000000    0.05000000
   17.63666725  155.08500671    0.03000000    0.05000000
   17.63972282  150.44500732    0.03000000    0.05000000
   17.64305496  148.37500000    0.03000000    0.05000000
   17.64638901  147.66600037    0.03000000    0.05000000
   17.64833260  147.11999512    0.03000000    0.05000000
   17.64999962  158.38000488    0.03000000    0.05000000
   17.65333366  146.09100342    0.03000000    0.05000000
   17.65916634  146.09100342    0.03000000    0.05000000
   17.66333389  138.86700439    0.03000000    0.05000000
   17.66666603  157.75500488    0.03000000    0.05000000
   17.66972160  151.36599731    0.03000000    0.05000000
   17.67305565  147.40299988    0.03000000    0.05000000
   17.67611122  145.86099243    0.03000000    0.05000000
   17.67944336  143.25300598    0.03000000    0.05000000
   17.68166542  154.03199768    0.03000000    0.05000000
   17.68305397  155.17199707    0.03000000    0.05000000
   17.68638802  153.36000061    0.03000000    0.05000000
   17.68972206  149.77900696    0.03000000    0.05000000
   17.69277763  153.96000671    0.03000000    0.05000000
   17.69610977  147.59100342    0.03000000    0.05000000
   17.70194435  147.59100342    0.03000000    0.05000000
   17.70611191  160.56900024    0.03000000    0.05000000
   17.70944595  147.10299683    0.03000000    0.05000000
   17.71250153  149.32600403    0.03000000    0.05000000
   17.71500015  156.72000122    0.03000000    0.05000000
   17.71611214  159.74400330    0.03000000    0.05000000
   17.71944427  150.89199829    0.03000000    0.05000000
   17.72277832  146.81700134    0.03000000    0.05000000
   17.72583389  145.63600159    0.03000000    0.05000000
   17.72916794  140.19799805    0.03000000    0.05000000
   17.73222351  138.71200562    0.03000000    0.05000000
   17.73555565  138.00999451    0.03000000    0.05000000
   17.73888969  148.23300171    0.03000000    0.05000000
   17.74500084  148.23300171    0.03000000    0.05000000
   17.74888992  141.12100220    0.03000000    0.05000000
   17.75222206  145.80099487    0.03000000    0.05000000
   17.75555611  148.38699341    0.03000000    0.05000000
   17.75861168  141.42100525    0.03000000    0.05000000
   17.76194382  146.63699341    0.03000000    0.05000000
   17.76527786  148.18099976    0.03000000    0.05000000
   17.76833344  156.51400757    0.03000000    0.05000000
   17.77166557  149.49899292    0.03000000    0.05000000
   17.77472115  151.58500671    0.03000000    0.05000000
   17.77805519  136.78599548    0.03000000    0.05000000
   17.78138924  140.79400635    0.03000000    0.05000000
   17.78194427  140.87600708    0.03000000    0.05000000
   17.78777695  140.87600708    0.03000000    0.05000000
   17.79194450  148.85400391    0.03000000    0.05000000
   17.79500008  142.19400024    0.03000000    0.05000000
   17.79833221  145.92300415    0.03000000    0.05000000
   17.80138779  152.60099792    0.03000000    0.05000000
   17.80472183  159.95500183    0.03000000    0.05000000
   17.80805397  179.77600098    0.03000000    0.05000000
   17.81110954  164.49200439    0.03000000    0.05000000
   17.81444359  172.03399658    0.03000000    0.05000000
   17.81527710  178.42399597    0.03000000    0.05000000
   17.81805611  166.03300476    0.03000000    0.05000000
   17.82139015  186.69799805    0.03000000    0.05000000
   17.82472229  221.57000732    0.03000000    0.05000000
   17.83055687  221.57000732    0.03000000    0.05000000
   17.83472252  254.29600525    0.03000000    0.05000000
   17.83805656  264.71200562    0.03000000    0.05000000
   17.84111214  310.84600830    0.03000000    0.05000000
   17.84333420  314.11099243    0.03000000    0.05000000
   17.84444427  312.32901001    0.03000000    0.05000000
   17.84583473  345.27801514    0.03000000    0.05000000
   17.84722328  380.82400513    0.03000000    0.05000000
   17.84861183  397.01400757    0.03000000    0.05000000
   17.85000038  444.21600342    0.03000000    0.05000000
   17.85138893  455.44198608    0.03000000    0.05000000
   17.85277748  467.15399170    0.03000000    0.05000000
   17.85416794  479.07000732    0.03000000    0.05000000
   17.85555649  387.42800903    0.03000000    0.05000000
   17.85694504  234.54499817    0.03000000    0.05000000
   17.85722351  264.71200562    0.03000000    0.05000000
   17.85722351  310.84600830    0.03000000    0.05000000
   17.85722351  179.77600098    0.03000000    0.05000000
   17.85750008  164.49200439    0.03000000    0.05000000
   17.85750008  172.03399658    0.03000000    0.05000000
   17.85750008  166.03300476    0.03000000    0.05000000
   17.85777855  186.69799805    0.03000000    0.05000000
   17.85777855  221.57000732    0.03000000    0.05000000
   17.85805511  254.29600525    0.03000000    0.05000000
   17.85861206  151.60400391    0.03000000    0.05000000
   17.86166763  119.27600098    0.03000000    0.05000000
   17.86499977  110.88899994    0.03000000    0.05000000
   17.86805534   91.42099762    0.03000000    0.05000000
   17.87138939   84.66590118    0.03000000    0.05000000
   17.87777710   84.66590118    0.03000000    0.05000000
   17.88194466   -1.00000000    0.03000000    0.05000000
   17.88527679   -1.00000000    0.03000000    0.05000000
   17.88833237   -1.00000000    0.03000000    0.05000000
   17.89222145   -1.00000000    0.03000000    0.05000000
   17.89527702   -1.00000000    0.03000000    0.05000000
   17.89861107   -1.00000000    0.03000000    0.05000000
   17.90166664   -1.00000000    0.03000000    0.05000000
   17.90499878   -1.00000000    0.03000000    0.05000000
   17.90833282   -1.00000000    0.03000000    0.05000000
   17.91138840   -1.00000000    0.03000000    0.05000000
   17.91472244   -1.00000000    0.03000000    0.05000000
   17.92472076   -1.00000000    0.03000000    0.05000000
   17.92805481   -1.00000000    0.03000000    0.05000000
   17.93111038   -1.00000000    0.03000000    0.05000000
   17.93444443   -1.00000000    0.03000000    0.05000000
   17.93777657  171.31700134    0.03000000    0.05000000
   17.94083214  164.32499695    0.03000000    0.05000000
   17.94416618   -1.00000000    0.03000000    0.05000000
   17.94722176   -1.00000000    0.03000000    0.05000000
   17.95055580   -1.00000000    0.03000000    0.05000000
   17.95388985   -1.00000000    0.03000000    0.05000000
   17.95694542   -1.00000000    0.03000000    0.05000000
   17.96750069   -1.00000000    0.03000000    0.05000000
   17.97083473   -1.00000000    0.03000000    0.05000000
   17.97389030   -1.00000000    0.03000000    0.05000000
   17.97722244  431.76501465    0.03000000    0.05000000
   17.97916794  482.60198975    0.03000000    0.05000000
   17.98055649  473.17599487    0.03000000    0.05000000
   17.98194504  164.08700562    0.03000000    0.05000000
   17.98194504   -1.00000000    0.03000000    0.05000000
   17.98222351   -1.00000000    0.03000000    0.05000000
   17.98222351   -1.00000000    0.03000000    0.05000000
   17.98222351  431.76501465    0.03000000    0.05000000
   17.98250008   -1.00000000    0.03000000    0.05000000
   17.98250008   -1.00000000    0.03000000    0.05000000
   17.98277855   -1.00000000    0.03000000    0.05000000
   17.98277855   -1.00000000    0.03000000    0.05000000
   17.98277855   -1.00000000    0.03000000    0.05000000
   17.98333359  156.55099487    0.03000000    0.05000000
   17.98666763  174.15499878    0.03000000    0.05000000
   17.98999977   -1.00000000    0.03000000    0.05000000
   17.99305534   -1.00000000    0.03000000    0.05000000
   17.99638939   -1.00000000    0.03000000    0.05000000
   18.00666618   -1.00000000    0.03000000    0.05000000
   18.01000023   -1.00000000    0.03000000    0.05000000
   18.01333427   -1.00000000    0.03000000    0.05000000
   18.01666641   -1.00000000    0.03000000    0.05000000
   18.02000046   -1.00000000    0.03000000    0.05000000
   18.02333260   -1.00000000    0.03000000    0.05000000
   18.02638817  159.26899719    0.03000000    0.05000000
   18.02972221  167.70899963    0.03000000    0.05000000
   18.03277779   -1.00000000    0.03000000    0.05000000
   18.03610992   -1.00000000    0.03000000    0.05000000
   18.03944397   -1.00000000    0.03000000    0.05000000
   18.04972076   -1.00000000    0.03000000    0.05000000
   18.05277634   -1.00000000    0.03000000    0.05000000
   18.05611038   -1.00000000    0.03000000    0.05000000
   18.05944443   -1.00000000    0.03000000    0.05000000
   18.06250000   -1.00000000    0.03000000    0.05000000
   18.06583214   -1.00000000    0.03000000    0.05000000
   18.06916809   -1.00000000    0.03000000    0.05000000
   18.07222366  163.83900452    0.03000000    0.05000000
   18.07555580  157.04400635    0.03000000    0.05000000
   18.07861137   -1.00000000    0.03000000    0.05000000
   18.08194542   -1.00000000    0.03000000    0.05000000
   18.09250069   -1.00000000    0.03000000    0.05000000
   18.09583473   -1.00000000    0.03000000    0.05000000
   18.09889030   -1.00000000    0.03000000    0.05000000
   18.10222244   -1.00000000    0.03000000    0.05000000
   18.10555649   -1.00000000    0.03000000    0.05000000
   18.10861206   -1.00000000    0.03000000    0.05000000
   18.11194420   -1.00000000    0.03000000    0.05000000
   18.11499977   -1.00000000    0.03000000    0.05000000
   18.11583328  163.53500366    0.03000000    0.05000000
   18.11888885  157.84800720    0.03000000    0.05000000
   18.12194443   -1.00000000    0.03000000    0.05000000
   18.12527847   -1.00000000    0.03000000    0.05000000
   18.13527679   -1.00000000    0.03000000    0.05000000
   18.13861084   -1.00000000    0.03000000    0.05000000
   18.14166641   -1.00000000    0.03000000    0.05000000
   18.14500046   -1.00000000    0.03000000    0.05000000
   18.14833260   -1.00000000    0.03000000    0.05000000
   18.15166664   -1.00000000    0.03000000    0.05000000
   18.15499878   -1.00000000    0.03000000    0.05000000
   18.15833282   -1.00000000    0.03000000    0.05000000
   18.16138840   -1.00000000    0.03000000    0.05000000
   18.16472244   -1.00000000    0.03000000    0.05000000
   18.16805458   -1.00000000    0.03000000    0.05000000
   18.19249916   -1.00000000    0.03000000    0.05000000
   18.19583321   -1.00000000    0.03000000    0.05000000
   18.19916534   -1.00000000    0.03000000    0.05000000
   18.20222282   -1.00000000    0.03000000    0.05000000
   18.20555687   -1.00000000    0.03000000    0.05000000
   18.20861244   -1.00000000    0.03000000    0.05000000
   18.21194458   -1.00000000    0.03000000    0.05000000
   18.21527863   -1.00000000    0.03000000    0.05000000
   18.21833420   -1.00000000    0.03000000    0.05000000
   18.22194481   -1.00000000    0.03000000    0.05000000
   18.22527885   -1.00000000    0.03000000    0.05000000
   18.23527718   -1.00000000    0.03000000    0.05000000
   18.23861122   -1.00000000    0.03000000    0.05000000
   18.24194527   -1.00000000    0.03000000    0.05000000
   18.24500084   -1.00000000    0.03000000    0.05000000
   18.24833298   -1.00000000    0.03000000    0.05000000
   18.25138855   -1.00000000    0.03000000    0.05000000
   18.25499916   -1.00000000    0.03000000    0.05000000
   18.25833321   -1.00000000    0.03000000    0.05000000
   18.26138878   -1.00000000    0.03000000    0.05000000
   18.26472282   -1.00000000    0.03000000    0.05000000
   18.26777840   -1.00000000    0.03000000    0.05000000
   18.27833366   -1.00000000    0.03000000    0.05000000
   18.28138924   -1.00000000    0.03000000    0.05000000
   18.28472137   -1.00000000    0.03000000    0.05000000
   18.28833199   -1.00000000    0.03000000    0.05000000
   18.29138756   -1.00000000    0.03000000    0.05000000
   18.29472160   -1.00000000    0.03000000    0.05000000
   18.29805565   -1.00000000    0.03000000    0.05000000
   18.30111122   -1.00000000    0.03000000    0.05000000
   18.30444336   -1.00000000    0.03000000    0.05000000
   18.30777740   -1.00000000    0.03000000    0.05000000
   18.31083298   -1.00000000    0.03000000    0.05000000
   18.32111168   -1.00000000    0.03000000    0.05000000
   18.32416725   -1.00000000    0.03000000    0.05000000
   18.32750130   -1.00000000    0.03000000    0.05000000
   18.33083344   -1.00000000    0.03000000    0.05000000
   18.33388901   -1.00000000    0.03000000    0.05000000
   18.33722305   -1.00000000    0.03000000    0.05000000
   18.34027863   -1.00000000    0.03000000    0.05000000
   18.34361267   -1.00000000    0.03000000    0.05000000
   18.34694481   -1.00000000    0.03000000    0.05000000
   18.35000038   -1.00000000    0.03000000    0.05000000
   18.35361099   -1.00000000    0.03000000    0.05000000
   18.36388969   -1.00000000    0.03000000    0.05000000
   18.36722183   -1.00000000    0.03000000    0.05000000
   18.37027740   -1.00000000    0.03000000    0.05000000
   18.37361145   -1.00000000    0.03000000    0.05000000
   18.37666702   -1.00000000    0.03000000    0.05000000
   18.38000107   -1.00000000    0.03000000    0.05000000
   18.38333321   -1.00000000    0.03000000    0.05000000
   18.38694382   -1.00000000    0.03000000    0.05000000
   18.38999939   -1.00000000    0.03000000    0.05000000
   18.39333344   -1.00000000    0.03000000    0.05000000
   18.39666748   -1.00000000    0.03000000    0.05000000
   18.40666580   -1.00000000    0.03000000    0.05000000
   18.40999985   -1.00000000    0.03000000    0.05000000
   18.41305542   -1.00000000    0.03000000    0.05000000
   18.41638756   -1.00000000    0.03000000    0.05000000
   18.42000008   -1.00000000    0.03000000    0.05000000
   18.42305565   -1.00000000    0.03000000    0.05000000
   18.42638779   -1.00000000    0.03000000    0.05000000
   18.42972183   -1.00000000    0.03000000    0.05000000
   18.43277740   -1.00000000    0.03000000    0.05000000
   18.43610954   -1.00000000    0.03000000    0.05000000
   18.43944359   -1.00000000    0.03000000    0.05000000
   18.44972038   -1.00000000    0.03000000    0.05000000
   18.45333481   -1.00000000    0.03000000    0.05000000
   18.45639038   -1.00000000    0.03000000    0.05000000
   18.45972252   -1.00000000    0.03000000    0.05000000
   18.46305656   -1.00000000    0.03000000    0.05000000
   18.46611214   -1.00000000    0.03000000    0.05000000
   18.46944427   -1.00000000    0.03000000    0.05000000
   18.47277832   -1.00000000    0.03000000    0.05000000
   18.47583389   -1.00000000    0.03000000    0.05000000
   18.47916794   -1.00000000    0.03000000    0.05000000
   18.48222351   -1.00000000    0.03000000    0.05000000
   18.49250031   -1.00000000    0.03000000    0.05000000
   18.49555588   -1.00000000    0.03000000    0.05000000
   18.49888992   -1.00000000    0.03000000    0.05000000
   18.50222206   -1.00000000    0.03000000    0.05000000
   18.50527763   -1.00000000    0.03000000    0.05000000
   18.50861168   -1.00000000    0.03000000    0.05000000
   18.51194382   -1.00000000    0.03000000    0.05000000
   18.51499939   -1.00000000    0.03000000    0.05000000
   18.51833344   -1.00000000    0.03000000    0.05000000
   18.52194405   -1.00000000    0.03000000    0.05000000
   18.52499962   -1.00000000    0.03000000    0.05000000
   18.53527641   -1.00000000    0.03000000    0.05000000
   18.53861046   -1.00000000    0.03000000    0.05000000
   18.54166603   -1.00000000    0.03000000    0.05000000
   18.54500008   -1.00000000    0.03000000    0.05000000
   18.54833221   -1.00000000    0.03000000    0.05000000
   18.55138779   -1.00000000    0.03000000    0.05000000
   18.55499840   -1.00000000    0.03000000    0.05000000
   18.55805397   -1.00000000    0.03000000    0.05000000
   18.56138802   -1.00000000    0.03000000    0.05000000
   18.56472206   -1.00000000    0.03000000    0.05000000
   18.56777954   -1.00000000    0.03000000    0.05000000
   18.57805634   -1.00000000    0.03000000    0.05000000
   18.58139038   -1.00000000    0.03000000    0.05000000
   18.58444595   -1.00000000    0.03000000    0.05000000
   18.58833313   -1.00000000    0.03000000    0.05000000
   18.59138870   -1.00000000    0.03000000    0.05000000
   18.59472275   -1.00000000    0.03000000    0.05000000
   18.59805679   -1.00000000    0.03000000    0.05000000
   18.60111237   -1.00000000    0.03000000    0.05000000
   18.60444450   -1.00000000    0.03000000    0.05000000
   18.60750008   -1.00000000    0.03000000    0.05000000
   18.61083412   -1.00000000    0.03000000    0.05000000
   18.62083435   -1.00000000    0.03000000    0.05000000
   18.62416649   -1.00000000    0.03000000    0.05000000
   18.62750053   -1.00000000    0.03000000    0.05000000
   18.63055611   -1.00000000    0.03000000    0.05000000
   18.63388824   -1.00000000    0.03000000    0.05000000
   18.63722229   -1.00000000    0.03000000    0.05000000
   18.64027786   -1.00000000    0.03000000    0.05000000
   18.64361191   -1.00000000    0.03000000    0.05000000
   18.64666748   -1.00000000    0.03000000    0.05000000
   18.64999962   -1.00000000    0.03000000    0.05000000
   18.65361023   -1.00000000    0.03000000    0.05000000
   18.66388893   -1.00000000    0.03000000    0.05000000
   18.66694450   -1.00000000    0.03000000    0.05000000
   18.67027664   -1.00000000    0.03000000    0.05000000
   18.67361069   -1.00000000    0.03000000    0.05000000
   18.67666626   -1.00000000    0.03000000    0.05000000
   18.68000031   -1.00000000    0.03000000    0.05000000
   18.68305397   -1.00000000    0.03000000    0.05000000
   18.68694305   -1.00000000    0.03000000    0.05000000
   18.68999863   -1.00000000    0.03000000    0.05000000
   18.69333267   -1.00000000    0.03000000    0.05000000
   18.69638824   -1.00000000    0.03000000    0.05000000
   18.70666695   -1.00000000    0.03000000    0.05000000
   18.70972252   -1.00000000    0.03000000    0.05000000
   18.71305656   -1.00000000    0.03000000    0.05000000
   18.71638870   -1.00000000    0.03000000    0.05000000
   18.71944427   -1.00000000    0.03000000    0.05000000
   18.72333336   -1.00000000    0.03000000    0.05000000
   18.72638893   -1.00000000    0.03000000    0.05000000
   18.72972298   -1.00000000    0.03000000    0.05000000
   18.73277855   -1.00000000    0.03000000    0.05000000
   18.73611069   -1.00000000    0.03000000    0.05000000
   18.73944473   -1.00000000    0.03000000    0.05000000
   18.74944496   -1.00000000    0.03000000    0.05000000
   18.75277710   -1.00000000    0.03000000    0.05000000
   18.75638962   -1.00000000    0.03000000    0.05000000
   18.75944519   -1.00000000    0.03000000    0.05000000
   18.76277733   -1.00000000    0.03000000    0.05000000
   18.76583290   -1.00000000    0.03000000    0.05000000
   18.76916695   -1.00000000    0.03000000    0.05000000
   18.77249908   -1.00000000    0.03000000    0.05000000
   18.77555466   -1.00000000    0.03000000    0.05000000
   18.77888870   -1.00000000    0.03000000    0.05000000
   18.78222275  151.14799500    0.03000000    0.05000000
   18.78833199  151.14799500    0.03000000    0.05000000
   18.79249954  149.15199280    0.03000000    0.05000000
   18.79555511  156.77400208    0.03000000    0.05000000
   18.79888916  153.21200562    0.03000000    0.05000000
   18.80222130  153.23800659    0.03000000    0.05000000
   18.80527687  156.22599792    0.03000000    0.05000000
   18.80861092  144.39799500    0.03000000    0.05000000
   18.81194305  145.26600647    0.03000000    0.05000000
   18.81499863   95.15630341    0.03000000    0.05000000
   18.81833458  150.55499268    0.03000000    0.05000000
   18.82000160  154.81900024    0.03000000    0.05000000
   18.82194519  148.53300476    0.03000000    0.05000000
   18.82527924  134.28399658    0.03000000    0.05000000
   18.83111191  134.28399658    0.03000000    0.05000000
   18.83527756  145.88699341    0.03000000    0.05000000
   18.83861160  138.86199951    0.03000000    0.05000000
   18.84166718   83.22679901    0.03000000    0.05000000
   18.84500122  140.60699463    0.03000000    0.05000000
   18.84805679  146.13200378    0.03000000    0.05000000
   18.85138893  139.83799744    0.03000000    0.05000000
   18.85333443  141.61099243    0.03000000    0.05000000
   18.85499954  148.45500183    0.03000000    0.05000000
   18.85833359  136.11399841    0.03000000    0.05000000
   18.86138916  147.87300110    0.03000000    0.05000000
   18.86472321  145.81900024    0.03000000    0.05000000
   18.86805534  148.23800659    0.03000000    0.05000000
   18.87388992  148.23800659    0.03000000    0.05000000
   18.87805557  148.16999817    0.03000000    0.05000000
   18.88138962  147.86000061    0.03000000    0.05000000
   18.88444519  147.16299438    0.03000000    0.05000000
   18.88666725  146.70599365    0.03000000    0.05000000
   18.88805580  150.67900085    0.03000000    0.05000000
   18.89138794  154.44500732    0.03000000    0.05000000
   18.89444351  145.96899414    0.03000000    0.05000000
   18.89777756  149.44299316    0.03000000    0.05000000
   18.90111160  154.11900330    0.03000000    0.05000000
   18.90416718  150.03100586    0.03000000    0.05000000
   18.90749931  150.08900452    0.03000000    0.05000000
   18.91083336  146.08299255    0.03000000    0.05000000
   18.91694450  146.08299255    0.03000000    0.05000000
   18.92083359  141.86700439    0.03000000    0.05000000
   18.92416573  143.78999329    0.03000000    0.05000000
   18.92749977  140.51800537    0.03000000    0.05000000
   18.93055534  137.20399475    0.03000000    0.05000000
   18.93388748  143.00100708    0.03000000    0.05000000
   18.93722153  151.96899414    0.03000000    0.05000000
   18.94027710  155.49600220    0.03000000    0.05000000
   18.94361115  154.15600586    0.03000000    0.05000000
   18.94666672  141.90499878    0.03000000    0.05000000
   18.95000076  141.76800537    0.03000000    0.05000000
   18.95333481  140.66499329    0.03000000    0.05000000
   18.95388985  152.00399780    0.03000000    0.05000000
   18.95972252  152.00399780    0.03000000    0.05000000
   18.96389008  149.29800415    0.03000000    0.05000000
   18.96694565  151.99099731    0.03000000    0.05000000
   18.97027779  124.52899933    0.03000000    0.05000000
   18.97361183  149.55999756    0.03000000    0.05000000
   18.97666740  144.16499329    0.03000000    0.05000000
   18.98000145  147.46600342    0.03000000    0.05000000
   18.98305511  151.00000000    0.03000000    0.05000000
   18.98638916  141.58599854    0.03000000    0.05000000
   18.98722267  144.89199829    0.03000000    0.05000000
   18.98999977  142.22200012    0.03000000    0.05000000
   18.99333382  148.88800049    0.03000000    0.05000000
   18.99666786  141.67900085    0.03000000    0.05000000
   19.00250053  141.67900085    0.03000000    0.05000000
   19.00666618  146.89500427    0.03000000    0.05000000
   19.01000023  143.03999329    0.03000000    0.05000000
   19.01305580  143.71499634    0.03000000    0.05000000
   19.01638794  148.01400757    0.03000000    0.05000000
   19.01944351  137.86500549    0.03000000    0.05000000
   19.02055550  144.60699463    0.03000000    0.05000000
   19.02305603  147.97500610    0.03000000    0.05000000
   19.02638817  134.19599915    0.03000000    0.05000000
   19.02944374  145.82400513    0.03000000    0.05000000
   19.03277779  152.44599915    0.03000000    0.05000000
   19.03610992  146.19599915    0.03000000    0.05000000
   19.03916550  148.42300415    0.03000000    0.05000000
   19.04527664  148.42300415    0.03000000    0.05000000
   19.04944420  137.30700684    0.03000000    0.05000000
   19.05277634  130.34899902    0.03000000    0.05000000
   19.05388832  138.98199463    0.03000000    0.05000000
   19.05638885  146.21899414    0.03000000    0.05000000
   19.05972099  137.45799255    0.03000000    0.05000000
   19.06277657  159.08900452    0.03000000    0.05000000
   19.06611061  154.08799744    0.03000000    0.05000000
   19.06944466  138.72700500    0.03000000    0.05000000
   19.07250023  138.95300293    0.03000000    0.05000000
   19.07583427  121.33300018    0.03000000    0.05000000
   19.07916832  133.88000488    0.03000000    0.05000000
   19.08222389  128.68099976    0.03000000    0.05000000
   19.08833313  128.68099976    0.03000000    0.05000000
   19.09222221  134.52099609    0.03000000    0.05000000
   19.09555626  134.99800110    0.03000000    0.05000000
   19.09889030  137.13000488    0.03000000    0.05000000
   19.10194397  134.72700500    0.03000000    0.05000000
   19.10527802  142.97000122    0.03000000    0.05000000
   19.10833359  136.11099243    0.03000000    0.05000000
   19.11166763  126.69699860    0.03000000    0.05000000
   19.11499977  151.86099243    0.03000000    0.05000000
   19.11805534  140.79200745    0.03000000    0.05000000
   19.12055588  137.91700745    0.03000000    0.05000000
   19.12166595  130.88299561    0.03000000    0.05000000
   19.12500000  147.76100159    0.03000000    0.05000000
   19.13111115  147.76100159    0.03000000    0.05000000
   19.13527679  143.54899597    0.03000000    0.05000000
   19.13833237  133.50700378    0.03000000    0.05000000
   19.14166641  134.83200073    0.03000000    0.05000000
   19.14472198  141.59800720    0.03000000    0.05000000
   19.14805603  128.37600708    0.03000000    0.05000000
   19.15138817  137.45500183    0.03000000    0.05000000
   19.15388870  140.15199280    0.03000000    0.05000000
   19.15499878  153.14500427    0.03000000    0.05000000
   19.15833282  138.73500061    0.03000000    0.05000000
   19.16138840  143.26699829    0.03000000    0.05000000
   19.16472244  135.10099792    0.03000000    0.05000000
   19.16805458  130.83099365    0.03000000    0.05000000
   19.17388916  130.83099365    0.03000000    0.05000000
   19.17805481  148.41700745    0.03000000    0.05000000
   19.18111038  134.11900330    0.03000000    0.05000000
   19.18444443  136.02999878    0.03000000    0.05000000
   19.20194435  151.82000732    0.03000000    0.05000000
   19.20444489  148.73199463    0.03000000    0.05000000
   19.20777893  143.52200317    0.03000000    0.05000000
   19.21083450  146.38800049    0.03000000    0.05000000
   19.21694565  146.38800049    0.03000000    0.05000000
   19.22111130  156.89999390    0.03000000    0.05000000
   19.22416687  144.30099487    0.03000000    0.05000000
   19.22750092  144.29499817    0.03000000    0.05000000
   19.23083305  141.92999268    0.03000000    0.05000000
   19.23388863  141.05700684    0.03000000    0.05000000
   19.23527718  142.30499268    0.03000000    0.05000000
   19.23777771  144.84899902    0.03000000    0.05000000
   19.24083328  143.21600342    0.03000000    0.05000000
   19.24416733  144.42100525    0.03000000    0.05000000
   19.24722290  147.47099304    0.03000000    0.05000000
   19.25055504  145.61199951    0.03000000    0.05000000
   19.25388908  143.94000244    0.03000000    0.05000000
   19.25972176  143.94000244    0.03000000    0.05000000
   19.26388931  145.22900391    0.03000000    0.05000000
   19.26722145  135.72799683    0.03000000    0.05000000
   19.26861000  144.24899292    0.03000000    0.05000000
   19.27083397  134.97399902    0.03000000    0.05000000
   19.27388954  134.29100037    0.03000000    0.05000000
   19.27722168  139.91299438    0.03000000    0.05000000
   19.28027725  129.86799622    0.03000000    0.05000000
   19.28361130  138.86199951    0.03000000    0.05000000
   19.28694344  136.06599426    0.03000000    0.05000000
   19.28999901  147.53300476    0.03000000    0.05000000
   19.29333305  144.93299866    0.03000000    0.05000000
   19.29666710  139.93299866    0.03000000    0.05000000
   19.30249977  139.93299866    0.03000000    0.05000000
   19.30666542  145.21699524    0.03000000    0.05000000
   19.30999947  152.27999878    0.03000000    0.05000000
   19.31305504  133.47500610    0.03000000    0.05000000
   19.31638718  141.27400208    0.03000000    0.05000000
   19.31972313  136.20100403    0.03000000    0.05000000
   19.32277870  141.99800110    0.03000000    0.05000000
   19.32611275  136.06100464    0.03000000    0.05000000
   19.32944489  144.96899414    0.03000000    0.05000000
   19.33250046  150.01100159    0.03000000    0.05000000
   19.33527756  141.57800293    0.03000000    0.05000000
   19.33638954  136.35000610    0.03000000    0.05000000
   19.33944511  130.92999268    0.03000000    0.05000000
   19.34555626  130.92999268    0.03000000    0.05000000
   19.34944534  129.77000427    0.03000000    0.05000000
   19.35277748  130.49600220    0.03000000    0.05000000
   19.35611153  149.90699768    0.03000000    0.05000000
   19.35916710  127.50399780    0.03000000    0.05000000
   19.36250114  140.18200684    0.03000000    0.05000000
   19.36583328  143.04400635    0.03000000    0.05000000
   19.36861038  133.39799500    0.03000000    0.05000000
   19.36944389  143.91600037    0.03000000    0.05000000
   19.37249947  129.54100037    0.03000000    0.05000000
   19.37583351  126.47499847    0.03000000    0.05000000
   19.37888908  139.30099487    0.03000000    0.05000000
   19.38222313  127.97899628    0.03000000    0.05000000
   19.38833237  127.97899628    0.03000000    0.05000000
   19.39249992  126.78900146    0.03000000    0.05000000
   19.39555550  136.79600525    0.03000000    0.05000000
   19.39888954  134.45100403    0.03000000    0.05000000
   19.40194321  143.82200623    0.03000000    0.05000000
   19.40250015  150.33099365    0.03000000    0.05000000
   19.40555573  144.05099487    0.03000000    0.05000000
   19.40888786  138.41700745    0.03000000    0.05000000
   19.41194344  141.15299988    0.03000000    0.05000000
   19.41527748  146.79699707    0.03000000    0.05000000
   19.41860962  128.26600647    0.03000000    0.05000000
   19.42166519  154.21600342    0.03000000    0.05000000
   19.42499924  145.19200134    0.03000000    0.05000000
   19.43111038  145.19200134    0.03000000    0.05000000
   19.43527603  129.68099976    0.03000000    0.05000000
   19.43861008  140.51899719    0.03000000    0.05000000
   19.44166565  144.80200195    0.03000000    0.05000000
   19.44499969  141.29400635    0.03000000    0.05000000
   19.44805527  152.59100342    0.03000000    0.05000000
   19.45138931  149.63200378    0.03000000    0.05000000
   19.45472336  148.17300415    0.03000000    0.05000000
   19.45777893  138.79600525    0.03000000    0.05000000
   19.46111107  137.61700439    0.03000000    0.05000000
   19.46444511  148.00700378    0.03000000    0.05000000
   19.46750069  137.89900208    0.03000000    0.05000000
   19.46861076  138.14399719    0.03000000    0.05000000
   19.47389030  138.14399719    0.03000000    0.05000000
   19.47805595  155.02400208    0.03000000    0.05000000
   19.48139000  149.79299927    0.03000000    0.05000000
   19.48472214  149.19200134    0.03000000    0.05000000
   19.48777771  147.43299866    0.03000000    0.05000000
   19.49111176  151.10800171    0.03000000    0.05000000
   19.49416733  154.12800598    0.03000000    0.05000000
   19.49749947  148.03999329    0.03000000    0.05000000
   19.50083351  155.26800537    0.03000000    0.05000000
   19.50194359  153.78100586    0.03000000    0.05000000
   19.50444412  154.54600525    0.03000000    0.05000000
   19.50749969  155.16200256    0.03000000    0.05000000
   19.51083374  148.97399902    0.03000000    0.05000000
   19.51694489  148.97399902    0.03000000    0.05000000
   19.52083397  151.33299255    0.03000000    0.05000000
   19.52416611  153.78399658    0.03000000    0.05000000
   19.52750015  145.12500000    0.03000000    0.05000000
   19.53055573  136.79499817    0.03000000    0.05000000
   19.53388786  143.36999512    0.03000000    0.05000000
   19.53527641  146.26600647    0.03000000    0.05000000
   19.53750038  148.05799866    0.03000000    0.05000000
   19.54055595  146.56100464    0.03000000    0.05000000
   19.54388809  143.18600464    0.03000000    0.05000000
   19.54722214  138.73800659    0.03000000    0.05000000
   19.55027771  143.62199402    0.03000000    0.05000000
   19.55360985  140.49099731    0.03000000    0.05000000
   19.55972099  140.49099731    0.03000000    0.05000000
   19.56388855  145.26499939    0.03000000    0.05000000
   19.56694603  150.09199524    0.03000000    0.05000000
   19.56861115  142.69200134    0.03000000    0.05000000
   19.57083511  146.74000549    0.03000000    0.05000000
   19.57389069  144.85899353    0.03000000    0.05000000
   19.57722282  149.75500488    0.03000000    0.05000000
   19.58055687  148.90100098    0.03000000    0.05000000
   19.58361244  147.71600342    0.03000000    0.05000000
   19.58694458  134.27000427    0.03000000    0.05000000
   19.59027863  146.01300049    0.03000000    0.05000000
   19.59333420  141.86799622    0.03000000    0.05000000
   19.59666824  144.49499512    0.03000000    0.05000000
   19.60250092  144.49499512    0.03000000    0.05000000
   19.60666656  144.36799622    0.03000000    0.05000000
   19.61000061  145.78799438    0.03000000    0.05000000
   19.61305618  135.52699280    0.03000000    0.05000000
   19.61638832  142.96000671    0.03000000    0.05000000
   19.61944389  138.00799561    0.03000000    0.05000000
   19.62277794  139.90899658    0.03000000    0.05000000
   19.62611198  141.94599915    0.03000000    0.05000000
   19.62916756  134.44200134    0.03000000    0.05000000
   19.63249969  133.47399902    0.03000000    0.05000000
   19.63527679  133.68400574    0.03000000    0.05000000
   19.63611031  139.58500671    0.03000000    0.05000000
   19.63916588  134.53700256    0.03000000    0.05000000
   19.64527702  134.53700256    0.03000000    0.05000000
   19.64944458  140.38900757    0.03000000    0.05000000
   19.65277672  141.48699951    0.03000000    0.05000000
   19.65583229  142.76699829    0.03000000    0.05000000
   19.65916634  142.38299561    0.03000000    0.05000000
   19.66250038  135.90699768    0.03000000    0.05000000
   19.66555595  143.04899597    0.03000000    0.05000000
   19.66860962  159.79600525    0.03000000    0.05000000
   19.66944313  143.51899719    0.03000000    0.05000000
   19.67249870  141.00100708    0.03000000    0.05000000
   19.67583275  147.62600708    0.03000000    0.05000000
   19.67916679  142.72900391    0.03000000    0.05000000
   19.68222237  144.12699890    0.03000000    0.05000000
   19.68833160  144.12699890    0.03000000    0.05000000
   19.69222069  154.36099243    0.03000000    0.05000000
   19.69555473  153.54899597    0.03000000    0.05000000
   19.69888878  156.20599365    0.03000000    0.05000000
   19.70194435  147.52499390    0.03000000    0.05000000
   19.70250130  155.28199768    0.03000000    0.05000000
   19.70555687  141.69200134    0.03000000    0.05000000
   19.70888901  149.51199341    0.03000000    0.05000000
   19.71222305  154.50100708    0.03000000    0.05000000
   19.71527863  157.23100281    0.03000000    0.05000000
   19.71861076  153.12100220    0.03000000    0.05000000
   19.72166634  152.39100647    0.03000000    0.05000000
   19.72500038  138.77499390    0.03000000    0.05000000
   19.73111153  138.77499390    0.03000000    0.05000000
   19.73527718  150.50799561    0.03000000    0.05000000
   19.73583412  153.15800476    0.03000000    0.05000000
   19.73888969  153.58000183    0.03000000    0.05000000
   19.74222183  150.76100159    0.03000000    0.05000000
   19.74527740  145.87199402    0.03000000    0.05000000
   19.74861145  132.88600159    0.03000000    0.05000000
   19.75194359  145.14100647    0.03000000    0.05000000
   19.75499916  142.74699402    0.03000000    0.05000000
   19.75833321  143.10200500    0.03000000    0.05000000
   19.76166725  138.38800049    0.03000000    0.05000000
   19.76472282  142.79400635    0.03000000    0.05000000
   19.76805496  152.93099976    0.03000000    0.05000000
   19.76916695  140.76499939    0.03000000    0.05000000
   19.77388954  140.76499939    0.03000000    0.05000000
   19.77805519  144.80999756    0.03000000    0.05000000
   19.78111076  140.09300232    0.03000000    0.05000000
   19.78444481  142.72399902    0.03000000    0.05000000
   19.78777695  144.10800171    0.03000000    0.05000000
   19.79083252  149.03599548    0.03000000    0.05000000
   19.79416656  152.06599426    0.03000000    0.05000000
   19.79749870  140.70500183    0.03000000    0.05000000
   19.80055428  159.61000061    0.03000000    0.05000000
   19.80249977  142.24299622    0.03000000    0.05000000
   19.80416679  142.61000061    0.03000000    0.05000000
   19.80749893  141.05900574    0.03000000    0.05000000
   19.81055450  146.58399963    0.03000000    0.05000000
   19.81666756  146.58399963    0.03000000    0.05000000
   19.82083511  146.86799622    0.03000000    0.05000000
   19.82416725  145.75100708    0.03000000    0.05000000
   19.82722282  153.70700073    0.03000000    0.05000000
   19.83055687  146.28700256    0.03000000    0.05000000
   19.83388901  159.00300598    0.03000000    0.05000000
   19.83583450  165.40299988    0.03000000    0.05000000
   19.83722305  150.21200562    0.03000000    0.05000000
   19.84055710  169.67700195    0.03000000    0.05000000
   19.84361267  176.47799683    0.03000000    0.05000000
   19.84694481  174.81300354    0.03000000    0.05000000
   19.85027885  150.01600647    0.03000000    0.05000000
   19.85333443  144.42799377    0.03000000    0.05000000
   19.85972214  144.42799377    0.03000000    0.05000000
   19.86361122  144.38800049    0.03000000    0.05000000
   19.86694527  153.66200256    0.03000000    0.05000000
   19.86916733  166.64900208    0.03000000    0.05000000
   19.87055588  146.43299866    0.03000000    0.05000000
   19.87388992  157.95899963    0.03000000    0.05000000
   19.87694550  156.98899841    0.03000000    0.05000000
   19.88027763  151.39999390    0.03000000    0.05000000
   19.88361168  153.92399597    0.03000000    0.05000000
   19.88666725  146.31799316    0.03000000    0.05000000
