    HOUR (UT)   FLARE FACTOR    SKY TESTER    SUN TESTER
   11.09805489   -1.00000000   -1.00000000   -1.00000000
   11.13333321  174.34899902    1.36000001    1.53999996
   11.13861084  184.32600403    1.34000003    1.28999996
   11.14194393  157.41600037    1.33000004    1.14999998
   11.14499950  180.41000366    1.30999994    1.00000000
   11.14833355  184.11700439    1.28999996    0.89999998
   11.15138817  195.41600037    1.26999998    0.81999999
   11.15472221  177.55400085    1.25000000    0.79000002
   11.15805531  182.44999695    1.21000004    0.69000000
   11.16111088  190.16499329    1.19000006    0.64999998
   11.16444397  193.38200378    1.16999996    0.63000000
   11.16666698  206.21400452    1.16999996    0.63000000
   11.16805553  172.52799988    1.16999996    0.63000000
   11.17138958  200.38099670    1.14999998    0.64999998
   11.17472267  184.22799683    1.13000000    0.67000002
   11.17777824  185.13600159    1.11000001    0.69000000
   11.18111134  195.69000244    1.09000003    0.70999998
   11.18444443  190.64999390    1.09000003    0.73000002
   11.18750000  167.22799683    1.07000005    0.75000000
   11.19083309  212.40899658    1.07000005    0.75000000
   11.19388866  172.19099426    1.03999996    0.79000002
   11.19722271  186.63600159    1.03999996    0.79000002
   11.19999981  183.32299805    1.01999998    0.79000002
   11.20083332  173.12100220    1.01999998    0.79000002
   11.20416641  196.88499451    1.00000000    0.79000002
   11.20749950  176.59899902    1.00000000    0.79000002
   11.21055508  192.74000549    1.00000000    0.79000002
   11.21388912  208.50000000    0.95999998    0.79000002
   11.21722221  202.85800171    0.94000000    0.76999998
   11.22027779  197.55299377    0.94000000    0.76999998
   11.22361088  212.44299316    0.92000002    0.76999998
   11.22666645  198.04899597    0.92000002    0.76999998
   11.22999954  204.67199707    0.89999998    0.76999998
   11.23333359  173.57299805    0.88000000    0.76999998
   11.23361111  182.53199768    0.88000000    0.76999998
   11.23694515  192.42799377    0.88000000    0.76999998
   11.24027824  224.13499451    0.86000001    0.76999998
   11.24333382  163.76499939    0.86000001    0.76999998
   11.24666691  195.50199890    0.83999997    0.76999998
   11.25000000  198.28300476    0.83999997    0.75000000
   11.25305557  193.13600159    0.81999999    0.75000000
   11.25638866  203.57299805    0.80000001    0.75000000
   11.25944424  204.56199646    0.80000001    0.75000000
   11.26277733  191.69099426    0.79000002    0.75000000
   11.26611137  193.14700317    0.76999998    0.75000000
   11.26666641  198.86199951    0.79000002    0.75000000
   11.26944447  185.89199829    0.76999998    0.75000000
   11.27277756  190.20599365    0.76999998    0.75000000
   11.27611065  205.33500671    0.76999998    0.75000000
   11.27916622  194.20700073    0.75000000    0.73000002
   11.28249931  204.66499329    0.75000000    0.73000002
   11.28583336  181.87899780    0.75000000    0.73000002
   11.28888893  174.68600464    0.75000000    0.70999998
   11.29222298  202.65199280    0.75000000    0.70999998
   11.29555607  203.13200378    0.73000002    0.70999998
   11.29861164  182.75799561    0.73000002    0.70999998
   11.30000019  184.62399292    0.73000002    0.70999998
   11.30249977  181.62300110    0.70999998    0.69000000
   11.30555534  178.02400208    0.69000000    0.69000000
   11.30888939  191.17199707    0.69000000    0.67000002
   11.31194496  182.49299622    0.69000000    0.67000002
   11.31527805  181.72599792    0.69000000    0.67000002
   11.31861115  176.00900269    0.67000002    0.64999998
   11.32166672  187.67999268    0.67000002    0.63000000
   11.32499981  201.49499512    0.64999998    0.63000000
   11.32833290  185.13999939    0.64999998    0.63000000
   11.33138847  196.54899597    0.64999998    0.63000000
   11.33333302  194.02200317    0.63000000    0.61000001
   11.33527756  164.88900757    0.64999998    0.61000001
   11.33833313  155.57800293    0.63000000    0.61000001
   11.34166622  155.96099854    0.63000000    0.58999997
   11.34472179  156.01899719    0.63000000    0.58999997
   11.34805489  160.60699463    0.61000001    0.58999997
   11.35138893  172.99600220    0.61000001    0.58999997
   11.35444450  169.48500061    0.61000001    0.56999999
   11.35777855  170.62399292    0.61000001    0.56999999
   11.36111164  176.05700684    0.61000001    0.55000001
   11.36416721  187.58900452    0.58999997    0.55000001
   11.36666679  172.74000549    0.58999997    0.55000001
   11.36777782  174.10600281    0.58999997    0.55000001
   11.37111092  165.81199646    0.58999997    0.52999997
   11.37444496  179.75599670    0.58999997    0.52999997
   11.37750053  169.52900696    0.58999997    0.52999997
   11.38083363  167.10299683    0.56999999    0.52999997
   11.38416672  152.61700439    0.56999999    0.51999998
   11.38722229  171.03300476    0.56999999    0.51999998
   11.39055538  174.43400574    0.55000001    0.51999998
   11.39361095  160.81500244    0.55000001    0.50000000
   11.39694405  169.33500671    0.55000001    0.50000000
   11.39999962  162.65699768    0.55000001    0.50000000
   11.40055561  169.66400146    0.52999997    0.50000000
   11.40388870  172.23399353    0.52999997    0.50000000
   11.40722179  165.87300110    0.52999997    0.50000000
   11.41027737  187.62100220    0.52999997    0.47999999
   11.41361046  167.36300659    0.51999998    0.50000000
   11.41694450  175.57899475    0.52999997    0.50000000
   11.42000008  153.12600708    0.51999998    0.47999999
   11.42333412  165.58200073    0.51999998    0.47999999
   11.42638874  182.96099854    0.50000000    0.47999999
   11.42972279  149.10000610    0.50000000    0.50000000
   11.43305588  164.57299805    0.50000000    0.50000000
   11.43361092  175.22900391    0.50000000    0.47999999
   11.43666649  170.93499756    0.50000000    0.50000000
   11.44000053  167.68200684    0.50000000    0.50000000
   11.44305515  171.44599915    0.50000000    0.50000000
   11.44638920  155.34700012    0.47999999    0.50000000
   11.44972229  170.88499451    0.47999999    0.47999999
   11.45277786  155.09599304    0.47999999    0.47999999
   11.45611095  158.96699524    0.47999999    0.47999999
   11.45944405  168.56799316    0.47999999    0.47999999
   11.46249962  155.03399658    0.46000001    0.47999999
   11.46583271  160.13000488    0.47999999    0.47999999
   11.46694374  170.16999817    0.46000001    0.47999999
   11.46944427  158.37399292    0.46000001    0.47999999
   11.47277737  163.01400757    0.46000001    0.47999999
   11.47611046  166.19900513    0.46000001    0.46000001
   11.47916603  165.16099548    0.46000001    0.46000001
   11.48249912  159.28799438    0.46000001    0.46000001
   11.48555565  180.60899353    0.46000001    0.46000001
   11.48888874  159.13900757    0.44000000    0.46000001
   11.49222279  157.15899658    0.44000000    0.44000000
   11.49527836  176.88099670    0.44000000    0.44000000
   11.49861145  158.29499817    0.44000000    0.44000000
   11.50027752  158.78599548    0.44000000    0.44000000
   11.50222206  149.52699280    0.44000000    0.44000000
   11.50555515  168.42199707    0.44000000    0.44000000
   11.50888920  155.90800476    0.44000000    0.44000000
   11.51194477  151.32800293    0.44000000    0.41999999
   11.51527786  155.61199951    0.44000000    0.41999999
   11.51833344  156.71600342    0.44000000    0.41999999
   11.52166653  160.02799988    0.44000000    0.41999999
   11.52499962  148.66999817    0.44000000    0.41999999
   11.52805519  151.37300110    0.44000000    0.41999999
   11.53138828  156.06500244    0.41999999    0.41999999
   11.53361130  166.73699951    0.41999999    0.40000001
   11.53500080  164.12600708    0.41999999    0.41999999
   11.53833389  157.62199402    0.41999999    0.40000001
   11.54166698  161.50199890    0.44000000    0.40000001
   11.54472256  152.72599792    0.41999999    0.40000001
   11.54833412  160.80099487    0.41999999    0.40000001
   11.55166721  152.26499939    0.41999999    0.40000001
   11.55472279  156.86099243    0.41999999    0.40000001
   11.55805588  159.39199829    0.41999999    0.38000000
   11.56111145  158.10800171    0.41999999    0.38000000
   11.56444454  159.12600708    0.40000001    0.38000000
   11.56694412  163.74200439    0.40000001    0.38000000
   11.56805515  161.35600281    0.40000001    0.38000000
   11.57138920  164.14300537    0.40000001    0.38000000
   11.57472229  158.97799683    0.40000001    0.36000001
   11.57777786  158.97900391    0.40000001    0.36000001
   11.58111095  159.08200073    0.40000001    0.36000001
   11.58416653  156.84199524    0.38000000    0.36000001
   11.58749962  160.04600525    0.38000000    0.36000001
   11.59083271  147.16799927    0.38000000    0.36000001
   11.59388828  156.67900085    0.38000000    0.34000000
   11.59722233  161.30400085    0.38000000    0.34000000
   11.60027790  160.32699585    0.38000000    0.34000000
   11.60083389  161.09300232    0.38000000    0.34000000
   11.60416698  166.18400574    0.38000000    0.31999999
   11.60750008  161.16000366    0.38000000    0.31999999
   11.61055565  154.55499268    0.38000000    0.31999999
   11.61388969  161.92599487    0.38000000    0.31999999
   11.61694431  154.91000366    0.36000001    0.31999999
   11.62027836  163.34599304    0.36000001    0.31999999
   11.62361145  150.99200439    0.36000001    0.31999999
   11.62666702  151.45899963    0.36000001    0.30000001
   11.63000011  155.54499817    0.36000001    0.30000001
   11.63333321  150.86099243    0.36000001    0.30000001
   11.63361073  162.92799377    0.36000001    0.30000001
   11.63694477  152.77099609    0.36000001    0.30000001
   11.64027786  135.57099915    0.34000000    0.30000001
   11.64333344  154.02099609    0.34000000    0.28000000
   11.64666653  159.36799622    0.34000000    0.28000000
   11.64999962  161.54699707    0.34000000    0.28000000
   11.65305519  160.75999451    0.34000000    0.28000000
   11.65638828  165.46400452    0.34000000    0.25999999
   11.65972137  161.02499390    0.34000000    0.25999999
   11.66277695  155.06199646    0.34000000    0.25999999
   11.66611099  152.89500427    0.34000000    0.25999999
   11.66694450  149.23199463    0.34000000    0.25999999
   11.66972256  149.63299561    0.34000000    0.25000000
   11.67305565  156.58999634    0.34000000    0.25999999
   11.67611122  161.33500671    0.34000000    0.25000000
   11.67944431  153.17300415    0.31999999    0.25000000
   11.68277836  152.04600525    0.34000000    0.25000000
   11.68583298  151.62899780    0.34000000    0.25000000
   11.68916702  150.82200623    0.31999999    0.25000000
   11.69250011  148.17599487    0.31999999    0.23000000
   11.69555569  152.85899353    0.31999999    0.23000000
   11.69888878  147.18400574    0.31999999    0.23000000
   11.70027733  155.21699524    0.31999999    0.23000000
   11.70249939  156.04499817    0.31999999    0.23000000
   11.70583344  155.57099915    0.31999999    0.23000000
   11.70888901  151.85699463    0.31999999    0.20999999
   11.71222210  134.88299561    0.31999999    0.20999999
   11.71555519  152.41400146    0.31999999    0.20999999
   11.71861076  137.73399353    0.31999999    0.20999999
   11.72194386  148.58900452    0.31999999    0.20999999
   11.72527695  145.21299744    0.31999999    0.20999999
   11.72833252  150.54600525    0.31999999    0.19000000
   11.73166656  151.56300354    0.31999999    0.19000000
   11.73361111  151.08000183    0.30000001    0.19000000
   11.73527813  142.66999817    0.31999999    0.19000000
   11.73861122  152.01899719    0.31999999    0.19000000
   11.74166679  144.00700378    0.31999999    0.17000000
   11.74499989  142.49600220    0.30000001    0.17000000
   11.74833393  145.12300110    0.30000001    0.17000000
   11.75138855  153.56199646    0.30000001    0.17000000
   11.75472260  140.64999390    0.30000001    0.17000000
   11.75805569  149.78500366    0.30000001    0.17000000
   11.76111126  147.17199707    0.30000001    0.17000000
   11.76444435  148.33700562    0.30000001    0.15000001
   11.76722240  143.13600159    0.30000001    0.15000001
   11.76805496  138.60899353    0.30000001    0.15000001
   11.77138901  142.79899597    0.30000001    0.15000001
   11.77444458  147.56799316    0.30000001    0.13000000
   11.77777767  150.86500549    0.30000001    0.13000000
   11.78111076  147.89100647    0.30000001    0.13000000
   11.78416729  148.30200195    0.30000001    0.13000000
   11.78750038  159.78599548    0.28000000    0.13000000
   11.79083347  151.73599243    0.30000001    0.11000000
   11.79388905  155.07899475    0.28000000    0.11000000
   11.79722309  147.30499268    0.28000000    0.11000000
   11.80055618  150.01199341    0.28000000    0.11000000
   11.80083370  148.21699524    0.28000000    0.11000000
   11.80416679  143.66700745    0.28000000    0.09000000
   11.80722237  144.02499390    0.28000000    0.09000000
   11.81055546  149.37199402    0.28000000    0.09000000
   11.81388950  149.09300232    0.28000000    0.09000000
   11.81694412  152.65899658    0.28000000    0.09000000
   11.82027817  146.54299927    0.28000000    0.09000000
   11.82361126  146.93800354    0.28000000    0.09000000
   11.82666683  150.12699890    0.28000000    0.09000000
   11.82999992  148.42300415    0.28000000    0.09000000
   11.83305550  149.34800720    0.25999999    0.07000000
   11.83388901  150.55200195    0.25999999    0.07000000
   11.83666611  142.90699768    0.28000000    0.07000000
   11.84000015  142.56100464    0.25999999    0.07000000
   11.84305477  142.55000305    0.25999999    0.07000000
   11.84638882  145.19099426    0.25999999    0.07000000
   11.84972191  149.95199585    0.28000000    0.07000000
   11.85277843  147.65699768    0.28000000    0.07000000
   11.85611153  151.63900757    0.25999999    0.07000000
   11.85944462  146.90899658    0.28000000    0.07000000
   11.86250019  150.82600403    0.28000000    0.07000000
   11.86583328  153.93899536    0.28000000    0.05000000
   11.86722279  145.66700745    0.25999999    0.05000000
   11.86944485  146.52400208    0.25999999    0.05000000
   11.87277794  147.64999390    0.25999999    0.05000000
   11.87611103  146.21899414    0.25999999    0.05000000
   11.87916660  149.10000610    0.25999999    0.05000000
   11.88249969  153.74000549    0.25999999    0.05000000
   11.88583279  148.93400574    0.25999999    0.05000000
   11.88888836  142.07000732    0.25999999    0.05000000
   11.89222240  147.24299622    0.25999999    0.05000000
   11.89527798  146.19400024    0.25999999    0.03000000
   11.89861107  150.32299805    0.25999999    0.05000000
   11.90055561  147.75399780    0.25999999    0.05000000
   11.90222168  145.23300171    0.25999999    0.05000000
   11.90555477  149.39100647    0.25999999    0.05000000
   11.90888882  148.11700439    0.25999999    0.03000000
   11.91194439  146.26199341    0.25999999    0.05000000
   11.91527748  151.09800720    0.25999999    0.03000000
   11.91833401  144.26100159    0.25999999    0.03000000
   11.92166710  148.94200134    0.25999999    0.03000000
   11.92500019  145.19799805    0.25999999    0.03000000
   11.92805576  151.13400269    0.25999999    0.03000000
   11.93138885  155.48599243    0.25999999    0.03000000
   11.93388939  150.42900085    0.25999999    0.03000000
   11.93500042  146.13400269    0.25000000    0.03000000
   11.93833351  146.48800659    0.25999999    0.03000000
   11.94166660  145.19500732    0.25999999    0.03000000
   11.94472218  150.05499268    0.25000000    0.03000000
   11.94805527  144.19400024    0.25000000    0.03000000
   11.95138836  151.06599426    0.25000000    0.03000000
   11.95444393  153.19299316    0.25000000    0.01000000
   11.95777798  142.64799500    0.25000000    0.01000000
   11.96083355  142.22900391    0.25000000    0.01000000
   11.96416664  139.78500366    0.25000000    0.03000000
   11.96722221  145.26100159    0.25000000    0.03000000
   11.96777725  147.02099609    0.25000000    0.03000000
   11.97111034  143.01400757    0.25000000    0.03000000
   11.97444439  147.71699524    0.25000000    0.03000000
   11.97749996  147.46600342    0.25000000    0.01000000
   11.98083305  141.41000366    0.25000000    0.03000000
   11.98388958  146.87500000    0.25000000    0.03000000
   11.98722267  136.38099670    0.25000000    0.03000000
   11.99055576  139.03199768    0.25000000    0.01000000
   11.99361134  156.80000305    0.25000000    0.01000000
   11.99694443  142.97599792    0.25000000    0.01000000
   12.00027752  155.78799438    0.25000000    0.01000000
   12.00055599  144.15400696    0.25000000    0.01000000
   12.00388908  149.39799500    0.25000000    0.01000000
   12.00722218  146.15899658    0.25000000    0.01000000
   12.01027775  151.07800293    0.25000000    0.01000000
   12.01361084  138.99299622    0.25000000    0.01000000
   12.01694393  150.89799500    0.25000000    0.01000000
   12.01999950  151.56500244    0.23000000    0.01000000
   12.02333355  156.77900696    0.23000000    0.01000000
   12.02638817  145.53999329    0.23000000    0.01000000
   12.02972221  146.16099548    0.23000000    0.01000000
   12.03305531  154.30499268    0.23000000    0.01000000
   12.03388977  152.69900513    0.23000000    0.01000000
   12.03666687  155.75199890    0.23000000    0.01000000
   12.04000092  150.35400391    0.23000000    0.01000000
   12.04333401  155.88400269    0.23000000    0.01000000
   12.04638958  149.23899841    0.23000000    0.01000000
   12.04972267  154.37800598    0.23000000    0.01000000
   12.05277824  149.05299377    0.23000000    0.01000000
   12.05611134  158.31599426    0.23000000    0.01000000
   12.05944443  149.64900208    0.23000000    0.01000000
   12.06250000  159.09100342    0.23000000    0.01000000
   12.06583309  158.02400208    0.23000000    0.01000000
   12.06722260  152.75300598    0.23000000    0.01000000
   12.06944466  147.52600098    0.23000000    0.01000000
   12.07277775  145.67900085    0.23000000    0.01000000
   12.07583332  150.28399658    0.23000000    0.01000000
   12.07916641  149.78999329    0.23000000    0.01000000
   12.08249950  148.71499634    0.23000000    0.01000000
   12.08555508  150.17300415    0.23000000    0.01000000
   12.08888817  148.96200562    0.23000000    0.01000000
   12.09222221  153.93499756    0.23000000    0.01000000
   12.09527779  144.87500000    0.23000000    0.01000000
   12.09861088  144.31799316    0.23000000    0.01000000
   12.10055637  145.68699646    0.23000000    0.01000000
   12.10222244  149.22000122    0.23000000    0.01000000
   12.10555553  148.48899841    0.23000000    0.01000000
   12.10861111  152.02900696    0.23000000    0.01000000
   12.11194515  154.01499939    0.20999999    0.01000000
   12.11527824  146.80799866    0.20999999    0.01000000
   12.11861134  160.33799744    0.23000000    0.01000000
   12.12166691  148.38600159    0.23000000    0.01000000
   12.12500000  153.66900635    0.23000000    0.01000000
   12.12805557  143.11000061    0.23000000    0.01000000
   12.13138866  142.78599548    0.23000000    0.01000000
   12.14999962  148.80099487    0.23000000    0.01000000
   12.15111065  152.45599365    0.23000000    0.01000000
   12.15444374  146.69099426    0.23000000    0.01000000
   12.15777779  150.36500549    0.23000000    0.01000000
   12.16083336  143.66499329    0.23000000    0.01000000
   12.16416645  151.57000732    0.23000000    0.01000000
   12.16750050  141.98500061    0.23000000    0.01000000
   12.17055607  152.54299927    0.23000000    0.01000000
   12.17388916  145.94999695    0.23000000    0.01000000
   12.17694473  149.03999329    0.23000000    0.01000000
   12.18027782  152.35499573    0.23000000    0.01000000
   12.18305588  152.76100159    0.23000000    0.01000000
   12.18388939  145.21200562    0.23000000    0.01000000
   12.18722248  143.63900757    0.23000000    0.01000000
   12.19027805  152.63000488    0.23000000    0.01000000
   12.19361115  145.47500610    0.23000000    0.01000000
   12.19694424  146.04200745    0.23000000    0.01000000
   12.19999981  145.45199585    0.23000000    0.01000000
   12.20333290  147.28799438    0.23000000    0.01000000
   12.20638847  138.60099792    0.23000000    0.01000000
   12.20972157  150.49800110    0.23000000    0.01000000
   12.21305561  141.79200745    0.23000000    0.01000000
   12.21611118  146.17599487    0.23000000    0.01000000
   12.21666622  148.63000488    0.23000000    0.01000000
   12.21999931  144.22399902    0.23000000    0.01000000
   12.22333336  144.49600220    0.23000000    0.01000000
   12.22638798  155.96299744    0.23000000    0.01000000
   12.22972202  149.00999451    0.23000000    0.01000000
   12.23305511  149.09399414    0.23000000    0.01000000
   12.23611164  141.86500549    0.23000000    0.01000000
   12.23944473  155.91000366    0.23000000    0.01000000
   12.24250031  145.73300171    0.23000000    0.01000000
   12.24583340  156.44599915    0.23000000    0.01000000
   12.24916649  160.49800110    0.23000000    0.01000000
   12.25000000  146.63400269    0.23000000    0.01000000
   12.25277805  166.71699524    0.23000000    0.01000000
   12.25611115  153.42700195    0.23000000    0.01000000
   12.25916672  150.84800720    0.23000000    0.01000000
   12.26249981  160.75300598    0.23000000    0.01000000
   12.26583290  154.30099487    0.23000000    0.01000000
   12.26888847  156.30400085    0.23000000    0.01000000
   12.27222157  179.16999817    0.23000000    0.01000000
   12.27527714  152.07400513    0.23000000    0.01000000
   12.27861118  147.08900452    0.23000000    0.01000000
   12.28194427  159.08900452    0.23000000    0.01000000
   12.28333378  143.33599854    0.23000000    0.01000000
   12.28555584  152.72599792    0.23000000    0.01000000
   12.28888893  165.86000061    0.23000000    0.01000000
   12.29194450  149.68299866    0.23000000    0.01000000
   12.29527855  145.50300598    0.23000000    0.01000000
   12.29861164  171.60200500    0.52999997    0.79000002
   12.30166721  160.28300476    0.55000001    0.83999997
   12.30500031  148.21800232    0.46000001    0.64999998
   12.30833340  147.92599487    0.46000001    0.63000000
   12.31138897  143.49600220    0.46000001    0.63000000
   12.31472206  171.23399353    0.34000000    0.58999997
   12.31666660  144.07299805    0.36000001    0.64999998
   12.31833363  147.19400024    0.38000000    0.75000000
   12.32166672  160.41600037    0.38000000    0.73000002
   12.32472229  153.91299438    4.90999985    2.94000006
   12.32805538  149.67500305    4.90999985    2.84999990
   12.33138847  149.90400696    2.84999990    2.78999996
   12.33444405  161.18200684    4.90999985    2.76999998
   12.33777714  157.40800476    4.90999985    2.78999996
   12.34111118  168.98699951    4.90999985    2.76999998
   12.34416676  157.89199829    4.90999985    2.76999998
   12.34749985  147.92900085    4.90999985    2.76999998
   12.35000038  160.97300720    3.03999996    2.78999996
   12.35111141  159.29899597    2.76999998    2.78999996
   12.35444450  155.72500610    2.66000009    2.78999996
   12.35750008  151.34100342    2.64000010    2.78999996
   12.36083412  137.55200195    2.61999989    2.80999994
   12.36416721  150.66799927    2.61999989    2.78999996
   12.36722279  142.91999817    2.61999989    2.78999996
   12.37055588  156.43400574    2.64000010    2.78999996
   12.37388897  142.47500610    2.64000010    2.80999994
   12.37694454  143.45399475    2.64000010    2.78999996
   12.38027763  141.35000610    2.64000010    2.78999996
   12.38333321  146.63499451    2.64000010    2.80999994
   12.38388920  145.78700256    2.64000010    2.80999994
   12.38722229  139.68600464    2.64000010    2.80999994
   12.39055538  147.86199951    2.64000010    2.78999996
   12.39361095  152.16700745    2.64000010    2.80999994
   12.39694405  147.88099670    2.61999989    2.82999992
   12.40027714  145.05400085    2.59999990    2.78999996
   12.40333271  151.80700684    2.61999989    2.80999994
   12.40666676  149.47999573    2.59999990    2.80999994
   12.40972137  144.24800110    2.55999994    2.82999992
   12.41305542  154.20500183    2.53999996    2.80999994
   12.41638851  149.61399841    2.55999994    2.80999994
   12.41694450  142.15600586    2.57999992    2.80999994
   12.41972256  155.18800354    2.61999989    2.80999994
   12.42305565  138.47300720    2.61999989    2.78999996
   12.42638874  145.51600647    2.59999990    2.82999992
   12.42944431  153.14100647    2.59999990    2.80999994
   12.43277836  144.36799622    2.61999989    2.80999994
   12.43583298  140.27600098    2.61999989    2.80999994
   12.43916702  140.62500000    2.61999989    2.80999994
   12.44250011  143.72399902    2.61999989    2.80999994
   12.44555569  144.81300354    2.64000010    2.80999994
   12.44888878  136.01699829    2.64000010    2.80999994
   12.45027733  144.46600342    2.64000010    2.80999994
   12.45249939  136.69799805    2.64000010    2.80999994
   12.45583344  134.65199280    2.61999989    2.78999996
   12.45916653  141.08599854    2.61999989    2.80999994
   12.46222210  138.67399597    2.64000010    2.80999994
   12.46555519  139.62600708    2.64000010    2.80999994
   12.46861076  143.97700500    2.59999990    2.82999992
   12.47194386  145.49400330    2.55999994    2.80999994
   12.47527695  143.03100586    2.50000000    2.82999992
   12.47833252  142.26800537    2.48000002    2.82999992
   12.48166656  143.90800476    2.42000008    2.80999994
   12.48361111  145.76100159    2.40000010    2.82999992
   12.48527813  145.33799744    2.40000010    2.80999994
   12.48861122  145.04499817    2.44000006    2.82999992
   12.49194431  143.46299744    2.46000004    2.80999994
   12.49499989  147.52499390    2.48000002    2.80999994
   12.49833393  144.05700684    2.50000000    2.80999994
   12.50138855  147.67999268    2.51999998    2.82999992
   12.50472260  159.79699707    2.57999992    2.82999992
   12.50805569  149.43499756    2.57999992    2.82999992
   12.51111126  150.30900574    2.59999990    2.82999992
   12.51444435  157.27200317    2.59999990    2.82999992
   12.51694393  144.47999573    2.59999990    2.82999992
   12.51805496  155.33399963    2.61999989    2.80999994
   12.52138901  140.28799438    2.61999989    2.80999994
   12.52472210  146.29499817    2.64000010    2.82999992
   12.52777767  153.63800049    2.66000009    2.80999994
   12.53111076  143.49400330    2.64000010    2.80999994
   12.53416729  148.38699341    2.59999990    2.80999994
   12.53750038  149.68200684    2.59999990    2.80999994
   12.54083347  144.11700439    2.59999990    2.82999992
   12.54388905  142.15600586    2.59999990    2.82999992
   12.54722309  144.97999573    2.57999992    2.82999992
   12.55027771  155.51800537    2.55999994    2.80999994
   12.55083370  142.05400085    2.55999994    2.82999992
   12.55416679  147.40600586    2.51999998    2.82999992
   12.55749989  147.83500671    2.50000000    2.82999992
   12.56055546  147.51699829    2.48000002    2.80999994
   12.56388950  148.11999512    2.46000004    2.78999996
   12.56694412  151.19299316    2.44000006    2.80999994
   12.57027817  158.59399414    2.42000008    2.82999992
   12.57361126  150.05900574    2.39000010    2.84999990
   12.57666683  147.32400513    2.34999990    2.82999992
   12.57999992  150.96499634    2.32999992    2.82999992
   12.58333302  145.53999329    2.30999994    2.82999992
   12.58361053  145.58700562    2.30999994    2.82999992
   12.58694458  140.74899292    2.30999994    2.82999992
   12.59027767  149.24099731    2.34999990    2.82999992
   12.59333324  149.43499756    2.39000010    2.82999992
   12.59666634  152.62199402    2.39000010    2.82999992
   12.60000038  144.88499451    2.39000010    2.80999994
   12.60305595  143.71499634    2.39000010    2.84999990
   12.60638905  155.61900330    2.36999989    2.82999992
   12.60944462  148.71899414    2.34999990    2.82999992
   12.61277771  149.41200256    2.34999990    2.82999992
   12.61611176  151.11599731    2.36999989    2.82999992
   12.61694431  157.72500610    2.36999989    2.82999992
   12.61972237  149.96699524    2.36999989    2.82999992
   12.62305546  144.66200256    2.36999989    2.84999990
   12.62611103  162.49800110    2.34999990    2.82999992
   12.62944412  151.76300049    2.34999990    2.82999992
   12.63277817  144.07099915    2.30999994    2.82999992
   12.63611126  150.75000000    2.28999996    2.80999994
   12.63916683  148.30400085    2.26999998    2.84999990
   12.64249992  152.91200256    2.26999998    2.84999990
   12.64555550  140.21499634    2.23000002    2.84999990
   12.64888859  150.14999390    2.19000006    2.84999990
   12.65027714  148.63000488    2.17000008    2.84999990
   12.65249920  151.62199402    2.15000010    2.84999990
   12.65583324  146.98699951    2.19000006    2.84999990
   12.65888882  151.01100159    2.23000002    2.84999990
   12.66222191  146.05900574    2.32999992    2.82999992
   12.66555500  142.26400757    2.39000010    2.82999992
   12.66861153  143.39799500    2.42000008    2.84999990
   12.67194462  151.61399841    2.42000008    2.82999992
   12.67527771  153.59800720    2.46000004    2.84999990
   12.67833328  154.57200623    2.46000004    2.82999992
   12.68166733  140.06100464    2.51999998    2.84999990
   12.68361092  146.15600586    2.53999996    2.84999990
   12.68527794  149.99600220    2.55999994    2.82999992
   12.68861103  145.39799500    2.64000010    2.84999990
   12.69166660  148.09399414    2.64000010    2.82999992
   12.69499969  145.73500061    2.64000010    2.82999992
   12.69833374  146.05099487    2.61999989    2.82999992
   12.70138836  149.46099854    2.64000010    2.82999992
   12.70472240  149.14199829    2.67000008    2.84999990
   12.70805550  144.41999817    2.69000006    2.82999992
   12.71111107  143.67500305    2.71000004    2.84999990
   12.71444416  146.58900452    2.71000004    2.84999990
   12.71694374  140.49600220    2.75000000    2.82999992
   12.71805477  141.76899719    2.75000000    2.84999990
   12.72138882  153.96699524    2.78999996    2.84999990
   12.72444439  144.75500488    2.78999996    2.82999992
   12.72777748  149.09399414    2.78999996    2.82999992
   12.73111057  146.72099304    2.78999996    2.82999992
   12.73416710  143.90899658    2.78999996    2.82999992
   12.73750019  152.52600098    2.80999994    2.82999992
   12.74083328  145.46800232    2.76999998    2.82999992
   12.74388885  146.56599426    2.80999994    2.84999990
   12.74722290  150.97799683    2.71000004    2.84999990
   12.75027752  152.54899597    2.84999990    2.84999990
   12.75083351  142.78900146    2.89000010    2.84999990
   12.75416660  139.78300476    3.09999990    2.84999990
   12.75722218  148.42100525    3.43000007    2.86999989
   12.76055527  140.71600342    3.86999989    2.86999989
   12.76388931  148.63900757    4.46999979    2.86999989
   12.76694393  146.33900452    4.90999985    2.86999989
   12.77027798  152.00500488    4.90999985    2.86999989
   12.77361107  148.04600525    4.90999985    2.86999989
   12.77666664  151.21099854    4.90999985    2.86999989
   12.77999973  141.62100220    4.90999985    2.84999990
   12.78305531  140.07000732    4.90999985    2.86999989
   12.78388977  148.86399841    4.90999985    2.84999990
   12.78666687  142.99800110    4.90999985    2.86999989
   12.79000092  144.19900513    4.90999985    2.86999989
   12.79305553  143.04600525    4.90999985    2.86999989
   12.79638958  150.52499390    4.90999985    2.86999989
   12.79972267  147.66499329    4.90999985    2.86999989
   12.80277824  152.93699646    4.90999985    2.82999992
   12.80611134  151.45100403    4.90999985    2.86999989
   12.80944443  136.30499268    4.90999985    2.86999989
   12.81250000  137.88400269    4.90999985    2.86999989
   12.81583309  141.45300293    4.90999985    2.86999989
   12.81722260  149.57600403    4.90999985    2.89000010
   12.81944466  140.19099426    4.90999985    2.89000010
   12.82277775  148.72200012    4.90999985    2.91000009
   12.82583332  145.41700745    4.90999985    2.91000009
   12.82916641  134.74499512    4.90999985    2.91000009
   12.83249950  146.59300232    4.90999985    2.94000006
   12.83555508  150.06599426    4.90999985    2.94000006
   12.83888817  145.18800354    4.90999985    2.94000006
   12.84194374  142.49499512    4.90999985    2.94000006
   12.84527779  144.16099548    4.90999985    2.96000004
   12.84861088  141.27200317    4.90999985    2.96000004
   12.85055637  141.52299500    4.90999985    2.94000006
   12.85222244  151.35899353    4.90999985    2.96000004
   12.85555553  149.40100098    4.90999985    2.96000004
   12.85861111  149.95899963    4.90999985    2.96000004
   12.86194515  153.37100220    4.90999985    2.94000006
   12.86527824  151.04800415    4.90999985    2.94000006
   12.86833382  144.29200745    4.90999985    2.94000006
   12.87166691  143.00900269    4.90999985    2.93000007
   12.87500000  147.25799561    4.90999985    2.93000007
   12.87805557  139.67100525    4.90999985    2.91000009
   12.88138866  141.12300110    4.90999985    2.89000010
   12.88388920  139.51100159    4.90999985    2.91000009
   12.88500023  152.31399536    4.90999985    2.89000010
   12.88833332  149.15699768    4.90999985    2.89000010
   12.89138889  155.38999939    4.90999985    2.89000010
   12.89472198  147.05499268    4.90999985    2.89000010
   12.89805508  147.50500488    4.90999985    2.91000009
   12.90111065  150.60600281    4.90999985    2.91000009
   12.90444374  152.05900574    4.90999985    2.91000009
   12.90749931  143.21299744    4.90999985    2.93000007
   12.91083336  144.49099731    4.90999985    2.94000006
   12.91416645  137.71299744    4.90999985    2.96000004
   12.91722298  151.12800598    4.90999985    2.96000004
   12.91777802  147.92199707    4.90999985    2.98000002
   12.92111111  144.24600220    4.90999985    3.00000000
   12.92416668  142.81199646    4.90999985    3.01999998
   12.92750072  150.45700073    4.90999985    3.01999998
   12.93083382  144.48500061    4.90999985    3.01999998
   12.93388939  147.40499878    4.90999985    3.03999996
   12.93722248  147.76100159    4.90999985    3.03999996
   12.94027805  149.23899841    4.90999985    3.05999994
   12.94361115  138.98699951    4.90999985    3.05999994
   12.94694424  149.05299377    4.90999985    3.05999994
   12.94999981  147.56399536    4.90999985    3.03999996
   12.95055580  151.92399597    4.90999985    3.03999996
   12.95388889  142.85899353    4.13999987    3.05999994
   12.95722198  154.19999695    3.34999990    3.03999996
   12.96027756  143.46600342    2.46000004    3.05999994
   12.96361065  135.94999695    1.88000000    3.05999994
   12.96666622  136.88499451    4.90999985    3.07999992
   12.96999931  149.36999512    4.90999985    3.05999994
   12.97333336  152.53500366    4.90999985    3.05999994
   12.97638798  144.86999512    3.97000003    3.05999994
   12.97972202  146.05599976    3.89000010    3.05999994
   12.98305511  157.30599976    3.86999989    3.05999994
   12.98388958  141.37100220    3.64000010    3.05999994
   12.98666668  152.60499573    2.93000007    3.05999994
   12.99000072  144.43200684    2.34999990    3.03999996
   12.99305534  146.29200745    1.83000004    3.05999994
   12.99638939  145.98500061    1.46000004    3.05999994
   12.99972248  146.55700684    1.23000002    3.05999994
   13.00277805  140.51899719    1.11000001    3.03999996
   13.00611115  146.52799988    1.07000005    3.05999994
   13.00916672  151.03999329    1.03999996    3.03999996
   13.01249981  157.03100586    1.03999996    3.01999998
   13.01583290  143.14900208    1.01999998    3.01999998
   13.01722240  146.40600586    1.00000000    3.01999998
   13.01944447  146.94900513    0.98000002    3.01999998
   13.02277756  147.86399841    0.94000000    3.01999998
   13.02583313  143.37399292    0.92000002    3.01999998
   13.02916622  140.86199951    0.89999998    3.00000000
   13.03222179  138.00199890    0.89999998    2.96000004
   13.03555584  143.69599915    0.89999998    2.96000004
   13.03888893  148.48399353    0.89999998    2.94000006
   13.04194450  150.32400513    0.89999998    2.91000009
   13.04527855  139.99600220    0.89999998    2.86999989
   13.04861164  139.15100098    0.89999998    2.80999994
   13.05055618  145.35899353    0.88000000    2.75000000
   13.05222225  142.62800598    0.86000001    2.69000006
   13.05555534  146.69999695    0.83999997    2.59999990
   13.05861092  137.25599670    0.80000001    2.46000004
   13.06194496  143.40499878    0.79000002    2.30999994
   13.06500053  139.85200500    0.79000002    2.15000010
   13.06833363  140.40699768    0.79000002    1.96000004
   13.07166672  146.62399292    0.79000002    1.76999998
   13.07472229  144.11700439    0.75000000    1.60000002
   13.18944454   -1.00000000   -1.00000000   -1.00000000
   13.28416729   -1.00000000   -1.00000000   -1.00000000
   13.38333321   -1.00000000   -1.00000000   -1.00000000
   13.40999985   88.13939667    2.93000007    2.93000007
   13.41333294  146.17199707    2.89000010    2.91000009
   13.41638851  135.25500488    2.89000010    2.93000007
   13.41972256  157.22200012    2.84999990    2.93000007
   13.42305565  142.94799805    2.84999990    2.91000009
   13.42611122  145.89900208    2.80999994    2.93000007
   13.43027782  145.89900208    2.78999996    2.93000007
   13.43444443  143.93600464    2.73000002    2.93000007
   13.43777752  152.21899414    2.69000006    2.91000009
   13.44083309  148.89900208    2.67000008    2.93000007
   13.44333363  148.69099426    2.66000009    2.93000007
   13.44472218  147.33500671    2.66000009    2.93000007
   13.44777775  144.22399902    2.61999989    2.93000007
   13.45111084  156.09199524    2.59999990    2.93000007
   13.45444393  149.14900208    2.59999990    2.93000007
   13.45749950  141.30299377    2.55999994    2.93000007
   13.46083355  149.12600708    2.55999994    2.93000007
   13.46388912  153.46000671    2.53999996    2.91000009
   13.46722221  146.66299438    2.53999996    2.93000007
   13.47305489  146.66299438    2.53999996    2.93000007
   13.47722149  148.71400452    2.51999998    2.94000006
   13.48055553  153.05499268    2.48000002    2.93000007
   13.48361111  139.78199768    2.46000004    2.93000007
   13.48694515  141.71699524    2.44000006    2.93000007
   13.49027824  144.63099670    2.36999989    2.93000007
   13.49333382  150.15299988    2.36999989    2.93000007
   13.49666691  154.01300049    2.30999994    2.93000007
   13.50000000  148.33200073    2.28999996    2.91000009
   13.50305557  147.21699524    2.26999998    2.93000007
   13.50638866  145.05700684    2.28999996    2.93000007
   13.50944424  144.77699280    2.26999998    2.93000007
   13.51000023  147.22399902    2.28999996    2.93000007
   13.51611137  147.22399902    2.28999996    2.91000009
   13.51999950  146.48399353    2.32999992    2.93000007
   13.52333355  156.21699524    2.32999992    2.93000007
   13.52666664  151.35200500    2.32999992    2.94000006
   13.52972221  153.38000488    2.30999994    2.93000007
   13.53305531  154.31700134    2.32999992    2.93000007
   13.53638935  149.47399902    2.28999996    2.93000007
   13.53944492  149.55700684    2.30999994    2.94000006
   13.54277802  145.17900085    2.30999994    2.93000007
   13.54333401  141.81599426    2.30999994    2.93000007
   13.54638958  146.96600342    2.28999996    2.93000007
   13.54972267  139.08099365    2.26999998    2.93000007
   13.55277824  141.20399475    2.30999994    2.91000009
   13.55888939  141.20399475    2.36999989    2.93000007
   13.56305599  144.50199890    2.34999990    2.93000007
   13.56611156  134.96600342    2.32999992    2.93000007
   13.56944466  144.64900208    2.30999994    2.93000007
   13.57277775  141.11799622    2.28999996    2.93000007
   13.57583332  144.16999817    2.26999998    2.93000007
   13.57666683  140.11999512    2.26999998    2.93000007
   13.57944393  142.94900513    2.26999998    2.94000006
   13.58277798  136.05200195    2.26999998    2.93000007
   13.58583260  141.54899597    2.25000000    2.93000007
   13.58916664  141.55000305    2.25000000    2.91000009
   13.59249973  148.30499268    2.25000000    2.93000007
   13.59555531  140.32899475    2.25000000    2.91000009
   13.60166740  140.32899475    2.26999998    2.93000007
   13.60583401  150.86900330    2.26999998    2.93000007
   13.60916710  144.88800049    2.26999998    2.93000007
   13.61000061  142.25999451    2.25000000    2.93000007
   13.61277771  135.67500305    2.25000000    2.93000007
   13.61611176  145.87500000    2.25000000    2.93000007
   13.61916637  136.38699341    2.25000000    2.93000007
   13.62250042  144.93299866    2.21000004    2.93000007
   13.62583351  135.32600403    2.15000010    2.93000007
   13.62888908  139.86500549    2.11999989    2.93000007
   13.63222218  132.06799316    2.09999990    2.93000007
   13.63527775  132.46699524    2.09999990    2.93000007
   13.63861084  139.44299316    2.09999990    2.93000007
   13.64444447  139.44299316    2.07999992    2.93000007
   13.64861107  147.58900452    2.05999994    2.93000007
   13.65194416  133.49400330    2.03999996    2.93000007
   13.65499973  142.85899353    2.07999992    2.94000006
   13.65833282  141.85899353    2.05999994    2.93000007
   13.66166592  144.02699280    2.05999994    2.94000006
   13.66472149  137.00599670    2.05999994    2.93000007
   13.66805553  140.68400574    2.03999996    2.93000007
   13.67138958  132.57899475    2.03999996    2.94000006
   13.67444515  130.22300720    2.01999998    2.94000006
   13.67666721  140.28399658    2.19000006    2.94000006
   13.67805576  142.42199707    4.90999985    3.01999998
   13.68138885  135.18800354    4.90999985    3.05999994
   13.68750000  135.18800354    4.90999985    3.05999994
   13.69138908  139.06100464    4.90999985    3.03999996
   13.69472218  129.77000427    4.90999985    3.03999996
   13.69805527  138.66900635    4.90999985    3.05999994
   13.70111084  130.66299438    4.90999985    3.05999994
   13.70444393  141.24299622    4.90999985    3.05999994
   13.70777798  140.38299561    4.90999985    3.05999994
   13.71000004  143.48300171    4.90999985    3.05999994
   13.71138859  136.23100281    4.90999985    3.05999994
   13.71472168  134.97999573    4.90999985    3.05999994
   13.71777725  143.71499634    4.90999985    3.05999994
   13.72111034  158.96600342    4.90999985    3.05999994
   13.72444439  145.58999634    4.90999985    3.07999992
   13.73027706  145.58999634    4.90999985    3.05999994
   13.73444462  133.40499878    4.90999985    3.05999994
   13.73750019  155.52299500    4.90999985    3.07999992
   13.74083328  151.04100037    4.90999985    3.05999994
   13.74361134  150.86799622    4.90999985    3.05999994
   13.74444485  147.97700500    4.90999985    3.07999992
   13.74777794  155.58999634    4.90999985    3.07999992
   13.75083351  151.54299927    4.90999985    3.05999994
   13.75416660  155.49899292    4.90999985    3.05999994
   13.75749969  154.03100586    4.90999985    3.05999994
   13.76055527  154.97200012    4.90999985    3.05999994
   13.76388931  159.07499695    4.90999985    3.05999994
   13.76722240  148.19000244    4.90999985    3.03999996
   13.77305508  148.19000244    4.90999985    3.03999996
   13.77722168  140.62699890    4.90999985    3.03999996
   13.78055573  134.14199829    4.90999985    3.05999994
   13.78361130  140.08200073    4.90999985    3.05999994
   13.78694534  136.50300598    4.90999985    3.05999994
   13.79000092  139.22799683    4.90999985    3.05999994
   13.79333401  139.55499268    4.90999985    3.03999996
   13.79666710  134.95100403    4.90999985    3.05999994
   13.79972267  135.23800659    4.90999985    3.05999994
   13.80305576  134.15299988    4.90999985    3.07999992
   13.80638885  128.71000671    4.90999985    3.05999994
   13.80944443  142.22799683    4.90999985    3.05999994
   13.81027794  135.64900208    4.90999985    3.07999992
   13.81583309  135.64900208    4.90999985    3.07999992
   13.81999969  132.61300659    4.90999985    3.05999994
   13.82333374  133.80299377    4.90999985    3.07999992
   13.82638836  144.47999573    4.90999985    3.05999994
   13.82972240  140.71200562    4.90999985    3.07999992
   13.83305550  140.15100098    4.90999985    3.05999994
   13.83611107  134.09800720    4.90999985    3.05999994
   13.83944416  133.57800293    4.90999985    3.05999994
   13.84277725  141.80700684    4.90999985    3.05999994
   13.84361076  135.03700256    4.90999985    3.07999992
   13.84611034  139.66999817    4.90999985    3.05999994
   13.84944439  144.54200745    4.90999985    3.05999994
   13.85249996  135.13999939    4.90999985    3.07999992
   13.85888958  135.13999939    4.90999985    3.05999994
   13.86277771  133.41400146    4.90999985    3.05999994
   13.86611176  141.32000732    4.90999985    3.05999994
   13.86944485  141.46699524    4.90999985    3.07999992
   13.87250042  141.58900452    4.90999985    3.05999994
   13.87583351  136.15400696    4.90999985    3.07999992
   13.87694454  139.70199585    4.90999985    3.05999994
   13.87944412  140.84199524    4.90999985    3.05999994
   13.88277817  135.44200134    4.90999985    3.07999992
   13.88583279  132.84199524    4.90999985    3.05999994
   13.88916683  130.61999512    4.90999985    3.05999994
   13.89249992  136.15499878    4.90999985    3.05999994
   13.89555550  138.03500366    4.90999985    3.03999996
   13.90166664  138.03500366    4.90999985    3.05999994
   13.90583324  126.61599731    4.90999985    3.07999992
   13.90888882  136.70799255    4.90999985    3.05999994
   13.91027737  132.56100464    4.90999985    3.05999994
   13.91249943  141.39300537    4.90999985    3.05999994
   13.91583252  137.57299805    4.90999985    3.05999994
   13.91888905  136.09800720    4.90999985    3.05999994
   13.92222214  131.44099426    4.90999985    3.05999994
   13.92555618  132.85299683    4.90999985    3.05999994
   13.92861176  139.44400024    4.90999985    3.05999994
   13.93194485  136.56300354    4.90999985    3.05999994
   13.93527794  134.36500549    4.90999985    3.05999994
   13.93833351  138.00599670    4.90999985    3.05999994
   13.94444466  138.00599670    4.90999985    3.05999994
   13.94861126  138.31599426    4.90999985    3.05999994
   13.95194435  139.44299316    4.90999985    3.03999996
   13.95499992  139.50100708    4.90999985    3.07999992
   13.95833302  140.74099731    4.90999985    3.05999994
   13.96138859  133.68400574    4.90999985    3.05999994
   13.96472168  142.25900269    4.90999985    3.05999994
   13.96805477  146.12100220    4.90999985    3.05999994
   13.97111034  135.96600342    4.90999985    3.05999994
   13.97444439  140.23199463    4.90999985    3.05999994
   13.97694397  138.23599243    4.90999985    3.05999994
   13.97805500  133.52900696    4.90999985    3.05999994
   13.98138809  142.89500427    4.90999985    3.05999994
   13.98722267  142.89500427    4.90999985    3.07999992
   13.99138927  149.23399353    4.90999985    3.05999994
   13.99472237  139.19799805    4.90999985    3.05999994
   13.99777794  139.06300354    4.90999985    3.05999994
   14.00111103  142.39999390    4.90999985    3.05999994
   14.00444412  143.71800232    4.90999985    3.05999994
   14.00749969  137.63099670    4.90999985    3.05999994
   14.01027775  140.24600220    4.90999985    3.05999994
   14.01111126  143.03399658    4.90999985    3.05999994
   14.01444435  142.80599976    4.90999985    3.05999994
   14.01749992  143.22799683    4.90999985    3.05999994
   14.02083302  141.16600037    4.90999985    3.05999994
   14.02416611  141.06500244    4.90999985    3.05999994
   14.03027725  141.06500244    4.90999985    3.05999994
   14.03416729  137.50300598    4.90999985    3.05999994
   14.03750038  141.28100586    4.90999985    3.05999994
   14.04083347  143.11799622    4.90999985    3.05999994
   14.04361153  144.00399780    4.90999985    3.05999994
   14.04444504  145.26199341    4.90999985    3.05999994
   14.04777813  139.00300598    4.90999985    3.05999994
   14.05083370  134.21600342    4.90999985    3.05999994
   14.05416679  143.05900574    4.90999985    3.05999994
   14.05749989  137.69299316    4.90999985    3.05999994
   14.06055546  139.56700134    4.90999985    3.05999994
   14.06388950  139.18699646    4.90999985    3.05999994
   14.06722260  144.77000427    4.90999985    3.05999994
   14.07305527  144.77000427    4.90999985    3.05999994
   14.07722187  143.53199768    4.90999985    3.05999994
   14.08027744  142.71800232    4.90999985    3.05999994
   14.08361053  145.61399841    4.90999985    3.05999994
   14.08694458  153.17300415    4.90999985    3.05999994
   14.09000015  147.43499756    4.90999985    3.05999994
   14.09333324  142.38800049    4.90999985    3.03999996
   14.09666634  147.43499756    4.90999985    3.01999998
   14.09972191  143.82699585    4.90999985    3.01999998
   14.10305595  144.17399597    4.90999985    3.01999998
   14.10611153  136.99400330    4.90999985    3.00000000
   14.10944462  145.92300415    4.90999985    3.00000000
   14.11027813  139.01499939    4.90999985    3.00000000
   14.11583328  139.01499939    4.90999985    3.00000000
   14.11999989  141.36900330    4.90999985    3.00000000
   14.12333393  144.14700317    4.90999985    3.00000000
   14.12638855  137.06100464    4.90999985    3.00000000
   14.12972260  141.14900208    4.90999985    3.00000000
   14.13277817  144.58299255    4.90999985    3.00000000
   14.13611126  143.35299683    4.90999985    2.98000002
   14.13944435  144.59500122    4.90999985    2.98000002
   14.14249992  143.07000732    4.90999985    2.98000002
   14.14361095  148.52799988    4.90999985    2.98000002
   14.14611053  135.50799561    4.90999985    2.98000002
   14.14944458  143.81100464    4.90999985    3.00000000
   14.15277767  136.99600220    4.90999985    2.98000002
   14.15861034  136.99600220    4.90999985    2.98000002
   14.16277695  134.66099548    4.90999985    2.98000002
   14.16611099  137.89700317    4.90999985    2.98000002
   14.16916656  140.65100098    4.90999985    2.98000002
   14.17250061  138.88299561    4.90999985    2.98000002
   14.17583370  145.59899902    4.48999977    2.96000004
   14.17694473  141.16299438    4.00000000    2.98000002
   14.17916679  137.92199707    3.39000010    2.98000002
   14.18249989  142.73500061    3.30999994    2.98000002
   14.18583298  150.95700073    2.67000008    2.98000002
   14.18888855  150.11099243    2.13000011    2.98000002
   14.19222260  150.54299927    1.73000002    2.98000002
   14.19527817  138.85600281    1.50000000    2.98000002
   14.20166683  138.85600281    1.28999996    2.98000002
   14.20555496  137.75900269    1.21000004    2.98000002
   14.20888901  133.52499390    1.19000006    2.98000002
   14.21027756  141.14599609    1.16999996    2.98000002
   14.21249962  146.37899780    1.13000000    2.98000002
   14.21583271  141.19799805    1.13000000    2.98000002
   14.21916580  141.52499390    1.16999996    2.98000002
   14.22222137  142.76499939    1.19000006    2.98000002
   14.22555542  145.54400635    1.25000000    2.98000002
   14.22861099  147.40800476    1.36000001    2.98000002
   14.23194408  141.98100281    1.46000004    2.98000002
   14.23527813  144.97500610    1.53999996    2.98000002
   14.23833370  142.25500488    1.58000004    3.00000000
   14.24444485  142.25500488    2.00000000    2.98000002
   14.24861145  144.56700134    2.32999992    3.00000000
   14.25166702  143.27099609    2.39000010    2.98000002
   14.25500011  137.75399780    2.86999989    3.00000000
   14.25833321  135.59700012    3.25000000    3.00000000
   14.26138878  138.88600159    3.34999990    3.01999998
   14.26472187  129.89199829    3.93000007    3.00000000
   14.26805496  139.73599243    4.65999985    3.00000000
   14.27111053  143.46200562    4.90999985    3.01999998
   14.27444458  144.88000488    4.90999985    3.00000000
   14.27694416  141.58200073    4.90999985    3.01999998
   14.27805519  139.95899963    4.90999985    3.01999998
   14.28138828  146.91600037    4.90999985    3.01999998
   14.28722286  146.91600037    4.90999985    3.03999996
   14.29138947  147.50799561    4.90999985    3.03999996
   14.29472256  145.35499573    4.90999985    3.01999998
   14.29777813  146.84300232    4.90999985    3.01999998
   14.30111122  145.57800293    4.90999985    3.03999996
   14.30416679  142.00799561    4.90999985    3.01999998
   14.30749989  140.42700195    4.90999985    3.03999996
   14.31027794  144.32000732    4.90999985    3.03999996
   14.31111145  141.35299683    4.90999985    3.03999996
   14.31444454  141.58999634    4.90999985    3.03999996
   14.31777763  144.49800110    4.90999985    3.03999996
   14.32083321  137.24899292    4.90999985    3.05999994
   14.32416630  149.56700134    4.90999985    3.05999994
   14.32999992  149.56700134    4.90999985    3.05999994
   14.33416653  139.06399536    4.90999985    3.07999992
   14.33749962  139.77200317    4.90999985    3.07999992
   14.34055519  137.43699646    4.90999985    3.07999992
   14.34361076  133.29100037    4.90999985    3.07999992
   14.34416676  134.47200012    4.90999985    3.07999992
   14.34749985  142.36599731    4.90999985    3.07999992
   14.35083389  140.07200623    4.90999985    3.09999990
   14.35388947  140.24000549    4.90999985    3.07999992
   14.35722256  142.98100281    4.90999985    3.09999990
   14.36027813  147.72799683    4.90999985    3.09999990
   14.36361122  137.69099426    4.90999985    3.09999990
   14.36694431  146.97500610    4.90999985    3.09999990
   14.37305546  146.97500610    4.90999985    3.09999990
   14.37694454  146.04600525    4.90999985    3.09999990
   14.38027763  150.52699280    4.90999985    3.11999989
   14.38361073  146.03700256    4.90999985    3.11999989
   14.38666630  151.38699341    4.90999985    3.11999989
   14.39000034  146.01400757    4.90999985    3.11999989
   14.39333344  150.20100403    4.90999985    3.09999990
   14.39638901  148.47500610    4.90999985    3.11999989
   14.39972210  151.42199707    4.90999985    3.11999989
   14.40277767  135.03500366    4.90999985    3.11999989
   14.40611076  138.91600037    4.90999985    3.09999990
   14.40944386  147.84700012    4.90999985    3.09999990
   14.41027737  142.85899353    4.90999985    3.09999990
   14.43083382  142.85899353    4.90999985    3.09999990
   14.43500042  142.46000671    4.90999985    3.09999990
   14.43833351  147.02099609    4.90999985    3.11999989
   14.44138908  142.34199524    4.90999985    3.11999989
   14.44361115  143.10800171    4.90999985    3.11999989
   14.44499969  153.27999878    4.90999985    3.09999990
   14.44833374  147.31500244    4.90999985    3.11999989
   14.45166683  141.10800171    4.90999985    3.11999989
   14.45472240  150.12800598    4.90999985    3.14000010
   14.45805550  147.89199829    4.90999985    3.14000010
   14.46138859  134.62600708    4.90999985    3.14000010
   14.46444416  144.32000732    4.57999992    3.16000009
   14.46777725  144.51300049    3.72000003    3.14000010
   14.47361088  144.51300049    2.30999994    3.14000010
   14.47777748  131.71699524    1.71000004    3.16000009
   14.48111057  146.67999268    1.48000002    3.16000009
   14.48416710  148.08900452    1.48000002    3.16000009
   14.48750019  142.43899536    1.28999996    3.14000010
   14.49083328  138.36999512    1.28999996    3.16000009
   14.49388885  154.32299805    1.25000000    3.14000010
   14.49722290  127.38700104    1.26999998    3.14000010
   14.50027752  140.35000610    1.25000000    3.14000010
   14.50361156  141.74699402    1.25000000    3.14000010
   14.50694466  140.81799316    1.23000002    3.14000010
   14.51000023  140.89599609    1.19000006    3.14000010
   14.51083374  142.35099792    1.16999996    3.14000010
   14.51638889  142.35099792    1.13000000    3.14000010
   14.52055550  143.83299255    1.09000003    3.11999989
   14.52388859  138.47099304    1.07000005    3.11999989
   14.52722168  144.21600342    1.09000003    3.14000010
   14.53027725  151.68400574    1.03999996    3.14000010
   14.53361130  142.33099365    1.03999996    3.14000010
   14.53666687  147.28700256    0.98000002    3.14000010
   14.54000092  147.54299927    0.98000002    3.14000010
   14.54333401  150.35299683    0.92000002    3.14000010
   14.54388905  148.94500732    0.89999998    3.14000010
   14.54694462  169.50300598    0.81999999    3.14000010
   14.55027771  148.28999329    0.75000000    3.14000010
   14.55333328  150.35899353    0.69000000    3.14000010
   14.55944443  150.35899353    0.63000000    3.09999990
   14.56361103  148.41299438    0.56999999    3.07999992
   14.56666660  146.92799377    0.52999997    3.05999994
   14.56999969  159.72200012    0.51999998    3.03999996
   14.57305527  139.02699280    0.50000000    2.98000002
   14.57638836  149.99899292    0.50000000    2.91000009
   14.57722187  154.05499268    0.50000000    2.89000010
   14.57999992  150.30700684    0.47999999    2.78999996
   14.58333302  154.05900574    0.44000000    2.69000006
   14.58638859  151.69999695    0.41999999    2.57999992
   14.58972168  153.30000305    0.41999999    2.53999996
   14.59277725  150.92900085    0.40000001    2.36999989
   14.59611034  146.54100037    0.38000000    2.17000008
   14.60222244  146.54100037    0.38000000    1.71000004
   14.60638905  150.63000488    0.40000001    1.48000002
   14.60944462  146.78100586    0.40000001    1.41999996
   14.61055565  125.99400330    0.40000001    1.25000000
   14.61333370  148.77799988    0.41999999    1.13000000
   14.61666679  144.99200439    0.41999999    1.09000003
   14.61972237  145.15400696    0.40000001    0.86000001
   14.62305546  148.41299438    0.40000001    0.80000001
   14.62611103  145.34899902    0.40000001    0.76999998
   14.62944412  150.37199402    0.41999999    0.73000002
   14.63277817  154.66999817    0.41999999    0.70999998
   14.63583279  140.97799683    0.41999999    0.73000002
   14.63916683  137.25799561    0.41999999    0.75000000
   14.64499950  137.25799561    0.38000000    0.80000001
   14.64916611  145.98800659    0.36000001    0.81999999
   14.65249920  149.04299927    0.36000001    0.83999997
   14.65555477  143.10000610    0.36000001    0.86000001
   14.65888882  134.34199524    0.34000000    0.86000001
   14.66222191  138.22399902    0.31999999    0.88000000
   14.66527748  141.21800232    0.31999999    0.89999998
   14.66861153  137.78999329    0.31999999    0.89999998
   14.67166710  143.70700073    0.31999999    0.89999998
   14.67500019  136.00100708    0.31999999    0.89999998
   14.67722225  138.99499512    0.30000001    0.88000000
   14.67861176  130.30900574    0.30000001    0.89999998
   14.68194485  139.34899902    0.30000001    0.88000000
   14.68777752  139.34899902    0.25999999    0.88000000
   14.69194412  142.24299622    0.25999999    0.88000000
   14.69527817  131.08299255    0.25999999    0.88000000
   14.69861126  141.53799438    0.25999999    0.86000001
   14.70166683  147.50100708    0.25999999    0.88000000
   14.70499992  144.83399963    0.25999999    0.88000000
   14.70805550  139.08299255    0.25000000    0.88000000
   14.71055508  141.10299683    0.25000000    0.86000001
   14.71194458  134.36599731    0.25000000    0.88000000
   14.71527767  139.63499451    0.25000000    0.86000001
   14.71833324  141.52499390    0.23000000    0.86000001
   14.72166634  139.59300232    0.25000000    0.86000001
   14.72472191  136.16799927    0.25000000    0.86000001
   14.73083305  136.16799927    0.25000000    0.83999997
   14.73500061  139.30499268    0.23000000    0.86000001
   14.73805618  141.78999329    0.23000000    0.83999997
   14.74138927  145.98199463    0.23000000    0.83999997
   14.74388885  137.11599731    0.23000000    0.83999997
   14.74499989  140.72399902    0.23000000    0.83999997
   14.74833393  130.99400330    0.23000000    0.83999997
   14.75138855  148.55000305    0.23000000    0.81999999
   14.75472260  149.97500610    0.23000000    0.81999999
   14.75777817  141.71000671    0.23000000    0.80000001
   14.76111126  143.20300293    0.23000000    0.79000002
   14.76444435  142.79100037    0.23000000    0.79000002
   14.76749992  129.72799683    0.23000000    0.79000002
   14.77361107  129.72799683    0.20999999    0.76999998
   14.77777767  143.74600220    0.23000000    0.75000000
   14.78083324  137.14100647    0.20999999    0.75000000
   14.78416729  140.56100464    0.23000000    0.75000000
   14.78750038  148.66499329    0.23000000    0.73000002
   14.79055595  143.57299805    0.20999999    0.73000002
   14.79388905  151.98100281    0.20999999    0.70999998
   14.79722309  147.69099426    0.19000000    0.70999998
   14.80027771  139.69700623    0.19000000    0.69000000
   14.80361176  138.65699768    0.17000000    0.69000000
   14.80666733  144.81399536    0.17000000    0.69000000
   14.81000042  143.82200623    0.17000000    0.67000002
   14.81055546  149.89999390    0.17000000    0.67000002
   14.81638908  149.89999390    0.17000000    0.64999998
   14.82055569  139.79100037    0.17000000    0.64999998
   14.82388878  136.61300659    0.17000000    0.64999998
   14.82694435  135.21899414    0.15000001    0.63000000
   14.83027744  156.85000610    0.15000001    0.63000000
   14.83333302  133.89599609    0.17000000    0.61000001
   14.83666611  138.95399475    0.15000001    0.61000001
   14.84000015  136.71800232    0.17000000    0.61000001
   14.84305477  136.79299927    0.15000001    0.58999997
   14.84388828  141.90800476    0.15000001    0.58999997
   14.84666634  138.96299744    0.15000001    0.58999997
   14.85000038  141.88000488    0.15000001    0.58999997
   14.85305595  145.88800049    0.15000001    0.58999997
   14.85916710  145.88800049    0.17000000    0.56999999
   14.86333370  141.28100586    0.17000000    0.56999999
   14.86666679  139.24299622    0.17000000    0.56999999
   14.86999989  139.41499329    0.17000000    0.56999999
   14.87305546  142.64599609    0.17000000    0.55000001
   14.87638855  128.11500549    0.17000000    0.55000001
   14.87722206  143.15899658    0.19000000    0.55000001
   14.88000011  137.21299744    0.17000000    0.55000001
   14.88333321  147.02999878    0.19000000    0.55000001
   14.88638878  137.62399292    0.17000000    0.55000001
   14.88972187  137.08399963    0.17000000    0.55000001
   14.89305496  143.66099548    0.17000000    0.55000001
   14.89611053  132.66299438    0.17000000    0.55000001
   14.90222168  132.66299438    0.17000000    0.55000001
   14.90611076  139.44900513    0.17000000    0.52999997
   14.90944386  142.08000183    0.17000000    0.52999997
   14.91055489  139.13099670    0.17000000    0.52999997
   14.91305542  146.58599854    0.17000000    0.52999997
   14.91638851  139.36300659    0.17000000    0.52999997
   14.91944504  137.11300659    0.17000000    0.52999997
   14.92277813  145.25500488    0.17000000    0.52999997
   14.92611122  144.37300110    0.17000000    0.52999997
   14.92916679  140.75300598    0.17000000    0.52999997
   14.93249989  140.83599854    0.17000000    0.52999997
   14.93555546  132.28199768    0.17000000    0.51999998
   14.93888855  139.84800720    0.17000000    0.51999998
   14.94499969  139.84800720    0.17000000    0.51999998
   14.94916630  143.98100281    0.17000000    0.50000000
   14.95222187  140.81599426    0.17000000    0.50000000
   14.95555496  135.77400208    0.17000000    0.50000000
   14.95888901  133.46800232    0.17000000    0.50000000
   14.96194458  138.36999512    0.15000001    0.50000000
   14.96527767  139.60800171    0.15000001    0.50000000
   14.96833324  142.78900146    0.15000001    0.47999999
   14.97166634  143.24000549    0.15000001    0.47999999
   14.97499943  144.62500000    0.15000001    0.47999999
   14.97722149  136.20700073    0.15000001    0.47999999
   14.97861099  143.88800049    0.15000001    0.46000001
   14.98194408  125.64099884    0.15000001    0.47999999
   14.98777771  125.64099884    0.13000000    0.46000001
   14.99194431  136.55900574    0.13000000    0.46000001
   14.99527836  135.47500610    0.13000000    0.46000001
   14.99833393  128.11999512    0.13000000    0.44000000
   15.00166702  128.61900330    0.13000000    0.44000000
   15.00472260  137.90600586    0.13000000    0.44000000
   15.00805569  147.69999695    0.13000000    0.44000000
   15.01055527  140.97599792    0.13000000    0.41999999
   15.01166630  138.66799927    0.13000000    0.44000000
   15.01500034  145.80400085    0.13000000    0.41999999
   15.01833344  139.10299683    0.13000000    0.41999999
   15.02138901  138.09899902    0.11000000    0.41999999
   15.02472210  143.09199524    0.11000000    0.41999999
   15.03055573  143.09199524    0.13000000    0.41999999
   15.03472233  148.53900146    0.13000000    0.40000001
   15.03805637  140.24000549    0.13000000    0.40000001
   15.04111195  142.34500122    0.13000000    0.40000001
   15.04388905  133.44900513    0.11000000    0.38000000
   15.04472256  142.17500305    0.13000000    0.40000001
   15.04805565  141.62399292    0.11000000    0.38000000
   15.05111122  144.35699463    0.11000000    0.38000000
   15.05444431  143.90299988    0.11000000    0.38000000
   15.05777836  149.80499268    0.11000000    0.38000000
   15.06083393  136.46899414    0.13000000    0.38000000
   15.06416702  145.47900391    0.13000000    0.36000001
   15.06722260  142.73300171    0.13000000    0.36000001
   15.07361126  142.73300171    0.13000000    0.36000001
   15.07777786  132.40699768    0.13000000    0.36000001
   15.08083344  138.04699707    0.11000000    0.34000000
   15.08416653  128.57000732    0.11000000    0.34000000
   15.08722210  132.27000427    0.11000000    0.31999999
   15.09055519  144.37899780    0.11000000    0.34000000
   15.09388828  143.25199890    0.11000000    0.31999999
   15.09694386  139.42700195    0.11000000    0.31999999
   15.10027790  138.40299988    0.11000000    0.31999999
   15.10361195  138.25399780    0.11000000    0.31999999
   15.10666752  138.67199707    0.11000000    0.30000001
   15.11000061  143.84199524    0.11000000    0.30000001
   15.11055565  139.92700195    0.11000000    0.30000001
   15.11638927  139.92700195    0.11000000    0.30000001
   15.12055588  141.27600098    0.11000000    0.30000001
   15.12361145  141.29699707    0.09000000    0.28000000
   15.12694454  136.71400452    0.11000000    0.28000000
   15.13027763  137.52600098    0.09000000    0.25999999
   15.13333321  142.30799866    0.09000000    0.28000000
   15.13666630  134.08799744    0.09000000    0.25999999
   15.13972187  137.29299927    0.09000000    0.25999999
   15.14305496  142.15299988    0.09000000    0.25999999
   15.14388847  136.04499817    0.09000000    0.25999999
   15.14666653  135.26800537    0.09000000    0.25999999
   15.14999962  134.61700439    0.09000000    0.25999999
   15.15305519  147.74299622    0.09000000    0.25000000
   15.15916634  147.74299622    0.09000000    0.25000000
   15.16333294  142.47000122    0.09000000    0.23000000
   15.16666698  146.04699707    0.09000000    0.23000000
   15.16972256  137.66600037    0.09000000    0.23000000
   15.17305565  141.84199524    0.09000000    0.23000000
   15.17611122  142.34399414    0.09000000    0.23000000
   15.17750072  150.72599792    0.09000000    0.23000000
   15.17972279  141.88600159    0.09000000    0.23000000
   15.18305588  147.45899963    0.09000000    0.20999999
   15.18611145  139.89799500    0.09000000    0.20999999
   15.18944454  133.50900269    0.09000000    0.20999999
   15.19277763  144.65600586    0.09000000    0.19000000
   15.19583321  145.28900146    0.09000000    0.19000000
   15.20194435  145.28900146    0.09000000    0.19000000
   15.20611095  141.24299622    0.09000000    0.19000000
   15.20944405  134.66000366    0.09000000    0.19000000
   15.21083355  140.14100647    0.09000000    0.19000000
   15.21305561  135.78700256    0.09000000    0.19000000
   15.21638870  142.93800354    0.09000000    0.17000000
   15.21944427  146.28999329    0.09000000    0.17000000
   15.22277737  137.58200073    0.09000000    0.17000000
   15.22611046  142.42599487    0.07000000    0.15000001
   15.22916603  140.22599792    0.07000000    0.15000001
   15.23249912  140.18299866    0.07000000    0.15000001
   15.23583317  142.85699463    0.07000000    0.15000001
   15.23888874  145.35600281    0.07000000    0.13000000
   15.24499989  145.35600281    0.07000000    0.13000000
   15.24888897  138.47200012    0.07000000    0.11000000
   15.25222206  141.51899719    0.09000000    0.13000000
   15.25555515  144.37500000    0.07000000    0.11000000
   15.25861073  147.81500244    0.07000000    0.11000000
   15.26194477  149.89199829    0.07000000    0.11000000
   15.26527786  143.07099915    0.07000000    0.09000000
   15.26833344  136.72200012    0.07000000    0.09000000
   15.27166653  143.75999451    0.07000000    0.09000000
   15.27499962  144.46200562    0.07000000    0.09000000
   15.27750015  136.30099487    0.07000000    0.09000000
   15.27833271  139.40100098    0.07000000    0.09000000
   15.28166676  143.66900635    0.07000000    0.09000000
   15.28777790  143.66900635    0.07000000    0.07000000
   15.29194450  140.81500244    0.07000000    0.09000000
   15.29500008  146.66400146    0.07000000    0.09000000
   15.29833412  139.37699890    0.07000000    0.07000000
   15.30166721  146.76699829    0.07000000    0.07000000
   15.30472279  145.36500549    0.07000000    0.07000000
   15.30805588  136.64199829    0.07000000    0.07000000
   15.31083393  142.80799866    0.07000000    0.07000000
   15.31166649  146.57000732    0.07000000    0.07000000
   15.31500053  148.13000488    0.07000000    0.07000000
   15.31833363  146.38499451    0.07000000    0.07000000
   15.32138920  142.35800171    0.07000000    0.07000000
   15.32472229  143.40699768    0.07000000    0.07000000
   15.33055592  143.40699768    0.07000000    0.05000000
   15.33472157  145.27900696    0.07000000    0.05000000
   15.33805561  142.01600647    0.07000000    0.05000000
   15.34111118  137.37300110    0.07000000    0.05000000
   15.34416676  142.62399292    0.07000000    0.05000000
   15.34472179  142.01600647    0.07000000    0.05000000
   15.34805489  144.83500671    0.05000000    0.05000000
   15.35166740  141.71000671    0.07000000    0.05000000
   15.35472298  151.40199280    0.07000000    0.05000000
   15.35805607  142.28999329    0.05000000    0.05000000
   15.36138916  145.07099915    0.07000000    0.05000000
   15.36444473  141.09300232    0.05000000    0.05000000
   15.36777782  136.99899292    0.07000000    0.05000000
   15.37333393  136.99899292    0.05000000    0.03000000
   15.37750053  144.39100647    0.05000000    0.05000000
   15.38083363  137.25100708    0.07000000    0.03000000
   15.38388920  142.71299744    0.05000000    0.03000000
   15.38722229  145.72900391    0.07000000    0.03000000
   15.39055538  139.59899902    0.07000000    0.03000000
   15.39361095  139.55299377    0.07000000    0.03000000
   15.39694405  145.26800537    0.05000000    0.03000000
   15.40027714  140.68099976    0.07000000    0.03000000
   15.40333271  163.13800049    0.07000000    0.03000000
   15.40666676  147.70199585    0.07000000    0.03000000
   15.40972137  182.38499451    0.05000000    0.03000000
   15.41083336  187.94500732    0.07000000    0.01000000
   15.41638851  187.94500732    0.07000000    0.03000000
   15.42027855  142.82299805    0.07000000    0.03000000
   15.42361164  129.92500305    0.07000000    0.01000000
   15.42694473  136.09599304    0.07000000    0.03000000
   15.44444466  134.41200256    0.07000000    0.01000000
   15.44694424  131.05299377    0.07000000    0.01000000
   15.44999981  137.22300720    0.05000000    0.01000000
   15.45333290  135.99899292    0.07000000    0.01000000
   15.45916653  135.99899292    0.05000000    0.01000000
   15.46333313  133.10600281    0.05000000    0.01000000
   15.46666622  139.66900635    0.05000000    0.01000000
   15.46999931  133.39500427    0.05000000    0.01000000
   15.47305489  136.56799316    0.05000000    0.01000000
   15.47638798  133.40600586    0.05000000    0.01000000
   15.47777748  145.60099792    0.05000000    0.01000000
   15.47999954  140.37199402    0.05000000    0.01000000
   15.48333359  139.68499756    0.05000000    0.01000000
   15.48666668  125.13999939    0.05000000    0.01000000
   15.48972225  133.37100220    0.05000000    0.01000000
   15.49305534  135.25500488    0.05000000    0.01000000
   15.49611092  139.25300598    0.05000000    0.01000000
   15.50222206  139.25300598    0.05000000    0.01000000
   15.50638866  134.64999390    0.05000000    0.01000000
   15.50944424  132.95199585    0.05000000    0.01000000
   15.51111126  141.12300110    0.07000000    0.01000000
   15.51305580  146.73500061    0.05000000    0.01000000
   15.51638889  130.77999878    0.05000000    0.01000000
   15.51972198  137.06700134    0.05000000    0.01000000
   15.52277756  134.55200195    0.05000000    0.01000000
   15.52611065  131.52900696    0.05000000    0.01000000
   15.52944374  141.75500488    0.05000000    0.01000000
   15.53249931  139.52999878    0.05000000    0.01000000
   15.53583336  135.04100037    0.05000000    0.01000000
   15.53916740  133.66499329    0.05000000    0.01000000
   15.54500008  133.66499329    0.05000000    0.01000000
   15.54916668  137.28599548    0.05000000    0.01000000
   15.55222225  136.29200745    0.05000000    0.01000000
   15.55555534  135.47000122    0.05000000    0.01000000
   15.55888939  142.75199890    0.05000000    0.01000000
   15.56194496  134.10400391    0.05000000    0.01000000
   15.56527805  142.44900513    0.05000000    0.01000000
   15.56861115  135.84300232    0.05000000    0.01000000
   15.57166672  139.69900513    0.05000000    0.01000000
   15.57499981  142.55999756    0.05000000    0.01000000
   15.57777786  137.97399902    0.05000000    0.01000000
   15.57861137  143.37399292    0.05000000    0.01000000
   15.58194447  139.19500732    0.05000000    0.01000000
   15.58777714  139.19500732    0.05000000    0.01000000
   15.59194374  143.22200012    0.05000000    0.01000000
   15.59527779  134.00500488    0.05000000    0.01000000
   15.59833336  137.56199646    0.05000000    0.01000000
   15.60166740  140.14199829    0.05000000    0.01000000
   15.60500050  138.20899963    0.05000000    0.01000000
   15.60805607  145.30700684    0.05000000    0.01000000
   15.61111164  131.39500427    0.05000000    0.01000000
   15.61166668  133.45700073    0.05000000    0.01000000
   15.61500072  141.10200500    0.05000000    0.01000000
   15.61833382  135.42700195    0.05000000    0.01000000
   15.62138939  133.44599915    0.05000000    0.01000000
   15.62472248  132.19099426    0.05000000    0.01000000
   15.63055611  132.19099426    0.05000000    0.01000000
   15.63472176  133.86799622    0.05000000    0.01000000
   15.63805580  139.21299744    0.05000000    0.01000000
   15.64138889  138.53700256    0.05000000    0.01000000
   15.64444447  135.30200195    0.05000000    0.01000000
   15.64472198  131.05900574    0.05000000    0.01000000
   15.64805508  134.08299255    0.05000000    0.01000000
   15.65138817  129.91999817    0.05000000    0.01000000
   15.65444374  131.01899719    0.05000000    0.01000000
   15.65777779  132.47999573    0.05000000    0.01000000
   15.66111088  143.68400574    0.05000000    0.01000000
   15.66416645  136.45700073    0.05000000    0.01000000
   15.66750050  142.72399902    0.05000000    0.01000000
   15.67361164  142.72399902    0.05000000    0.01000000
   15.67777824  134.59399414    0.05000000    0.01000000
   15.67805576  142.10699463    0.05000000    0.01000000
   15.68138885  139.05299377    0.05000000    0.01000000
   15.68472195  134.89999390    0.05000000    0.01000000
   15.68777752  133.24600220    0.05000000    0.01000000
   15.69111156  131.36000061    0.05000000    0.01000000
   15.69444466  139.51400757    0.05000000    0.01000000
   15.69750023  141.82899475    0.05000000    0.01000000
   15.70083332  127.79699707    0.05000000    0.01000000
   15.70416641  141.28199768    0.05000000    0.01000000
   15.70722198  130.09199524    0.05000000    0.01000000
   15.71055508  131.81500244    0.05000000    0.01000000
   15.71111107  130.37899780    0.05000000    0.01000000
   15.71638870  130.37899780    0.05000000    0.01000000
   15.72055531  135.56599426    0.05000000    0.01000000
   15.72361088  134.05900574    0.05000000    0.01000000
   15.72694397  128.12899780    0.05000000    0.01000000
   15.73027706  136.33500671    0.05000000    0.01000000
   15.73333359  132.44500732    0.05000000    0.01000000
   15.73666668  136.11000061    0.05000000    0.01000000
   15.74000072  140.97399902    0.05000000    0.01000000
   15.74305534  131.42799377    0.05000000    0.01000000
   15.74444485  139.40600586    0.05000000    0.01000000
   15.74666691  137.47500610    0.05000000    0.01000000
   15.75000000  134.55299377    0.05000000    0.01000000
   15.75333309  135.25100708    0.05000000    0.01000000
   15.75916672  135.25100708    0.05000000    0.01000000
   15.76333332  129.26499939    0.05000000    0.01000000
   15.76666641  142.89599609    0.05000000    0.01000000
   15.76972198  138.51800537    0.05000000    0.01000000
   15.77305508  134.98100281    0.05000000    0.01000000
   15.77638817  138.44999695    0.05000000    0.01000000
   15.77777767  141.12899780    0.05000000    0.01000000
   15.77999973  135.86599731    0.05000000    0.01000000
   15.78305531  137.92500305    0.05000000    0.01000000
   15.78638935  138.01100159    0.05000000    0.01000000
   15.78944492  140.30400085    0.05000000    0.01000000
   15.79277802  137.09700012    0.05000000    0.01000000
   15.79611111  129.82699585    0.05000000    0.01000000
   15.80194473  129.82699585    0.05000000    0.01000000
   15.80611134  135.20300293    0.05000000    0.01000000
   15.80944443  138.83900452    0.05000000    0.01000000
   15.81111145  136.90400696    0.05000000    0.01000000
   15.81333351  142.99800110    0.05000000    0.01000000
   15.81638908  137.19999695    0.05000000    0.01000000
   15.81972218  142.36999512    0.05000000    0.01000000
   15.82277775  144.73899841    0.05000000    0.01000000
   15.82611084  141.99299622    0.05000000    0.01000000
   15.82944393  140.33700562    0.05000000    0.01000000
   15.83249950  142.21800232    0.05000000    0.01000000
   15.83583260  142.76400757    0.05000000    0.01000000
   15.83916664  140.44000244    0.05000000    0.01000000
   15.84499931  140.44000244    0.05000000    0.01000000
   15.84888840  145.51899719    0.05000000    0.01000000
   15.85222244  145.94599915    0.05000000    0.01000000
   15.85555553  146.01199341    0.05000000    0.01000000
   15.85861111  143.63900757    0.05000000    0.01000000
   15.86194515  137.20199585    0.05000000    0.01000000
   15.86527824  134.18299866    0.05000000    0.01000000
   15.86833382  135.67599487    0.05000000    0.01000000
   15.87166691  136.57899475    0.05000000    0.01000000
   15.87500000  133.21800232    0.05000000    0.01000000
   15.87777805  140.29600525    0.05000000    0.01000000
   15.87861156  136.54600525    0.05000000    0.01000000
   15.88166714  142.33900452    0.05000000    0.01000000
   15.88777733  142.33900452    0.05000000    0.01000000
   15.89194393  127.82599640    0.05000000    0.01000000
   15.89499950  132.57499695    0.05000000    0.01000000
   15.89833355  129.38499451    0.05000000    0.01000000
   15.90166664  146.35299683    0.05000000    0.01000000
   15.90472221  146.01499939    0.05000000    0.01000000
   15.90805531  134.76400757    0.05000000    0.01000000
   15.91111088  133.62300110    0.05000000    0.01000000
   15.91138840  134.12300110    0.05000000    0.01000000
   15.91472149  145.42700195    0.05000000    0.01000000
   15.91805553  140.63299561    0.05000000    0.01000000
   15.92111111  146.11799622    0.05000000    0.01000000
   15.92444515  136.85899353    0.05000000    0.01000000
   15.93055630  136.85899353    0.05000000    0.01000000
   15.93472195  133.57499695    0.05000000    0.01000000
   15.93805599  143.49400330    0.05000000    0.01000000
   15.94111156  136.94099426    0.05000000    0.01000000
   15.94444466  131.63600159    0.05000000    0.01000000
   15.94472218  137.56100464    0.05000000    0.01000000
   15.94805527  131.38400269    0.05000000    0.01000000
   15.95138836  132.68200684    0.05000000    0.01000000
   15.95444393  139.25999451    0.05000000    0.01000000
   15.95777798  137.71699524    0.05000000    0.01000000
   15.96111107  133.71400452    0.05000000    0.01000000
   15.96416664  139.45599365    0.05000000    0.01000000
   15.96749973  133.33500671    0.05000000    0.01000000
   15.97333336  133.33500671    0.05000000    0.01000000
   15.97749996  132.30099487    0.05000000    0.01000000
   15.97805500  141.62100220    0.05000000    0.01000000
   15.98138809  133.50900269    0.05000000    0.01000000
   15.98444462  132.29699707    0.05000000    0.01000000
   15.98777771  143.06900024    0.05000000    0.01000000
   15.99111176  141.56300354    0.05000000    0.01000000
   15.99416733  148.08700562    0.05000000    0.01000000
   15.99750042  146.00799561    0.05000000    0.01000000
   16.00083351  141.47700500    0.05000000    0.01000000
   16.00388908  130.86500549    0.05000000    0.01000000
   16.00722313  137.37699890    0.05000000    0.01000000
   16.01027870  134.28900146    0.05000000    0.01000000
   16.01138878  130.48500061    0.05000000    0.01000000
   16.01638794  130.48500061    0.05000000    0.01000000
   16.02027702  136.98300171    0.05000000    0.01000000
   16.02361107  135.13900757    0.05000000    0.01000000
   16.02694511  138.10499573    0.05000000    0.01000000
   16.03000069  140.69900513    0.05000000    0.01000000
   16.03333282  139.24299622    0.05000000    0.01000000
   16.03666687  130.96899414    0.05000000    0.01000000
   16.03972244  144.88000488    0.05000000    0.01000000
   16.04305458  138.62600708    0.05000000    0.01000000
   16.04472160  137.46200562    0.05000000    0.01000000
   16.04666710  139.48599243    0.05000000    0.01000000
   16.04972076  137.62800598    0.05000000    0.01000000
   16.05305481  132.35699463    0.05000000    0.01000000
   16.05916595  132.35699463    0.05000000    0.01000000
   16.06333351  143.93699646    0.05000000    0.01000000
   16.06638718  136.19700623    0.05000000    0.01000000
   16.06972313  144.29699707    0.05000000    0.01000000
   16.07305717  139.71299744    0.05000000    0.01000000
   16.07611275  137.49299622    0.05000000    0.01000000
   16.07805634  135.66299438    0.05000000    0.01000000
   16.07972336  134.09399414    0.05000000    0.01000000
   16.08277893  135.06799316    0.05000000    0.01000000
   16.08611107  131.79100037    0.05000000    0.01000000
   16.08944511  130.94200134    0.05000000    0.01000000
   16.09250069  132.10000610    0.05000000    0.01000000
   16.09583473  135.60699463    0.05000000    0.01000000
   16.10194397  135.60699463    0.05000000    0.01000000
   16.10611153  129.61199951    0.05000000    0.01000000
   16.10944557  137.88099670    0.05000000    0.01000000
   16.11138916  128.83299255    0.05000000    0.01000000
   16.11305618  134.77999878    0.05000000    0.01000000
   16.11638832  138.79400635    0.05000000    0.01000000
   16.11944389  134.23599243    0.05000000    0.01000000
   16.12277794  141.79699707    0.05000000    0.01000000
   16.12583351  144.01400757    0.05000000    0.01000000
   16.12916756  137.38499451    0.05000000    0.01000000
   16.13249969  137.19200134    0.05000000    0.01000000
   16.13555527  139.58799744    0.05000000    0.01000000
   16.13888931  144.86900330    0.05000000    0.01000000
   16.14472198  144.86900330    0.05000000    0.01000000
   16.14888954  139.18299866    0.05000000    0.01000000
   16.15222168  126.02100372    0.05000000    0.01000000
   16.15527725  133.34199524    0.05000000    0.01000000
   16.15861130  135.11500549    0.05000000    0.01000000
   16.16194344  134.54299927    0.05000000    0.01000000
   16.16499901  130.94200134    0.05000000    0.01000000
   16.16833305  138.43099976    0.05000000    0.01000000
   16.17166519  129.82800293    0.05000000    0.01000000
   16.17472076  131.97700500    0.05000000    0.01000000
   16.17805481  128.42100525    0.05000000    0.01000000
   16.17972183  129.28500366    0.05000000    0.01000000
   16.18166542  129.54899597    0.05000000    0.01000000
   16.18777657  129.54899597    0.05000000    0.01000000
   16.19166565  131.97099304    0.05000000    0.01000000
   16.19499969  134.09300232    0.05000000    0.01000000
   16.19833183  133.42399597    0.05000000    0.01000000
   16.20138931  130.17199707    0.05000000    0.01000000
   16.20472336  135.90600586    0.05000000    0.01000000
   16.20805550  128.38600159    0.05000000    0.01000000
   16.21111107  134.69099426    0.05000000    0.01000000
   16.21305656  140.66099548    0.05000000    0.01000000
   16.21472359  137.82000732    0.05000000    0.01000000
   16.21805573  133.63299561    0.05000000    0.01000000
   16.22111130  139.39900208    0.05000000    0.01000000
   16.22444534  135.66000366    0.05000000    0.01000000
   16.23055649  135.66000366    0.05000000    0.01000000
   16.23472214  134.19999695    0.05000000    0.01000000
   16.23777771  135.03799438    0.05000000    0.01000000
   16.24111176  133.49299622    0.05000000    0.01000000
   16.24444389  143.37399292    0.05000000    0.01000000
   16.24666786  131.03399658    0.05000000    0.01000000
   16.24805641  134.08399963    0.05000000    0.01000000
   16.25138855  137.01499939    0.05000000    0.01000000
   16.25444412  133.78199768    0.05000000    0.01000000
   16.25777817  135.05099487    0.05000000    0.01000000
   16.26083374  138.09599304    0.05000000    0.01000000
   16.26416588  136.25799561    0.05000000    0.01000000
   16.26749992  129.72799683    0.05000000    0.01000000
   16.27333260  129.72799683    0.05000000    0.01000000
   16.27750015  135.69500732    0.05000000    0.01000000
   16.28000069  132.69900513    0.05000000    0.01000000
   16.28111076  128.50000000    0.05000000    0.01000000
   16.28444481  131.32600403    0.05000000    0.01000000
   16.28750038  131.67399597    0.05000000    0.01000000
   16.29083252  118.41899872    0.05000000    0.01000000
   16.29388809  134.23800659    0.05000000    0.01000000
   16.29722214  133.52000427    0.05000000    0.01000000
   16.30055428  132.76699829    0.05000000    0.01000000
   16.30360985  123.28199768    0.05000000    0.01000000
   16.30694389  137.02699280    0.05000000    0.01000000
   16.31027794  121.36399841    0.05000000    0.01000000
   16.31611061  121.36399841    0.05000000    0.01000000
   16.32027817  123.76499939    0.05000000    0.01000000
   16.32361221  136.69999695    0.05000000    0.01000000
   16.32666779  134.70500183    0.05000000    0.01000000
   16.33000183  126.90200043    0.05000000    0.01000000
   16.33333397  134.81799316    0.05000000    0.01000000
   16.33638954  134.08000183    0.05000000    0.01000000
   16.33972359  133.27600098    0.05000000    0.01000000
   16.34305573  131.00900269    0.05000000    0.01000000
   16.34611130  130.68499756    0.05000000    0.01000000
   16.34722328  133.87199402    0.05000000    0.01000000
   16.34972191  126.80300140    0.05000000    0.01000000
   16.35305595  132.83099365    0.05000000    0.01000000
   16.35916710  132.83099365    0.05000000    0.01000000
   16.36305618  122.90499878    0.05000000    0.01000000
   16.36638832  140.20899963    0.05000000    0.01000000
   16.36972237  142.24099731    0.05000000    0.01000000
   16.37277794  144.45100403    0.05000000    0.01000000
   16.37611198  143.82299805    0.05000000    0.01000000
   16.37944412  140.76600647    0.05000000    0.01000000
   16.38055611  136.08700562    0.05000000    0.01000000
   16.38305473  135.63099670    0.05000000    0.01000000
   16.38638878  131.70100403    0.05000000    0.01000000
   16.38944435  139.64199829    0.05000000    0.01000000
   16.39277840  130.52200317    0.05000000    0.01000000
   16.39611053  139.57699585    0.05000000    0.01000000
   16.40194321  139.57699585    0.05000000    0.01000000
   16.40611076  134.22000122    0.05000000    0.01000000
   16.40916634  133.44799805    0.05000000    0.01000000
   16.41250038  134.09300232    0.05000000    0.01000000
   16.41388893  138.32099915    0.05000000    0.01000000
   16.41611099  136.84800720    0.05000000    0.01000000
   16.41944313  140.38699341    0.05000000    0.01000000
   16.42249870  132.89599609    0.05000000    0.01000000
   16.42583275  142.27600098    0.05000000    0.01000000
   16.42888832  138.75900269    0.05000000    0.01000000
   16.43222237  133.70899963    0.05000000    0.01000000
   16.43555450  139.08299255    0.05000000    0.01000000
   16.43861008  132.55599976    0.05000000    0.01000000
   16.44472122  132.55599976    0.05000000    0.01000000
   16.46305656  138.89900208    0.05000000    0.01000000
   16.46638870  137.44099426    0.05000000    0.01000000
   16.46972275  136.99600220    0.05000000    0.01000000
   16.47277832  148.61199951    0.05000000    0.01000000
   16.47611237  128.81500244    0.05000000    0.01000000
   16.47916794  141.16600037    0.05000000    0.01000000
   16.48250008  141.64599609    0.05000000    0.01000000
   16.48777771  141.64599609    0.05000000    0.01000000
   16.49194527  126.06600189    0.05000000    0.01000000
   16.49527740  137.91000366    0.05000000    0.01000000
   16.49611092  136.24499512    0.05000000    0.01000000
   16.49888992  130.60899353    0.05000000    0.01000000
   16.50222206  133.80099487    0.05000000    0.01000000
   16.50527763  135.58099365    0.05000000    0.01000000
   16.50861168  138.18699646    0.05000000    0.01000000
   16.51166725  125.93499756    0.05000000    0.01000000
   16.51499939  140.51100159    0.05000000    0.01000000
   16.51833344  148.69900513    0.05000000    0.01000000
   16.52138901  138.51699829    0.05000000    0.01000000
   16.52472115  134.18099976    0.05000000    0.01000000
   16.53055573  134.18099976    0.05000000    0.01000000
   16.53472137  128.49499512    0.05000000    0.01000000
   16.53805542  132.97799683    0.05000000    0.01000000
   16.54138756  132.08099365    0.05000000    0.01000000
   16.54444313  131.26100159    0.05000000    0.01000000
   16.54777718  132.09300232    0.05000000    0.01000000
   16.55083275  139.01100159    0.05000000    0.01000000
   16.55416679  137.82299805    0.05000000    0.01000000
   16.55749893  131.56599426    0.05000000    0.01000000
   16.56055450  138.72399902    0.05000000    0.01000000
   16.56277657  134.35899353    0.05000000    0.01000000
   16.56416512  136.86500549    0.05000000    0.01000000
   16.56750107  127.90299988    0.05000000    0.01000000
   16.57361221  127.90299988    0.05000000    0.01000000
   16.57777786  135.12600708    0.05000000    0.01000000
   16.58083344  135.42599487    0.05000000    0.01000000
   16.58416748  129.64399719    0.05000000    0.01000000
   16.58722305  128.18099976    0.05000000    0.01000000
   16.59055710  127.97499847    0.05000000    0.01000000
   16.59388924  134.72700500    0.05000000    0.01000000
   16.59611130  123.58699799    0.05000000    0.01000000
   16.59749985  137.40899658    0.05000000    0.01000000
   16.60083389  139.82400513    0.05000000    0.01000000
   16.60388947  135.50399780    0.05000000    0.01000000
   16.60722351  132.86399841    0.05000000    0.01000000
   16.61027908  140.04600525    0.05000000    0.01000000
   16.61638832  140.04600525    0.05000000    0.01000000
   16.62055588  137.58500671    0.05000000    0.01000000
   16.62361145  140.66200256    0.05000000    0.01000000
   16.62694550  126.71900177    0.05000000    0.01000000
   16.62944412  137.91900635    0.05000000    0.01000000
   16.63055611  123.93199921    0.05000000    0.01000000
   16.63388824  136.36000061    0.05000000    0.01000000
   16.63694382  132.14300537    0.05000000    0.01000000
   16.64027786  126.59500122    0.05000000    0.01000000
   16.64361191  128.84700012    0.05000000    0.01000000
   16.64666748  133.71600342    0.05000000    0.01000000
   16.64999962  134.70500183    0.05000000    0.01000000
   16.65305519  134.14399719    0.05000000    0.01000000
   16.65916634  134.14399719    0.05000000    0.01000000
   16.66333389  127.42700195    0.05000000    0.01000000
   16.66666603  130.44500732    0.05000000    0.01000000
   16.66972160  125.53900146    0.05000000    0.01000000
   16.67305565  136.95399475    0.05000000    0.01000000
   16.67638779  128.13699341    0.05000000    0.01000000
   16.67944336  138.89199829    0.05000000    0.01000000
   16.68277740  147.55799866    0.05000000    0.01000000
   16.68583298  132.39700317    0.05000000    0.01000000
   16.68916512  143.89300537    0.05000000    0.01000000
   16.69249916  138.78500366    0.05000000    0.01000000
   16.69555473  139.62199402    0.05000000    0.01000000
   16.69610977  139.77499390    0.05000000    0.01000000
   16.70194435  139.77499390    0.05000000    0.01000000
   16.70611191  141.37600708    0.05000000    0.01000000
   16.70944595  128.52799988    0.05000000    0.01000000
   16.71277809  144.14599609    0.05000000    0.01000000
   16.71583366  135.44400024    0.05000000    0.01000000
   16.71916771  140.83599854    0.05000000    0.01000000
   16.72249985  130.59399414    0.05000000    0.01000000
   16.72555542  138.43699646    0.05000000    0.01000000
   16.72888947  137.61999512    0.05000000    0.01000000
   16.72944450  136.09300232    0.05000000    0.01000000
   16.73250008  139.48399353    0.05000000    0.01000000
   16.73583412  142.12300110    0.05000000    0.01000000
   16.73888969  139.89799500    0.05000000    0.01000000
   16.74500084  139.89799500    0.05000000    0.01000000
   16.74916649  143.50000000    0.05000000    0.01000000
   16.75222206  141.18899536    0.05000000    0.01000000
   16.75555611  140.05000305    0.05000000    0.01000000
   16.75861168  137.54800415    0.05000000    0.01000000
   16.76194382  135.27000427    0.05000000    0.01000000
   16.76277733  122.46900177    0.05000000    0.01000000
   16.76555634  136.46699524    0.05000000    0.01000000
   16.76888847  125.46399689    0.05000000    0.01000000
   16.77194405  131.81100464    0.05000000    0.01000000
   16.77527809  128.95100403    0.05000000    0.01000000
   16.77861023  143.75100708    0.05000000    0.01000000
   16.78166580  137.71000671    0.05000000    0.01000000
   16.78777695  137.71000671    0.05000000    0.01000000
   16.79194450  133.21299744    0.05000000    0.01000000
   16.79500008  138.16499329    0.05000000    0.01000000
   16.79611015  143.53100586    0.05000000    0.01000000
   16.79861069  143.97900391    0.05000000    0.01000000
   16.80194283  128.82899475    0.05000000    0.01000000
   16.80499840  131.59599304    0.05000000    0.01000000
   16.80833244  136.55200195    0.05000000    0.01000000
   16.81166649  138.80700684    0.05000000    0.01000000
   16.81472206  131.54600525    0.05000000    0.01000000
   16.81805611  132.63800049    0.05000000    0.01000000
   16.82111168  140.83200073    0.05000000    0.01000000
   16.82444572  148.21299744    0.05000000    0.01000000
   16.83055687  148.21299744    0.05000000    0.01000000
   16.83472252  126.33799744    0.05000000    0.01000000
   16.83805656  128.63499451    0.05000000    0.01000000
   16.84111214  145.35499573    0.05000000    0.01000000
   16.84444427  144.04699707    0.05000000    0.01000000
   16.84777832  138.53799438    0.05000000    0.01000000
   16.85083389  136.41900635    0.05000000    0.01000000
   16.85416794  145.66499329    0.05000000    0.01000000
   16.85722351  131.03599548    0.05000000    0.01000000
   16.86055565  138.10699463    0.05000000    0.01000000
   16.86277771  130.91400146    0.05000000    0.01000000
   16.86416626  135.23599243    0.05000000    0.01000000
   16.86750031  143.61599731    0.05000000    0.01000000
   16.87333298  143.61599731    0.05000000    0.01000000
   16.87750053  134.41299438    0.05000000    0.01000000
   16.88083267  135.30900574    0.05000000    0.01000000
   16.88416672  144.74699402    0.05000000    0.01000000
   16.88722229  147.97799683    0.05000000    0.01000000
   16.89055634  134.82699585    0.05000000    0.01000000
   16.89361191  141.80299377    0.05000000    0.01000000
   16.89611053  129.53900146    0.05000000    0.01000000
   16.89722252  138.71000671    0.05000000    0.01000000
   16.90055466  135.24200439    0.05000000    0.01000000
   16.90361023  121.19499969    0.05000000    0.01000000
   16.90694427  140.05700684    0.05000000    0.01000000
   16.90999985  146.82299805    0.05000000    0.01000000
   16.91638756  146.82299805    0.05000000    0.01000000
   16.92055511  149.38099670    0.05000000    0.01000000
   16.92361069  141.01199341    0.05000000    0.01000000
   16.92694473  138.13699341    0.05000000    0.01000000
   16.92944336  132.90299988    0.05000000    0.01000000
   16.93055534  138.43699646    0.05000000    0.01000000
   16.93388748  141.64500427    0.05000000    0.01000000
   16.93694305  142.46000671    0.05000000    0.01000000
   16.94027710  148.41600037    0.05000000    0.01000000
   16.94333267  122.83799744    0.05000000    0.01000000
   16.94666672  138.29600525    0.05000000    0.01000000
   16.95000076  137.45599365    0.05000000    0.01000000
   16.95305634  140.86900330    0.05000000    0.01000000
   16.95916748  140.86900330    0.05000000    0.01000000
   16.96333504  139.15499878    0.05000000    0.01000000
   16.96638870  148.26400757    0.05000000    0.01000000
   16.96972275  124.25900269    0.05000000    0.01000000
   16.97305679  128.13699341    0.05000000    0.01000000
   16.97611237  129.88099670    0.05000000    0.01000000
   16.97944450  138.08700562    0.05000000    0.01000000
   16.98277855  130.78199768    0.05000000    0.01000000
   16.98583412  151.80000305    0.05000000    0.01000000
   16.98916626  146.40699768    0.05000000    0.01000000
   16.99222183  138.78300476    0.05000000    0.01000000
   16.99555588  139.99699402    0.05000000    0.01000000
   16.99611092  145.37800598    0.05000000    0.01000000
   17.00194359  145.37800598    0.05000000    0.01000000
   17.00611115  154.66600037    0.05000000    0.01000000
   17.00944519  151.03100586    0.05000000    0.01000000
   17.01250076  155.15600586    0.05000000    0.01000000
   17.01583290  138.31700134    0.05000000    0.01000000
   17.01916695  148.60499573    0.05000000    0.01000000
   17.02222252  140.61300659    0.05000000    0.01000000
   17.02555466  152.47300720    0.05000000    0.01000000
   17.02861023  132.49099731    0.05000000    0.01000000
   17.02944374  136.21299744    0.05000000    0.01000000
   17.03222275  146.53700256    0.05000000    0.01000000
   17.03555489  134.23899841    0.05000000    0.01000000
   17.03861046  129.36799622    0.05000000    0.01000000
   17.04472160  129.36799622    0.05000000    0.01000000
   17.04888916  134.26300049    0.05000000    0.01000000
   17.05222130  144.92999268    0.05000000    0.01000000
   17.05527687  141.40899658    0.05000000    0.01000000
   17.05861092  143.73500061    0.05000000    0.01000000
   17.06194305  147.97799683    0.05000000    0.01000000
   17.06277657  142.18899536    0.05000000    0.01000000
   17.06555557  147.78300476    0.05000000    0.01000000
   17.06888962  134.36700439    0.05000000    0.01000000
   17.07194519  134.44700623    0.05000000    0.01000000
   17.07527924  147.73500061    0.05000000    0.01000000
   17.07861137  139.09199524    0.05000000    0.01000000
   17.08166695  147.07099915    0.05000000    0.01000000
   17.08777809  147.07099915    0.05000000    0.01000000
   17.09194565  141.71499634    0.05000000    0.01000000
   17.09500122  135.22000122    0.05000000    0.01000000
   17.09638977  137.12800598    0.05000000    0.01000000
   17.09861183  136.86700439    0.05000000    0.01000000
   17.10194397  149.07699585    0.05000000    0.01000000
   17.10499954  134.15800476    0.05000000    0.01000000
   17.10833359  144.08200073    0.05000000    0.01000000
   17.11166763  136.91299438    0.05000000    0.01000000
   17.11472321  137.47799683    0.05000000    0.01000000
   17.11805534  135.26100159    0.05000000    0.01000000
   17.12138939  128.18899536    0.05000000    0.01000000
   17.12444496  132.36799622    0.05000000    0.01000000
   17.13055611  132.36799622    0.05000000    0.01000000
   17.13472176  140.67999268    0.05000000    0.01000000
   17.13777733  139.13000488    0.05000000    0.01000000
   17.14111137  137.93600464    0.05000000    0.01000000
   17.14444351  141.56599426    0.05000000    0.01000000
   17.14749908  141.69099426    0.05000000    0.01000000
   17.15083313  141.29400635    0.05000000    0.01000000
   17.15388870  134.22000122    0.05000000    0.01000000
   17.15722275  138.31900024    0.05000000    0.01000000
   17.16055489  142.01699829    0.05000000    0.01000000
   17.16305542  149.71600342    0.05000000    0.01000000
   17.16416550  140.40899658    0.05000000    0.01000000
   17.16749954  129.88600159    0.05000000    0.01000000
   17.17333221  129.88600159    0.05000000    0.01000000
   17.17749977  123.56700134    0.05000000    0.01000000
   17.18083191  146.97099304    0.05000000    0.01000000
   17.18388748  133.53599548    0.05000000    0.01000000
   17.18722153  139.70799255    0.05000000    0.01000000
   17.19027710  145.13099670    0.05000000    0.01000000
   17.19361115  132.26199341    0.05000000    0.01000000
   17.19638824  124.09200287    0.05000000    0.01000000
   17.19722176  124.49500275    0.05000000    0.01000000
   17.20055580  132.04400635    0.05000000    0.01000000
   17.20361137  127.33499908    0.05000000    0.01000000
   17.20694542  142.33900452    0.05000000    0.01000000
   17.21027946  133.92700195    0.05000000    0.01000000
   17.21611214  133.92700195    0.05000000    0.01000000
   17.22027779  138.49600220    0.05000000    0.01000000
   17.22361183  140.26100159    0.05000000    0.01000000
   17.22666740  127.21900177    0.05000000    0.01000000
   17.22972298  135.86399841    0.05000000    0.01000000
   17.23027802  143.40800476    0.05000000    0.01000000
   17.23361206  141.95399475    0.05000000    0.01000000
   17.23666763  138.00700378    0.05000000    0.01000000
   17.23999977  125.54799652    0.05000000    0.01000000
   17.24333382  131.72900391    0.05000000    0.01000000
   17.24638939  122.51699829    0.05000000    0.01000000
   17.24972153  119.49500275    0.05000000    0.01000000
   17.25305557  123.50900269    0.05000000    0.01000000
   17.25944519  123.50900269    0.05000000    0.01000000
   17.26361084  125.21299744    0.05000000    0.01000000
   17.26666641  124.72799683    0.05000000    0.01000000
   17.27000046  132.37199402    0.05000000    0.01000000
   17.27333260  132.27699280    0.05000000    0.01000000
   17.27638817  136.36900330    0.05000000    0.01000000
   17.27972221  134.91400146    0.05000000    0.01000000
   17.28305435  123.30799866    0.05000000    0.01000000
   17.28610992  132.25799561    0.05000000    0.01000000
   17.28944397  121.78900146    0.05000000    0.01000000
   17.29249954  134.29600525    0.05000000    0.01000000
   17.29583359  139.07699585    0.05000000    0.01000000
   17.29638863  125.63700104    0.05000000    0.01000000
   17.30194283  125.63700104    0.05000000    0.01000000
   17.30611038  136.26600647    0.05000000    0.01000000
   17.30916595  141.30900574    0.05000000    0.01000000
   17.31250000  134.58200073    0.05000000    0.01000000
   17.31583214  133.41000366    0.05000000    0.01000000
   17.31916809  132.96600342    0.05000000    0.01000000
   17.32222366  132.18499756    0.05000000    0.01000000
   17.32555580  136.71200562    0.05000000    0.01000000
   17.32861137  131.25999451    0.05000000    0.01000000
   17.32972336  141.56700134    0.05000000    0.01000000
   17.33250046  133.16299438    0.05000000    0.01000000
   17.33555603  131.78500366    0.05000000    0.01000000
   17.33889008  135.94000244    0.05000000    0.01000000
   17.34472275  135.94000244    0.05000000    0.01000000
   17.34889030  132.92599487    0.05000000    0.01000000
   17.35222244  137.52499390    0.05000000    0.01000000
   17.35527802  152.05999756    0.05000000    0.01000000
   17.35861206  138.15400696    0.05000000    0.01000000
   17.36194420  132.48199463    0.05000000    0.01000000
   17.36305618  136.24600220    0.05000000    0.01000000
   17.36555672  137.05099487    0.05000000    0.01000000
   17.36861038  130.78500366    0.05000000    0.01000000
   17.37194443  127.91500092    0.05000000    0.01000000
   17.37527847  134.26899719    0.05000000    0.01000000
   17.37833405  130.86500549    0.05000000    0.01000000
   17.38166618  136.73800659    0.05000000    0.01000000
   17.38750076  136.73800659    0.05000000    0.01000000
   17.39166641  139.63099670    0.05000000    0.01000000
   17.39500046  145.68099976    0.05000000    0.01000000
   17.39638901  138.29299927    0.05000000    0.01000000
   17.39861107  139.60299683    0.05000000    0.01000000
   17.40166664  149.27499390    0.05000000    0.01000000
   17.40499878  150.97599792    0.05000000    0.01000000
   17.40833282  147.46800232    0.05000000    0.01000000
   17.41138840  146.54400635    0.05000000    0.01000000
   17.41472244  145.06399536    0.05000000    0.01000000
   17.41805458  150.43899536    0.05000000    0.01000000
   17.42111015  146.52400208    0.05000000    0.01000000
   17.42444420  143.17500305    0.05000000    0.01000000
   17.43055534  143.17500305    0.05000000    0.01000000
   17.43444443  148.69999695    0.05000000    0.01000000
   17.43777657  143.27400208    0.05000000    0.01000000
   17.44111061  139.59300232    0.05000000    0.01000000
   17.44416618  145.05000305    0.05000000    0.01000000
   17.44749832  135.89500427    0.05000000    0.01000000
   17.45083427  143.33900452    0.05000000    0.01000000
   17.45388985  140.47700500    0.05000000    0.01000000
   17.45722389  142.78199768    0.05000000    0.01000000
   17.46027946  146.69299316    0.05000000    0.01000000
   17.46305656  135.17500305    0.05000000    0.01000000
   17.48361206  135.17500305    0.05000000    0.01000000
   17.48777771  153.18600464    0.05000000    0.01000000
   17.49111176  143.59399414    0.05000000    0.01000000
   17.49416733  138.33999634    0.05000000    0.01000000
   17.49638939  148.89799500    0.05000000    0.01000000
   17.49805641  146.64300537    0.05000000    0.01000000
   17.50111198  146.81199646    0.05000000    0.01000000
   17.50444412  145.68699646    0.05000000    0.01000000
   17.50777817  143.66900635    0.05000000    0.01000000
   17.51083374  144.41499329    0.05000000    0.01000000
   17.51416588  139.29800415    0.05000000    0.01000000
   17.51749992  143.20599365    0.05000000    0.01000000
   17.52055550  138.93499756    0.05000000    0.01000000
   17.52638817  138.93499756    0.05000000    0.01000000
   17.53055573  147.76100159    0.05000000    0.01000000
   17.53388786  148.99699402    0.05000000    0.01000000
   17.53694344  137.73699951    0.05000000    0.01000000
   17.54027748  143.36500549    0.05000000    0.01000000
   17.54333305  143.02099609    0.05000000    0.01000000
   17.54666710  144.43200684    0.05000000    0.01000000
   17.54999924  137.46499634    0.05000000    0.01000000
   17.55305481  139.84399414    0.05000000    0.01000000
   17.55638885  130.94999695    0.05000000    0.01000000
   17.55972099  131.69099426    0.05000000    0.01000000
   17.56277657  146.58399963    0.05000000    0.01000000
   17.56333351  135.92799377    0.05000000    0.01000000
   17.56916809  135.92799377    0.05000000    0.01000000
   17.57333374  139.74800110    0.05000000    0.01000000
   17.57666779   98.86289978    0.05000000    0.01000000
   17.58000183  141.43800354    0.05000000    0.01000000
   17.58305550  129.17799377    0.05000000    0.01000000
   17.58638954  127.77799988    0.05000000    0.01000000
   17.58944511  124.51000214    0.05000000    0.01000000
   17.59277916  129.41099548    0.05000000    0.01000000
   17.59611130  129.77900696    0.05000000    0.01000000
   17.59666824  136.77200317    0.05000000    0.01000000
   17.59972191  134.87199402    0.05000000    0.01000000
   17.60305595  137.22000122    0.05000000    0.01000000
   17.60611153  128.73300171    0.05000000    0.01000000
   17.61222267  128.73300171    0.05000000    0.01000000
   17.61638832  136.80999756    0.05000000    0.01000000
   17.61944389  140.39300537    0.05000000    0.01000000
   17.62277794  140.20199585    0.05000000    0.01000000
   17.62583351  137.58399963    0.05000000    0.01000000
   17.62916756  139.71899414    0.05000000    0.01000000
   17.63000107  143.90100098    0.05000000    0.01000000
   17.63277817  131.38999939    0.05000000    0.01000000
   17.63611031  133.71400452    0.05000000    0.01000000
   17.63916588  132.99299622    0.05000000    0.01000000
   17.64249992  131.45799255    0.05000000    0.01000000
   17.64555550  132.42999268    0.05000000    0.01000000
   17.64888954  130.10200500    0.05000000    0.01000000
   17.65499878  130.10200500    0.05000000    0.01000000
   17.65916634  126.80799866    0.05000000    0.01000000
   17.66222191  134.40800476    0.05000000    0.01000000
   17.66333389  130.12500000    0.05000000    0.01000000
   17.66611099  135.06100464    0.05000000    0.01000000
   17.66916656  136.40699768    0.05000000    0.01000000
   17.67249870  137.28100586    0.05000000    0.01000000
   17.67583275  128.66700745    0.05000000    0.01000000
   17.67888832  128.05799866    0.05000000    0.01000000
   17.68222237  135.43200684    0.05000000    0.01000000
   17.68555450  130.18499756    0.05000000    0.01000000
   17.68861008  132.03700256    0.05000000    0.01000000
   17.69194412  138.56300354    0.05000000    0.01000000
   17.69777679  138.56300354    0.05000000    0.01000000
   17.70194435  142.25700378    0.05000000    0.01000000
   17.70527840  140.16400146    0.05000000    0.01000000
   17.70833397  137.55400085    0.05000000    0.01000000
   17.71166801  134.17100525    0.05000000    0.01000000
   17.71472359  137.53999329    0.05000000    0.01000000
   17.71805573  139.64900208    0.05000000    0.01000000
   17.72138977  131.89100647    0.05000000    0.01000000
   17.72444534  135.28199768    0.05000000    0.01000000
   17.72777748  141.63999939    0.05000000    0.01000000
   17.73000145  141.08799744    0.05000000    0.01000000
   17.73139000  138.14599609    0.05000000    0.01000000
   17.73444557  134.72300720    0.05000000    0.01000000
   17.74055672  134.72300720    0.05000000    0.01000000
   17.74472237  137.18099976    0.05000000    0.01000000
   17.74805641  127.89800262    0.05000000    0.01000000
   17.75111198  136.21000671    0.05000000    0.01000000
   17.75444412  139.53399658    0.05000000    0.01000000
   17.75777817  128.51800537    0.05000000    0.01000000
   17.76083374  134.02999878    0.05000000    0.01000000
   17.76333427  142.00900269    0.05000000    0.01000000
   17.76472282  145.32800293    0.05000000    0.01000000
   17.76777840  124.28500366    0.05000000    0.01000000
   17.77111053  145.39900208    0.05000000    0.01000000
   17.77444458  128.33900452    0.05000000    0.01000000
   17.77750015  137.40600586    0.05000000    0.01000000
   17.78361130  137.40600586    0.05000000    0.01000000
   17.78750038  140.87100220    0.05000000    0.01000000
   17.79083252  141.16000366    0.05000000    0.01000000
   17.79416656  141.86099243    0.05000000    0.01000000
   17.79666710  135.43699646    0.05000000    0.01000000
   17.79777718  129.67999268    0.05000000    0.01000000
   17.80083275  141.22500610    0.05000000    0.01000000
   17.80416679  133.94400024    0.05000000    0.01000000
   17.80749893  133.49200439    0.05000000    0.01000000
   17.81055450  135.30599976    0.05000000    0.01000000
   17.81388855  141.40899658    0.05000000    0.01000000
   17.81722260  140.61399841    0.05000000    0.01000000
   17.82027817  136.68600464    0.05000000    0.01000000
   17.82638931  136.68600464    0.05000000    0.01000000
   17.83055687  150.36199951    0.05000000    0.01000000
   17.83361244  143.31399536    0.05000000    0.01000000
   17.83694458  135.77600098    0.05000000    0.01000000
   17.84027863  144.45700073    0.05000000    0.01000000
   17.84333420  138.18699646    0.05000000    0.01000000
   17.84666824  135.91200256    0.05000000    0.01000000
   17.84972191  144.97599792    0.05000000    0.01000000
   17.85305595  139.48100281    0.05000000    0.01000000
   17.85639000  145.58700562    0.05000000    0.01000000
   17.85944557  131.00599670    0.05000000    0.01000000
   17.86277771  146.55499268    0.05000000    0.01000000
   17.86333466  133.07000732    0.05000000    0.01000000
   17.86916733  133.07000732    0.05000000    0.01000000
   17.87333298  130.54899597    0.05000000    0.01000000
   17.87666702  142.11099243    0.05000000    0.01000000
   17.87972260  137.18099976    0.05000000    0.01000000
   17.88305473  131.93400574    0.05000000    0.01000000
   17.88611031  138.31399536    0.05000000    0.01000000
   17.88944435  138.12199402    0.05000000    0.01000000
   17.89277840  127.65599823    0.05000000    0.01000000
   17.89583397  141.38600159    0.05000000    0.01000000
   17.89694405  139.73899841    0.05000000    0.01000000
   17.89972115  139.17500305    0.05000000    0.01000000
   17.90305519  137.36500549    0.05000000    0.01000000
   17.90611076  145.27000427    0.05000000    0.01000000
   17.91194344  145.27000427    0.05000000    0.01000000
   17.91611099  143.45300293    0.05000000    0.01000000
   17.91944313  146.04600525    0.05000000    0.01000000
   17.92249870  143.63400269    0.05000000    0.01000000
   17.92583275  142.94299316    0.05000000    0.01000000
   17.92916679  140.80099487    0.05000000    0.01000000
   17.93000031  136.62399292    0.05000000    0.01000000
   17.93277740  140.94500732    0.05000000    0.01000000
   17.93610954  134.39100647    0.05000000    0.01000000
   17.93916512  139.93899536    0.05000000    0.01000000
   17.94249916  141.13499451    0.05000000    0.01000000
   17.94555473  139.99600220    0.05000000    0.01000000
   17.94888878  137.94000244    0.05000000    0.01000000
   17.95499992  137.94000244    0.05000000    0.01000000
   17.95888901  145.23500061    0.05000000    0.01000000
   17.96222305  131.23399353    0.05000000    0.01000000
   17.96333504  141.43099976    0.05000000    0.01000000
   17.96583366  137.18499756    0.05000000    0.01000000
   17.96916771  142.99499512    0.05000000    0.01000000
   17.97222328  131.94799805    0.05000000    0.01000000
   17.97555542  144.53300476    0.05000000    0.01000000
   17.97861099  144.22500610    0.05000000    0.01000000
   17.98194504  141.12899780    0.05000000    0.01000000
   17.98527718  140.25100708    0.05000000    0.01000000
   17.98833275  140.98300171    0.05000000    0.01000000
   17.99166679  133.39500427    0.05000000    0.01000000
   17.99777794  133.39500427    0.05000000    0.01000000
   18.00194359  125.66000366    0.05000000    0.01000000
   18.00499916  128.53399658    0.05000000    0.01000000
   18.00833321  131.80000305    0.05000000    0.01000000
   18.01166725  135.64300537    0.05000000    0.01000000
   18.01472282  135.74200439    0.05000000    0.01000000
   18.01805496  144.61999512    0.05000000    0.01000000
   18.02111053  136.91900635    0.05000000    0.01000000
   18.02444458  130.22000122    0.05000000    0.01000000
   18.02777672  133.43499756    0.05000000    0.01000000
   18.03000069  140.86000061    0.05000000    0.01000000
   18.03138924  131.88999939    0.05000000    0.01000000
   18.03472137  129.15100098    0.05000000    0.01000000
   18.04055595  129.15100098    0.05000000    0.01000000
   18.04472160  135.36099243    0.05000000    0.01000000
   18.04777718  137.02000427    0.05000000    0.01000000
   18.05111122  130.50700378    0.05000000    0.01000000
   18.05444336  134.89799500    0.05000000    0.01000000
   18.05749893  128.07899475    0.05000000    0.01000000
   18.06083298  142.20100403    0.05000000    0.01000000
   18.06333351  135.72200012    0.05000000    0.01000000
   18.06444359  129.79499817    0.05000000    0.01000000
   18.06777954  126.93299866    0.05000000    0.01000000
   18.07083511  129.75900269    0.05000000    0.01000000
   18.07416725  131.97599792    0.05000000    0.01000000
   18.07722282  133.64399719    0.05000000    0.01000000
   18.08333397  133.64399719    0.05000000    0.01000000
   18.08750153  128.87500000    0.05000000    0.01000000
   18.09083366  131.17199707    0.05000000    0.01000000
   18.09388924  128.33799744    0.05000000    0.01000000
   18.09666824  131.59300232    0.05000000    0.01000000
   18.09777832  134.24200439    0.05000000    0.01000000
   18.10111237  130.76699829    0.05000000    0.01000000
   18.10416794  136.82000732    0.05000000    0.01000000
   18.10750008  125.28600311    0.05000000    0.01000000
   18.11055565  136.88699341    0.05000000    0.01000000
   18.11388969  135.30099487    0.05000000    0.01000000
   18.11722183  136.32699585    0.05000000    0.01000000
   18.12027740  130.40299988    0.05000000    0.01000000
   18.12638855  130.40299988    0.05000000    0.01000000
   18.13027763  140.48199463    0.05000000    0.01000000
   18.13361168  139.01699829    0.05000000    0.01000000
   18.13694382  138.08500671    0.05000000    0.01000000
   18.13999939  135.75000000    0.05000000    0.01000000
   18.14333344  142.33399963    0.05000000    0.01000000
   18.14638901  130.64900208    0.05000000    0.01000000
   18.14972115  133.43200684    0.05000000    0.01000000
   18.15305519  139.02499390    0.05000000    0.01000000
   18.15611076  129.70899963    0.05000000    0.01000000
   18.15944481  140.98800659    0.05000000    0.01000000
   18.16277695  135.43099976    0.05000000    0.01000000
   18.16333389  131.29499817    0.05000000    0.01000000
   18.16916656  131.29499817    0.05000000    0.01000000
   18.17333221  137.04800415    0.05000000    0.01000000
   18.17638779  144.14399719    0.05000000    0.01000000
   18.17972183  135.56500244    0.05000000    0.01000000
   18.18277740  140.52999878    0.05000000    0.01000000
   18.18610954  132.28300476    0.05000000    0.01000000
   18.18944359  132.51300049    0.05000000    0.01000000
   18.19277763  136.52900696    0.05000000    0.01000000
   18.19583321  138.64399719    0.05000000    0.01000000
   18.19666672  131.98300171    0.05000000    0.01000000
   18.19944382  136.87100220    0.05000000    0.01000000
   18.20277786  137.76699829    0.05000000    0.01000000
   18.20583344  133.32299805    0.05000000    0.01000000
   18.21194458  133.32299805    0.05000000    0.01000000
   18.21611214  136.14799500    0.05000000    0.01000000
   18.21916771  125.29000092    0.05000000    0.01000000
   18.22249985  132.50900269    0.05000000    0.01000000
   18.22583389  132.57000732    0.05000000    0.01000000
   18.22888947  142.10400391    0.05000000    0.01000000
   18.23000145  137.25199890    0.05000000    0.01000000
   18.23250008  147.10499573    0.05000000    0.01000000
   18.23583412  145.77400208    0.05000000    0.01000000
   18.23888969  125.66999817    0.05000000    0.01000000
   18.24222183  136.93699646    0.05000000    0.01000000
   18.24555588  128.33000183    0.05000000    0.01000000
   18.24861145  137.37199402    0.05000000    0.01000000
   18.25472260  137.37199402    0.05000000    0.01000000
   18.25888824  136.35600281    0.05000000    0.01000000
   18.26222229  133.56799316    0.05000000    0.01000000
   18.26333427  134.09300232    0.05000000    0.01000000
   18.26583290  139.31399536    0.05000000    0.01000000
   18.26916695  138.57600403    0.05000000    0.01000000
   18.27222252  146.53199768    0.05000000    0.01000000
   18.27555466  143.55799866    0.05000000    0.01000000
   18.27888870  143.85699463    0.05000000    0.01000000
   18.28194427  135.47000122    0.05000000    0.01000000
   18.28527641  140.46699524    0.05000000    0.01000000
   18.28833199  133.93400574    0.05000000    0.01000000
   18.29166603  129.23699951    0.05000000    0.01000000
   18.29749870  129.23699951    0.05000000    0.01000000
   18.30166626  138.99200439    0.05000000    0.01000000
   18.30499840  138.19700623    0.05000000    0.01000000
   18.30833244  143.33399963    0.05000000    0.01000000
   18.31138802  141.30700684    0.05000000    0.01000000
   18.31472206  137.40800476    0.05000000    0.01000000
   18.31777954  128.66400146    0.05000000    0.01000000
   18.32111168  137.75300598    0.05000000    0.01000000
   18.32444572  131.78399658    0.05000000    0.01000000
   18.32750130  130.98199463    0.05000000    0.01000000
   18.33000183  139.19500732    0.05000000    0.01000000
   18.33111191  127.19400024    0.05000000    0.01000000
   18.33444595  142.21899414    0.05000000    0.01000000
   18.34055710  142.21899414    0.05000000    0.01000000
   18.34472275  133.84599304    0.05000000    0.01000000
   18.34777832  127.22299957    0.05000000    0.01000000
   18.35111237  135.39399719    0.05000000    0.01000000
   18.35416794  147.77499390    0.05000000    0.01000000
   18.35750008  135.13800049    0.05000000    0.01000000
   18.36083412  147.50399780    0.05000000    0.01000000
   18.36361122  137.60200500    0.05000000    0.01000000
   18.36444473  139.35200500    0.05000000    0.01000000
   18.36777878  143.29400635    0.05000000    0.01000000
   18.37083435  136.53599548    0.05000000    0.01000000
   18.37416649  134.84599304    0.05000000    0.01000000
   18.37750053  133.44000244    0.05000000    0.01000000
   18.38333321  133.44000244    0.05000000    0.01000000
   18.38750076  144.77699280    0.05000000    0.01000000
   18.39055634  144.80299377    0.05000000    0.01000000
   18.39388847  141.82800293    0.05000000    0.01000000
   18.39694405  136.27600098    0.05000000    0.01000000
   18.39749908  145.66799927    0.05000000    0.01000000
   18.40083313  143.08700562    0.05000000    0.01000000
   18.40388870  141.76899719    0.05000000    0.01000000
   18.40722275  141.48800659    0.05000000    0.01000000
   18.41055489  141.01800537    0.05000000    0.01000000
   18.41361046  142.09500122    0.05000000    0.01000000
   18.41694450  144.60800171    0.05000000    0.01000000
   18.42027664  138.31199646    0.05000000    0.01000000
   18.42611122  138.31199646    0.05000000    0.01000000
   18.43027687  142.48300171    0.05000000    0.01000000
   18.43361092  128.02600098    0.05000000    0.01000000
   18.43666649  135.24200439    0.05000000    0.01000000
   18.43999863  134.74600220    0.05000000    0.01000000
   18.44333267  139.97599792    0.05000000    0.01000000
   18.44638824  146.27699280    0.05000000    0.01000000
   18.44972038  141.31399536    0.05000000    0.01000000
   18.45277786  128.88200378    0.05000000    0.01000000
   18.45611191  143.69000244    0.05000000    0.01000000
   18.45944595  139.70199585    0.05000000    0.01000000
   18.46250153  135.43600464    0.05000000    0.01000000
   18.46361160  133.96699524    0.05000000    0.01000000
   18.46888924  133.96699524    0.05000000    0.01000000
   18.47305679  141.83500671    0.05000000    0.01000000
   18.47638893  138.33000183    0.05000000    0.01000000
   18.47972298  143.22200012    0.05000000    0.01000000
   18.49722290  134.17300415    0.05000000    0.01000000
   18.49944496  134.96699524    0.05000000    0.01000000
   18.50277710  132.61799622    0.05000000    0.01000000
   18.50611115  136.49899292    0.05000000    0.01000000
   18.51194382  136.49899292    0.05000000    0.01000000
   18.51611137  139.62300110    0.05000000    0.01000000
   18.51944351  127.52600098    0.05000000    0.01000000
   18.52249908  148.80400085    0.05000000    0.01000000
   18.52583313  138.67900085    0.05000000    0.01000000
   18.52916718  134.32800293    0.05000000    0.01000000
   18.53027725  139.47799683    0.05000000    0.01000000
   18.53277779  140.37100220    0.05000000    0.01000000
   18.53610992  138.06399536    0.05000000    0.01000000
   18.53916550  143.56500244    0.05000000    0.01000000
   18.54249954  135.37699890    0.05000000    0.01000000
   18.54583359  139.72099304    0.05000000    0.01000000
   18.54888916  143.62699890    0.05000000    0.01000000
   18.55499840  143.62699890    0.05000000    0.01000000
   18.55888748  135.67500305    0.05000000    0.01000000
   18.56222153  140.49299622    0.05000000    0.01000000
   18.56361008  134.99800110    0.05000000    0.01000000
   18.56583214  140.16400146    0.05000000    0.01000000
   18.56916809  141.51100159    0.05000000    0.01000000
   18.57222366  139.71099854    0.05000000    0.01000000
   18.57555580  136.20599365    0.05000000    0.01000000
   18.57888985  137.83799744    0.05000000    0.01000000
   18.58194542  141.69099426    0.05000000    0.01000000
   18.58527756  143.66999817    0.05000000    0.01000000
   18.58833313  133.23899841    0.05000000    0.01000000
   18.59166718  139.10299683    0.05000000    0.01000000
   18.59777832  139.10299683    0.05000000    0.01000000
   18.60194397  143.55999756    0.05000000    0.01000000
   18.60499954  140.18099976    0.05000000    0.01000000
   18.60833359  147.43800354    0.05000000    0.01000000
   18.61166763  139.60699463    0.05000000    0.01000000
   18.61472321  143.76800537    0.05000000    0.01000000
   18.61805534  129.27799988    0.05000000    0.01000000
   18.62138939  132.74400330    0.05000000    0.01000000
   18.62444496  138.38499451    0.05000000    0.01000000
   18.62777710  153.91000366    0.05000000    0.01000000
   18.63027763  140.05400085    0.05000000    0.01000000
   18.63138962  144.10299683    0.05000000    0.01000000
   18.63472176  145.84899902    0.05000000    0.01000000
   18.64055634  145.84899902    0.05000000    0.01000000
   18.64472198  136.68299866    0.05000000    0.01000000
   18.64805603  149.18499756    0.05000000    0.01000000
   18.65111160  142.27799988    0.05000000    0.01000000
   18.65444374  137.55099487    0.05000000    0.01000000
   18.65749931  141.17199707    0.05000000    0.01000000
   18.66083336  141.52499390    0.05000000    0.01000000
   18.66361046  143.16299438    0.05000000    0.01000000
   18.66444397  137.99000549    0.05000000    0.01000000
   18.66777802  140.61999512    0.05000000    0.01000000
   18.67083359  136.02999878    0.05000000    0.01000000
   18.67416573  135.31300354    0.05000000    0.01000000
   18.67749977  131.63900757    0.05000000    0.01000000
   18.68333244  131.63900757    0.05000000    0.01000000
   18.68750000  135.76300049    0.05000000    0.01000000
   18.69083214  136.88900757    0.05000000    0.01000000
   18.69388771  133.82200623    0.05000000    0.01000000
   18.69694328  138.19700623    0.05000000    0.01000000
   18.69749832  138.94200134    0.05000000    0.01000000
   18.70083427  144.30700684    0.05000000    0.01000000
   18.70416832  132.72999573    0.05000000    0.01000000
   18.70722389  140.56700134    0.05000000    0.01000000
   18.71055603  138.27799988    0.05000000    0.01000000
   18.71361160  143.82099915    0.05000000    0.01000000
   18.71694565  137.21499634    0.05000000    0.01000000
   18.72027779  135.64599609    0.05000000    0.01000000
   18.72638893  135.64599609    0.05000000    0.01000000
   18.73027802  132.80200195    0.05000000    0.01000000
   18.73361206  143.10499573    0.05000000    0.01000000
   18.73694420  139.62399292    0.05000000    0.01000000
   18.73999977  142.11599731    0.05000000    0.01000000
   18.74333382  139.04600525    0.05000000    0.01000000
   18.74666786  139.98300171    0.05000000    0.01000000
   18.74972153  122.56400299    0.05000000    0.01000000
   18.75305557  140.52499390    0.05000000    0.01000000
   18.75611115  136.30099487    0.05000000    0.01000000
   18.75944519  135.13900757    0.05000000    0.01000000
   18.76277733  130.41700745    0.05000000    0.01000000
   18.76361084  136.86300659    0.05000000    0.01000000
   18.76916695  136.86300659    0.05000000    0.01000000
   18.77333260  138.87899780    0.05000000    0.01000000
   18.77638817  143.59700012    0.05000000    0.01000000
   18.77972221  135.92900085    0.05000000    0.01000000
   18.78305435  143.13900757    0.05000000    0.01000000
   18.78610992  149.50599670    0.05000000    0.01000000
   18.78944397  139.33000183    0.05000000    0.01000000
   18.79249954  139.76100159    0.05000000    0.01000000
   18.79583359  150.12399292    0.05000000    0.01000000
   18.79722214  132.08299255    0.05000000    0.01000000
   18.79944420  137.29800415    0.05000000    0.01000000
   18.80277634  140.30400085    0.05000000    0.01000000
   18.80583191  135.40299988    0.05000000    0.01000000
   18.81194305  135.40299988    0.05000000    0.01000000
   18.81611061  136.66299438    0.05000000    0.01000000
   18.81944466  141.57600403    0.05000000    0.01000000
   18.82250023  134.80200195    0.05000000    0.01000000
   18.82583427  134.66099548    0.05000000    0.01000000
   18.82888985  141.03500366    0.05000000    0.01000000
   18.83055687  139.49800110    0.05000000    0.01000000
   18.83250046  141.24699402    0.05000000    0.01000000
   18.83583450  146.80799866    0.05000000    0.01000000
   18.83889008  143.17799377    0.05000000    0.01000000
   18.84222221  136.45100403    0.05000000    0.01000000
   18.84555626  134.93200684    0.05000000    0.01000000
   18.84861183  137.85600281    0.05000000    0.01000000
   18.85472298  137.85600281    0.05000000    0.01000000
   18.85888863  138.43200684    0.05000000    0.01000000
   18.86222267  136.20300293    0.05000000    0.01000000
   18.86388969  127.72699738    0.05000000    0.01000000
   18.86583328  151.60299683    0.05000000    0.01000000
   18.86916733  144.63600159    0.05000000    0.01000000
   18.87222290  149.24899292    0.05000000    0.01000000
   18.87555504  134.82699585    0.05000000    0.01000000
   18.87888908  137.50199890    0.05000000    0.01000000
   18.88194466  137.86799622    0.05000000    0.01000000
   18.88527679  151.67500305    0.05000000    0.01000000
   18.88861084  142.59100342    0.05000000    0.01000000
   18.89166641  140.10099792    0.05000000    0.01000000
   18.89777756  140.10099792    0.05000000    0.01000000
   18.90166664  139.44999695    0.05000000    0.01000000
   18.90499878  145.07499695    0.05000000    0.01000000
   18.90833282  139.37199402    0.05000000    0.01000000
   18.91138840  142.83599854    0.05000000    0.01000000
   18.91472244  143.83200073    0.05000000    0.01000000
   18.91777802  129.11399841    0.05000000    0.01000000
   18.92111015  127.64099884    0.05000000    0.01000000
   18.92444420  144.97900391    0.05000000    0.01000000
   18.92749977  138.44500732    0.05000000    0.01000000
   18.93055534  131.99400330    0.05000000    0.01000000
   18.93111038  138.99099731    0.05000000    0.01000000
   18.93444443  140.00799561    0.05000000    0.01000000
   18.94055557  140.00799561    0.05000000    0.01000000
   18.94472122  141.62100220    0.05000000    0.01000000
   18.94777679  134.75500488    0.05000000    0.01000000
   18.95111275  132.54800415    0.05000000    0.01000000
   18.95416832  135.94799805    0.05000000    0.01000000
   18.95750046  131.51699829    0.05000000    0.01000000
   18.96083450  132.82200623    0.05000000    0.01000000
   18.96389008  134.67799377    0.05000000    0.01000000
   18.96444511  134.73100281    0.05000000    0.01000000
   18.96777916  135.87500000    0.05000000    0.01000000
   18.97083473  138.73100281    0.05000000    0.01000000
   18.97416687  150.19700623    0.05000000    0.01000000
   18.97750092  146.71000671    0.05000000    0.01000000
   18.98333359  146.71000671    0.05000000    0.01000000
   18.98750114  147.30599976    0.05000000    0.01000000
   18.99055672  136.59899902    0.05000000    0.01000000
   18.99388885  141.28700256    0.05000000    0.01000000
   18.99722290  145.83799744    0.05000000    0.01000000
   18.99749947  138.23500061    0.05000000    0.01000000
   19.00083351  143.39199829    0.05000000    0.01000000
   19.00388908  144.43899536    0.05000000    0.01000000
   19.00722313  141.17999268    0.05000000    0.01000000
   19.01055527  144.87600708    0.05000000    0.01000000
   19.01361084  151.45399475    0.05000000    0.01000000
   19.01694489  144.08200073    0.05000000    0.01000000
   19.02027702  139.13699341    0.05000000    0.01000000
   19.02611160  139.13699341    0.05000000    0.01000000
   19.03027725  131.88800049    0.05000000    0.01000000
   19.03083229  135.48699951    0.05000000    0.01000000
   19.03416634  127.06900024    0.05000000    0.01000000
   19.03722191  134.82600403    0.05000000    0.01000000
   19.04055595  137.22200012    0.05000000    0.01000000
   19.04388809  141.82699585    0.05000000    0.01000000
   19.04694366  143.18099976    0.05000000    0.01000000
   19.05027771  140.47799683    0.05000000    0.01000000
   19.05360985  131.07299805    0.05000000    0.01000000
   19.05666542  131.08599854    0.05000000    0.01000000
   19.05999947  138.53100586    0.05000000    0.01000000
   19.06305504  141.24400330    0.05000000    0.01000000
   19.06416512  137.09399414    0.05000000    0.01000000
   19.06888962  137.09399414    0.05000000    0.01000000
   19.07305717  137.34599304    0.05000000    0.01000000
   19.07638931  137.21299744    0.05000000    0.01000000
   19.07972336  133.75700378    0.05000000    0.01000000
   19.08277893  137.81700134    0.05000000    0.01000000
   19.08611107  139.47500610    0.05000000    0.01000000
   19.08916664  137.47900391    0.05000000    0.01000000
   19.09250069  142.52600098    0.05000000    0.01000000
   19.09583473  142.22099304    0.05000000    0.01000000
   19.09749985  149.36700439    0.05000000    0.01000000
   19.09944534  131.89399719    0.05000000    0.01000000
   19.10250092  141.55200195    0.05000000    0.01000000
   19.10583305  137.98800659    0.05000000    0.01000000
   19.11194420  137.98800659    0.05000000    0.01000000
   19.11611176  146.74400330    0.05000000    0.01000000
   19.11916733  146.38099670    0.05000000    0.01000000
   19.12249947  140.49200439    0.05000000    0.01000000
   19.12555504  151.27499390    0.05000000    0.01000000
   19.12888908  148.70599365    0.05000000    0.01000000
   19.13083267  149.47900391    0.05000000    0.01000000
   19.13277817  134.75300598    0.05000000    0.01000000
   19.13583374  140.88299561    0.05000000    0.01000000
   19.13916588  140.24899292    0.05000000    0.01000000
   19.14249992  134.12199402    0.05000000    0.01000000
   19.14555550  140.77799988    0.05000000    0.01000000
   19.14888954  126.93399811    0.05000000    0.01000000
   19.15472221  126.93399811    0.05000000    0.01000000
   19.15888786  130.93099976    0.05000000    0.01000000
   19.16194344  137.91799927    0.05000000    0.01000000
   19.16416550  136.51199341    0.05000000    0.01000000
   19.16583252  140.78900146    0.05000000    0.01000000
   19.16888809  141.06700134    0.05000000    0.01000000
   19.17222214  147.06500244    0.05000000    0.01000000
   19.17555428  148.93400574    0.05000000    0.01000000
   19.17860985  140.35200500    0.05000000    0.01000000
   19.18194389  140.46699524    0.05000000    0.01000000
   19.18499947  140.37699890    0.05000000    0.01000000
   19.18833160  139.84300232    0.05000000    0.01000000
   19.19166565  149.01899719    0.05000000    0.01000000
   19.19749832  149.01899719    0.05000000    0.01000000
   19.20166779  143.02900696    0.05000000    0.01000000
   19.20499992  143.79499817    0.05000000    0.01000000
   19.20805550  141.13999939    0.05000000    0.01000000
   19.21138954  136.72799683    0.05000000    0.01000000
   19.21472359  140.35600281    0.05000000    0.01000000
   19.21777916  141.22500610    0.05000000    0.01000000
   19.22111130  138.27799988    0.05000000    0.01000000
   19.22416687  133.25199890    0.05000000    0.01000000
   19.22750092  137.19500732    0.05000000    0.01000000
   19.23083305  138.07200623    0.05000000    0.01000000
   19.23139000  139.76400757    0.05000000    0.01000000
   19.23444557  131.52099609    0.05000000    0.01000000
   19.24027824  131.52099609    0.05000000    0.01000000
   19.24444389  141.08799744    0.05000000    0.01000000
   19.24777794  130.15400696    0.05000000    0.01000000
   19.25111198  141.07699585    0.05000000    0.01000000
   19.25416756  143.58200073    0.05000000    0.01000000
   19.25749969  143.77299500    0.05000000    0.01000000
   19.26055527  134.67599487    0.05000000    0.01000000
   19.26388931  134.85800171    0.05000000    0.01000000
   19.26472282  134.51199341    0.05000000    0.01000000
   19.26749992  139.56199646    0.05000000    0.01000000
   19.27083397  142.45300293    0.05000000    0.01000000
   19.27416611  144.23199463    0.05000000    0.01000000
   19.27722168  154.38900757    0.05000000    0.01000000
   19.28333282  154.38900757    0.05000000    0.01000000
   19.28750038  139.52299500    0.05000000    0.01000000
   19.29055595  135.09100342    0.05000000    0.01000000
   19.29388809  142.84599304    0.05000000    0.01000000
   19.29694366  146.07299805    0.05000000    0.01000000
   19.29805565  147.77400208    0.05000000    0.01000000
   19.30055428  139.18699646    0.05000000    0.01000000
   19.30388832  148.13000488    0.05000000    0.01000000
   19.30722237  140.25100708    0.05000000    0.01000000
   19.31027794  148.79200745    0.05000000    0.01000000
   19.31361008  136.13200378    0.05000000    0.01000000
   19.31666756  140.93400574    0.05000000    0.01000000
   19.32000160  136.97500610    0.05000000    0.01000000
   19.32611275  136.97500610    0.05000000    0.01000000
   19.33027840  138.90600586    0.05000000    0.01000000
   19.33139038  146.67500305    0.05000000    0.01000000
   19.33388901  142.91299438    0.05000000    0.01000000
   19.33722305  142.78900146    0.05000000    0.01000000
   19.34055710  135.49099731    0.05000000    0.01000000
   19.34361267  141.50100708    0.05000000    0.01000000
   19.34694481  141.80400085    0.05000000    0.01000000
   19.35000038  137.39799500    0.05000000    0.01000000
   19.35333443  142.85400391    0.05000000    0.01000000
   19.35666656  139.10600281    0.05000000    0.01000000
   19.35972214  130.57000732    0.05000000    0.01000000
   19.36305618  140.00999451    0.05000000    0.01000000
   19.36472321  137.46400452    0.05000000    0.01000000
   19.36888885  137.46400452    0.05000000    0.01000000
   19.37305641  138.64999390    0.05000000    0.01000000
   19.37638855  147.26499939    0.05000000    0.01000000
   19.37944412  135.39799500    0.05000000    0.01000000
   19.38277817  145.79400635    0.05000000    0.01000000
   19.38611031  129.62500000    0.05000000    0.01000000
   19.38916588  141.42399597    0.05000000    0.01000000
   19.39249992  134.08299255    0.05000000    0.01000000
   19.39583397  141.52600098    0.05000000    0.01000000
   19.39805603  143.15100098    0.05000000    0.01000000
   19.39916611  133.15499878    0.05000000    0.01000000
   19.40250015  132.77200317    0.05000000    0.01000000
   19.40583229  144.46099854    0.05000000    0.01000000
   19.41166687  144.46099854    0.05000000    0.01000000
   19.41583252  136.70599365    0.05000000    0.01000000
   19.41916656  142.66499329    0.05000000    0.01000000
   19.42249870  146.95700073    0.05000000    0.01000000
   19.42555428  130.93099976    0.05000000    0.01000000
   19.42888832  146.89900208    0.05000000    0.01000000
   19.43138885  137.95799255    0.05000000    0.01000000
   19.43249893  142.13800049    0.05000000    0.01000000
   19.43583298  138.78999329    0.05000000    0.01000000
   19.43916512  131.76499939    0.05000000    0.01000000
   19.44222069  142.89500427    0.05000000    0.01000000
   19.44555473  156.36599731    0.05000000    0.01000000
   19.44861031  135.56500244    0.05000000    0.01000000
   19.45472336  135.56500244    0.05000000    0.01000000
   19.45888901  145.35400391    0.05000000    0.01000000
   19.46194458  148.56599426    0.05000000    0.01000000
   19.46472359  142.33299255    0.05000000    0.01000000
   19.46555710  143.57800293    0.05000000    0.01000000
   19.46888924  141.04100037    0.05000000    0.01000000
   19.47222328  144.22099304    0.05000000    0.01000000
   19.47527885  141.42799377    0.05000000    0.01000000
   19.47861099  142.04100037    0.05000000    0.01000000
   19.48166656  144.23399353    0.05000000    0.01000000
   19.48500061  138.65800476    0.05000000    0.01000000
   19.48833275  144.08399963    0.05000000    0.01000000
   19.49138832  139.81599426    0.05000000    0.01000000
   19.49749947  139.81599426    0.05000000    0.01000000
   19.51583290  144.78999329    0.05000000    0.01000000
   19.51916695  146.55700684    0.05000000    0.01000000
   19.52222252  146.48500061    0.05000000    0.01000000
   19.52555466  144.31399536    0.05000000    0.01000000
   19.52888870  157.13900757    0.05000000    0.01000000
   19.53194427  135.88400269    0.05000000    0.01000000
   19.53527641  141.73500061    0.05000000    0.01000000
   19.54055595  141.73500061    0.05000000    0.01000000
   19.54472160  131.93699646    0.05000000    0.01000000
   19.54805565  139.38600159    0.05000000    0.01000000
   19.54888916  136.11399841    0.05000000    0.01000000
   19.55166626  147.06300354    0.05000000    0.01000000
   19.55472183  135.97999573    0.05000000    0.01000000
   19.55805397  141.23800659    0.05000000    0.01000000
   19.56138802  136.39799500    0.05000000    0.01000000
   19.56444359  132.70399475    0.05000000    0.01000000
   19.56777954  140.91499329    0.05000000    0.01000000
   19.57111168  141.93600464    0.05000000    0.01000000
   19.57416725  142.66999817    0.05000000    0.01000000
   19.57750130  139.07600403    0.05000000    0.01000000
   19.58333397  139.07600403    0.05000000    0.01000000
   19.58750153  138.91200256    0.05000000    0.01000000
   19.59083366  141.11900330    0.05000000    0.01000000
   19.59388924  138.94500732    0.05000000    0.01000000
   19.59722328  142.51300049    0.05000000    0.01000000
   19.60055542  141.52900696    0.05000000    0.01000000
   19.60361099  141.41999817    0.05000000    0.01000000
   19.60694504  139.15100098    0.05000000    0.01000000
   19.61027908  126.48200226    0.05000000    0.01000000
   19.61333466  142.14799500    0.05000000    0.01000000
   19.61555672  134.61700439    0.05000000    0.01000000
   19.61722183  136.91400146    0.05000000    0.01000000
   19.62027740  123.84500122    0.05000000    0.01000000
   19.62638855  123.84500122    0.05000000    0.01000000
   19.63027763  134.81799316    0.05000000    0.01000000
   19.63361168  139.22799683    0.05000000    0.01000000
   19.63694382  129.74299622    0.05000000    0.01000000
   19.63999939  141.83799744    0.05000000    0.01000000
   19.64333344  137.49699402    0.05000000    0.01000000
   19.64638901  139.62399292    0.05000000    0.01000000
   19.64888954  139.58299255    0.05000000    0.01000000
   19.65027809  139.86199951    0.05000000    0.01000000
   19.65333366  132.75100708    0.05000000    0.01000000
   19.65666580  132.58200073    0.05000000    0.01000000
   19.65999985  140.55400085    0.05000000    0.01000000
   19.66305542  138.91000366    0.05000000    0.01000000
   19.66916656  138.91000366    0.05000000    0.01000000
   19.67333221  129.09599304    0.05000000    0.01000000
   19.67638779  142.07400513    0.05000000    0.01000000
   19.67972183  133.69900513    0.05000000    0.01000000
   19.68222237  137.86099243    0.05000000    0.01000000
   19.68333244  135.01199341    0.05000000    0.01000000
   19.68638802  142.46899414    0.05000000    0.01000000
   19.68972206  134.12399292    0.05000000    0.01000000
   19.69305420  134.37199402    0.05000000    0.01000000
   19.69610977  136.48300171    0.05000000    0.01000000
   19.69944382  133.90800476    0.05000000    0.01000000
   19.70250130  133.16600037    0.05000000    0.01000000
   19.70583344  131.36300659    0.05000000    0.01000000
   19.71194458  131.36300659    0.05000000    0.01000000
   19.71611214  141.09399414    0.05000000    0.01000000
   19.71944427  135.82800293    0.05000000    0.01000000
   19.72249985  141.14100647    0.05000000    0.01000000
   19.72583389  137.01300049    0.05000000    0.01000000
   19.72888947  133.21699524    0.05000000    0.01000000
   19.73222351  135.33900452    0.05000000    0.01000000
   19.73555565  137.40699768    0.05000000    0.01000000
   19.73861122  133.84500122    0.05000000    0.01000000
   19.74194527  134.57400513    0.05000000    0.01000000
   19.74527740  128.14900208    0.05000000    0.01000000
   19.74833298  130.69900513    0.05000000    0.01000000
   19.74888992  140.94700623    0.05000000    0.01000000
   19.75472260  140.94700623    0.05000000    0.01000000
   19.75888824  140.66200256    0.05000000    0.01000000
   19.76222229  139.67300415    0.05000000    0.01000000
   19.76527786  141.89500427    0.05000000    0.01000000
   19.76861000  143.32699585    0.05000000    0.01000000
   19.77194405  129.88299561    0.05000000    0.01000000
   19.77499962  143.09100342    0.05000000    0.01000000
   19.77833366  138.56100464    0.05000000    0.01000000
   19.78138924  131.25700378    0.05000000    0.01000000
   19.78222275  135.29200745    0.05000000    0.01000000
   19.78527641  135.99400330    0.05000000    0.01000000
   19.78833199  138.25999451    0.05000000    0.01000000
   19.79166603  140.94599915    0.05000000    0.01000000
   19.79749870  140.94599915    0.05000000    0.01000000
   19.80166626  137.35099792    0.05000000    0.01000000
   19.80499840  142.70899963    0.05000000    0.01000000
   19.80833244  137.50900269    0.05000000    0.01000000
   19.81138802  138.67799377    0.05000000    0.01000000
   19.81472206  135.44700623    0.05000000    0.01000000
   19.81555557  132.58700562    0.05000000    0.01000000
   19.81833458  135.34100342    0.05000000    0.01000000
   19.82139015  139.57099915    0.05000000    0.01000000
   19.82472229  139.27200317    0.05000000    0.01000000
   19.82805634  134.54899597    0.05000000    0.01000000
   19.83111191  128.53500366    0.05000000    0.01000000
   19.83444595  128.88400269    0.05000000    0.01000000
   19.84055710  128.88400269    0.05000000    0.01000000
   19.84472275  137.52999878    0.05000000    0.01000000
   19.84777832  134.84599304    0.05000000    0.01000000
   19.84889030  127.44300079    0.05000000    0.01000000
   19.85138893  133.63600159    0.05000000    0.01000000
   19.85444450  139.50799561    0.05000000    0.01000000
   19.85777855  137.92799377    0.05000000    0.01000000
   19.86111069  130.82200623    0.05000000    0.01000000
   19.86416626  140.81300354    0.05000000    0.01000000
   19.86750031  141.91700745    0.05000000    0.01000000
   19.87083435  142.41200256    0.05000000    0.01000000
   19.87388992  141.93200684    0.05000000    0.01000000
   19.87722206  143.78300476    0.05000000    0.01000000
   19.88333321  143.78300476    0.05000000    0.01000000
   19.88750076  127.91899872    0.05000000    0.01000000
   19.89055634  150.44999695    0.05000000    0.01000000
   19.89388847  138.32499695    0.05000000    0.01000000
   19.89722252  136.00399780    0.05000000    0.01000000
   19.90027809  134.32400513    0.05000000    0.01000000
   19.90361023  143.70300293    0.05000000    0.01000000
   19.90694427  136.15299988    0.05000000    0.01000000
   19.90999985  140.91299438    0.05000000    0.01000000
   19.91333389  144.24499512    0.05000000    0.01000000
   19.91555595  139.14399719    0.05000000    0.01000000
   19.91694450  139.04600525    0.05000000    0.01000000
   19.92000008  150.03900146    0.05000000    0.01000000
   19.92611122  150.03900146    0.05000000    0.01000000
   19.93027687  140.99499512    0.05000000    0.01000000
   19.93361092  136.81500244    0.05000000    0.01000000
   19.93666649  138.84300232    0.05000000    0.01000000
   19.93999863  137.91799927    0.05000000    0.01000000
   19.94333267  138.22200012    0.05000000    0.01000000
   19.94638824  137.22700500    0.05000000    0.01000000
   19.94888878  137.34199524    0.05000000    0.01000000
   19.95000076  145.18899536    0.05000000    0.01000000
   19.95305634  142.10099792    0.05000000    0.01000000
   19.95639038  141.28900146    0.05000000    0.01000000
   19.95972252  131.92399597    0.05000000    0.01000000
   19.96277809  139.91999817    0.05000000    0.01000000
   19.96888924  139.91999817    0.05000000    0.01000000
   19.97305679  137.43299866    0.05000000    0.01000000
   19.97638893  134.65100098    0.05000000    0.01000000
   19.97972298  133.64100647    0.05000000    0.01000000
   19.98222351  137.37500000    0.05000000    0.01000000
   19.98333359  137.58000183    0.05000000    0.01000000
   19.98666763  134.23199463    0.05000000    0.01000000
   19.98972321  134.50199890    0.05000000    0.01000000
   19.99305534  132.01600647    0.05000000    0.01000000
   19.99611092  135.72099304    0.05000000    0.01000000
   19.99944496  141.63000488    0.05000000    0.01000000
   20.00277710  131.56599426    0.05000000    0.01000000
   20.00583267  136.82699585    0.05000000    0.01000000
   20.01194382  136.82699585    0.05000000    0.01000000
   20.01611137  145.97000122    0.05000000    0.01000000
   20.01916695  132.78599548    0.05000000    0.01000000
   20.02249908  146.76499939    0.05000000    0.01000000
   20.02555466  138.98699951    0.05000000    0.01000000
   20.02888870  138.69799805    0.05000000    0.01000000
   20.03222275  141.59700012    0.05000000    0.01000000
   20.03527641  134.75900269    0.05000000    0.01000000
   20.03861046  140.38499451    0.05000000    0.01000000
   20.04194450  140.57400513    0.05000000    0.01000000
   20.04500008  136.77499390    0.05000000    0.01000000
   20.04833221  133.78900146    0.05000000    0.01000000
   20.04888916  141.56799316    0.05000000    0.01000000
   20.05472183  141.56799316    0.05000000    0.01000000
   20.05888748  139.62899780    0.05000000    0.01000000
   20.06194305  143.85800171    0.05000000    0.01000000
   20.06527710  137.64999390    0.05000000    0.01000000
   20.06861115  147.63900757    0.05000000    0.01000000
   20.07194519  141.47099304    0.05000000    0.01000000
   20.07500076  143.25399780    0.05000000    0.01000000
   20.07833481  150.03999329    0.05000000    0.01000000
   20.08139038  139.65600586    0.05000000    0.01000000
   20.08222389  142.88400269    0.05000000    0.01000000
   20.08527756  139.99200439    0.05000000    0.01000000
   20.08861160  129.50000000    0.05000000    0.01000000
   20.09166718  135.93800354    0.05000000    0.01000000
   20.09749985  135.93800354    0.05000000    0.01000000
   20.10166740  142.96800232    0.05000000    0.01000000
   20.10499954  143.55099487    0.05000000    0.01000000
   20.10805511  137.14999390    0.05000000    0.01000000
   20.11138916  135.13299561    0.05000000    0.01000000
   20.11472321  140.97900391    0.05000000    0.01000000
   20.11555672  135.66299438    0.05000000    0.01000000
   20.11833382  146.71000671    0.05000000    0.01000000
   20.12166595  135.77499390    0.05000000    0.01000000
   20.12472153  142.20300293    0.05000000    0.01000000
   20.12805557  138.22900391    0.05000000    0.01000000
   20.13111115  131.95100403    0.05000000    0.01000000
   20.13444519  146.27299500    0.05000000    0.01000000
   20.14027786  146.27299500    0.05000000    0.01000000
   20.14444351  149.21899414    0.05000000    0.01000000
   20.14777756  134.64300537    0.05000000    0.01000000
   20.14888954  147.78700256    0.05000000    0.01000000
   20.15138817  145.16700745    0.05000000    0.01000000
   20.15472221  138.06500244    0.05000000    0.01000000
   20.15777779  129.42300415    0.05000000    0.01000000
   20.16110992  138.80499268    0.05000000    0.01000000
   20.16444397  130.35400391    0.05000000    0.01000000
   20.16749954  141.66099548    0.05000000    0.01000000
   20.17083359  131.02900696    0.05000000    0.01000000
   20.17416573  136.61000061    0.05000000    0.01000000
   20.17722130  133.26100159    0.05000000    0.01000000
   20.18333244  133.26100159    0.05000000    0.01000000
   20.18750000  133.17500305    0.05000000    0.01000000
   20.19055557  130.85000610    0.05000000    0.01000000
   20.19388771  136.81199646    0.05000000    0.01000000
   20.19694328  129.98899841    0.05000000    0.01000000
   20.20027924  135.32000732    0.05000000    0.01000000
   20.20361137  137.57699585    0.05000000    0.01000000
   20.20666695  133.71800232    0.05000000    0.01000000
   20.21000099  140.35000610    0.05000000    0.01000000
   20.21333504  139.87100220    0.05000000    0.01000000
   20.21555710  138.72200012    0.05000000    0.01000000
   20.21694565  131.60000610    0.05000000    0.01000000
   20.22027779  143.98599243    0.05000000    0.01000000
   20.22611237  143.98599243    0.05000000    0.01000000
   20.23027802  142.63499451    0.05000000    0.01000000
   20.23333359  137.75300598    0.05000000    0.01000000
   20.23666763  135.49000549    0.05000000    0.01000000
   20.23999977  137.87399292    0.05000000    0.01000000
   20.24305534  139.79600525    0.05000000    0.01000000
   20.24638939  132.92900085    0.05000000    0.01000000
   20.24888992  144.25700378    0.05000000    0.01000000
   20.25000000  139.89999390    0.05000000    0.01000000
   20.25333405  136.89500427    0.05000000    0.01000000
   20.25638962  143.15299988    0.05000000    0.01000000
   20.25972176  145.99200439    0.05000000    0.01000000
   20.26305580  137.71600342    0.05000000    0.01000000
   20.26888847  137.71600342    0.05000000    0.01000000
   20.27305603  140.72399902    0.05000000    0.01000000
   20.27638817  131.27499390    0.05000000    0.01000000
   20.27944374  144.80299377    0.05000000    0.01000000
   20.28222275  154.15299988    0.05000000    0.01000000
   20.28305435  143.85400391    0.05000000    0.01000000
   20.28638840  156.11700439    0.05000000    0.01000000
   20.28944397  138.73599243    0.05000000    0.01000000
   20.29277802  141.90499878    0.05000000    0.01000000
   20.29611015  140.76600647    0.05000000    0.01000000
   20.29916573  148.85099792    0.05000000    0.01000000
   20.30249977  143.83399963    0.05000000    0.01000000
   20.30555534  138.61900330    0.05000000    0.01000000
   20.31166649  138.61900330    0.05000000    0.01000000
   20.31583214  138.87600708    0.05000000    0.01000000
   20.31916809  132.77000427    0.05000000    0.01000000
   20.32250023  128.46600342    0.05000000    0.01000000
   20.32555580  136.76800537    0.05000000    0.01000000
   20.32888985  140.06599426    0.05000000    0.01000000
   20.33194542  134.38299561    0.05000000    0.01000000
   20.33527756  134.41999817    0.05000000    0.01000000
   20.33861160  130.17599487    0.05000000    0.01000000
   20.34166718  136.96600342    0.05000000    0.01000000
   20.34500122  143.16700745    0.05000000    0.01000000
   20.34833336  136.32600403    0.05000000    0.01000000
   20.34889030  136.42399597    0.05000000    0.01000000
   20.35472298  136.42399597    0.05000000    0.01000000
   20.35888863  141.84300232    0.05000000    0.01000000
   20.36194420  136.33099365    0.05000000    0.01000000
   20.36527824  140.24400330    0.05000000    0.01000000
   20.36833382  137.48800659    0.05000000    0.01000000
   20.37166595  139.17399597    0.05000000    0.01000000
   20.37500000  142.38999939    0.05000000    0.01000000
   20.37805557  136.70700073    0.05000000    0.01000000
   20.38138962  142.26699829    0.05000000    0.01000000
   20.38222313  139.18699646    0.05000000    0.01000000
   20.38500023  144.59800720    0.05000000    0.01000000
   20.38833237  143.84599304    0.05000000    0.01000000
   20.39138794  145.72599792    0.05000000    0.01000000
   20.39749908  145.72599792    0.05000000    0.01000000
   20.40166664  140.95500183    0.05000000    0.01000000
   20.40499878  129.19999695    0.05000000    0.01000000
   20.40805435  148.61900330    0.05000000    0.01000000
   20.41138840  136.58999634    0.05000000    0.01000000
   20.41444397  142.92199707    0.05000000    0.01000000
   20.41555595  140.56399536    0.05000000    0.01000000
   20.41805458  146.64300537    0.05000000    0.01000000
   20.42138863  132.17599487    0.05000000    0.01000000
   20.42444420  131.83200073    0.05000000    0.01000000
   20.42777634  143.01100159    0.05000000    0.01000000
   20.43111038  133.14799500    0.05000000    0.01000000
   20.43416595  132.81700134    0.05000000    0.01000000
   20.44027710  132.81700134    0.05000000    0.01000000
   20.44444275  159.16999817    0.05000000    0.01000000
   20.44777679  141.66999817    0.05000000    0.01000000
   20.44888878  138.48199463    0.05000000    0.01000000
   20.45138931  141.20100403    0.05000000    0.01000000
   20.45472336  138.83799744    0.05000000    0.01000000
   20.45777893  139.38299561    0.05000000    0.01000000
   20.46111107  133.66000366    0.05000000    0.01000000
   20.46444511  143.64799500    0.05000000    0.01000000
   20.46750069  145.43600464    0.05000000    0.01000000
   20.47083473  144.19999695    0.05000000    0.01000000
   20.47416687  145.95199585    0.05000000    0.01000000
   20.47722244  149.28300476    0.05000000    0.01000000
   20.48305511  149.28300476    0.05000000    0.01000000
   20.48722267  141.42199707    0.05000000    0.01000000
   20.49055672  143.11000061    0.05000000    0.01000000
   20.49388885  140.85499573    0.05000000    0.01000000
   20.49694443  137.21899414    0.05000000    0.01000000
   20.50027847  132.31300354    0.05000000    0.01000000
   20.50333405  132.88600159    0.05000000    0.01000000
   20.50666618  134.06500244    0.05000000    0.01000000
   20.51000023  140.06599426    0.05000000    0.01000000
   20.51305580  147.12300110    0.05000000    0.01000000
   20.51555634  138.41600037    0.05000000    0.01000000
   20.53638840  138.41600037    0.05000000    0.01000000
   20.54055595  129.26699829    0.05000000    0.01000000
   20.54361153  131.96400452    0.05000000    0.01000000
   20.54694366  129.90299988    0.05000000    0.01000000
   20.54888916  132.43400574    0.05000000    0.01000000
   20.55055428  129.51100159    0.05000000    0.01000000
   20.55388832  130.67999268    0.05000000    0.01000000
   20.55694389  129.28300476    0.05000000    0.01000000
   20.56027794  133.54400635    0.05000000    0.01000000
   20.56361008  138.50799561    0.05000000    0.01000000
   20.56666756  138.40100098    0.05000000    0.01000000
   20.57000160  128.83599854    0.05000000    0.01000000
   20.57333374  137.44000244    0.05000000    0.01000000
   20.57916832  137.44000244    0.05000000    0.01000000
   20.58333397  143.34300232    0.05000000    0.01000000
   20.58638954  130.07699585    0.05000000    0.01000000
   20.58972359  133.75799561    0.05000000    0.01000000
   20.59305573  134.04800415    0.05000000    0.01000000
   20.59611130  132.88299561    0.05000000    0.01000000
   20.59944534  132.05900574    0.05000000    0.01000000
   20.60277748  130.40499878    0.05000000    0.01000000
   20.60583305  134.19900513    0.05000000    0.01000000
   20.60916710  138.40499878    0.05000000    0.01000000
   20.61222267  138.05799866    0.05000000    0.01000000
   20.61555672  135.07099915    0.05000000    0.01000000
   20.61611176  135.18600464    0.05000000    0.01000000
   20.62194443  135.18600464    0.05000000    0.01000000
   20.62611198  133.83999634    0.05000000    0.01000000
   20.62916756  136.02799988    0.05000000    0.01000000
   20.63249969  138.59100342    0.05000000    0.01000000
   20.63583374  133.59599304    0.05000000    0.01000000
   20.63888931  133.29400635    0.05000000    0.01000000
   20.64222145  136.63200378    0.05000000    0.01000000
   20.64555550  134.82600403    0.05000000    0.01000000
   20.64861107  133.69500732    0.05000000    0.01000000
   20.64944458  132.49099731    0.05000000    0.01000000
   20.65250015  134.32499695    0.05000000    0.01000000
   20.65555573  139.19500732    0.05000000    0.01000000
   20.65888786  142.09300232    0.05000000    0.01000000
   20.66472244  142.09300232    0.05000000    0.01000000
   20.66888809  141.84399414    0.05000000    0.01000000
   20.67222214  140.52000427    0.05000000    0.01000000
   20.67527771  138.90400696    0.05000000    0.01000000
   20.67860985  140.41900635    0.05000000    0.01000000
   20.68194389  118.41100311    0.05000000    0.01000000
   20.68277740  143.28300476    0.05000000    0.01000000
   20.68555450  142.15899658    0.05000000    0.01000000
   20.68861008  139.98699951    0.05000000    0.01000000
   20.69194412  135.22200012    0.05000000    0.01000000
   20.69527626  139.80999756    0.05000000    0.01000000
   20.69833183  148.87100220    0.05000000    0.01000000
   20.70166779  136.02999878    0.05000000    0.01000000
   20.70750046  136.02999878    0.05000000    0.01000000
   20.71166801  139.69900513    0.05000000    0.01000000
   20.71500015  139.54299927    0.05000000    0.01000000
   20.71611214  135.97000122    0.05000000    0.01000000
   20.71861076  146.64900208    0.05000000    0.01000000
   20.72166634  149.60000610    0.05000000    0.01000000
   20.72500038  137.44999695    0.05000000    0.01000000
   20.72833443  142.08900452    0.05000000    0.01000000
   20.73139000  136.38400269    0.05000000    0.01000000
   20.73472214  135.46299744    0.05000000    0.01000000
   20.73777771  132.28500366    0.05000000    0.01000000
   20.74111176  132.94700623    0.05000000    0.01000000
   20.74444389  137.81700134    0.05000000    0.01000000
   20.75055504  137.81700134    0.05000000    0.01000000
   20.75472260  141.47599792    0.05000000    0.01000000
   20.75777817  146.85400391    0.05000000    0.01000000
   20.76111031  145.62100220    0.05000000    0.01000000
   20.76416588  150.43600464    0.05000000    0.01000000
   20.76749992  148.71099854    0.05000000    0.01000000
   20.77083397  138.46099854    0.05000000    0.01000000
   20.77388954  144.83299255    0.05000000    0.01000000
   20.77722168  141.36799622    0.05000000    0.01000000
   20.78055573  145.13499451    0.05000000    0.01000000
   20.78277779  141.55599976    0.05000000    0.01000000
   20.78416634  139.72399902    0.05000000    0.01000000
   20.78722191  134.54100037    0.05000000    0.01000000
   20.79333305  134.54100037    0.05000000    0.01000000
   20.79749870  141.61999512    0.05000000    0.01000000
   20.80055428  135.71699524    0.05000000    0.01000000
   20.80388832  150.63400269    0.05000000    0.01000000
   20.80722237  145.81100464    0.05000000    0.01000000
   20.81027794  130.45700073    0.05000000    0.01000000
   20.81361008  137.24499512    0.05000000    0.01000000
   20.81611061  132.66400146    0.05000000    0.01000000
   20.81722260  140.30499268    0.05000000    0.01000000
   20.82027817  135.81500244    0.05000000    0.01000000
   20.82361221  137.86900330    0.05000000    0.01000000
   20.82694626  141.08599854    0.05000000    0.01000000
   20.83000183  138.57499695    0.05000000    0.01000000
   20.83611107  138.57499695    0.05000000    0.01000000
   20.84027863  145.69599915    0.05000000    0.01000000
   20.84361267  137.88099670    0.05000000    0.01000000
   20.84666824  146.37399292    0.05000000    0.01000000
   20.84944534  162.91000366    0.05000000    0.01000000
   20.85055542  138.86199951    0.05000000    0.01000000
   20.85361099  143.52600098    0.05000000    0.01000000
   20.85694504  137.41200256    0.05000000    0.01000000
   20.86027908  141.20300293    0.05000000    0.01000000
   20.86333466  154.51899719    0.05000000    0.01000000
   20.86666679  135.38299561    0.05000000    0.01000000
   20.86972237  136.57000732    0.05000000    0.01000000
   20.87305641  138.44900513    0.05000000    0.01000000
   20.87888908  138.44900513    0.05000000    0.01000000
   20.88305473  134.87899780    0.05000000    0.01000000
   20.88638878  137.14100647    0.05000000    0.01000000
   20.88972282  133.03700256    0.05000000    0.01000000
   20.89277840  138.00599670    0.05000000    0.01000000
   20.89611053  141.35600281    0.05000000    0.01000000
   20.89916611  130.71000671    0.05000000    0.01000000
   20.90250015  145.47500610    0.05000000    0.01000000
   20.90583229  125.12400055    0.05000000    0.01000000
   20.90888786  129.84300232    0.05000000    0.01000000
   20.91222191  138.88200378    0.05000000    0.01000000
   20.91555595  136.44700623    0.05000000    0.01000000
   20.91611099  146.68899536    0.05000000    0.01000000
   20.92194366  146.68899536    0.05000000    0.01000000
   20.92611122  144.89900208    0.05000000    0.01000000
   20.92916679  143.42900085    0.05000000    0.01000000
   20.93249893  145.43099976    0.05000000    0.01000000
   20.93583298  141.43899536    0.05000000    0.01000000
   20.93888855  141.08000183    0.05000000    0.01000000
   20.94222069  143.92999268    0.05000000    0.01000000
   20.94555473  145.53599548    0.05000000    0.01000000
   20.94861031  147.23699951    0.05000000    0.01000000
   20.94944382  142.37699890    0.05000000    0.01000000
   20.95222282  144.83799744    0.05000000    0.01000000
   20.95527840  139.95100403    0.05000000    0.01000000
   20.95861244  132.39300537    0.05000000    0.01000000
   20.96472359  132.39300537    0.05000000    0.01000000
   20.96888924  138.77200317    0.05000000    0.01000000
   20.97194481  141.45300293    0.05000000    0.01000000
   20.97527885  143.86799622    0.05000000    0.01000000
   20.97861099  158.37800598    0.05000000    0.01000000
   20.98166656  140.35299683    0.05000000    0.01000000
   20.98277855  146.13800049    0.05000000    0.01000000
   20.98555565  144.03199768    0.05000000    0.01000000
   20.98861122  140.31399536    0.05000000    0.01000000
   20.99194527  135.10200500    0.05000000    0.01000000
   20.99527740  139.36000061    0.05000000    0.01000000
   20.99833298  153.51600647    0.05000000    0.01000000
   21.00166702  149.51899719    0.05000000    0.01000000
   21.00749969  149.51899719    0.05000000    0.01000000
   21.01166725  139.60600281    0.05000000    0.01000000
   21.01472282  134.32099915    0.05000000    0.01000000
   21.01611137  135.43299866    0.05000000    0.01000000
   21.01861000  142.53399658    0.05000000    0.01000000
   21.02166557  134.44900513    0.05000000    0.01000000
   21.02499962  130.80000305    0.05000000    0.01000000
   21.02833366  138.12699890    0.05000000    0.01000000
   21.03138924  125.82099915    0.05000000    0.01000000
   21.03472137  136.82800293    0.05000000    0.01000000
   21.03805542  136.94900513    0.05000000    0.01000000
   21.04111099  148.05599976    0.05000000    0.01000000
   21.04444313  147.88200378    0.05000000    0.01000000
   21.05027771  147.88200378    0.05000000    0.01000000
   21.05444336  139.69200134    0.05000000    0.01000000
   21.05777740  141.93299866    0.05000000    0.01000000
   21.06083298  139.84199524    0.05000000    0.01000000
   21.06416512  144.24099731    0.05000000    0.01000000
   21.06750107  140.03999329    0.05000000    0.01000000
   21.07055664  135.42199707    0.05000000    0.01000000
   21.07389069  138.80400085    0.05000000    0.01000000
   21.07694626  151.41700745    0.05000000    0.01000000
   21.08027840  143.80099487    0.05000000    0.01000000
   21.08277893  141.82699585    0.05000000    0.01000000
   21.08388901  147.58799744    0.05000000    0.01000000
   21.08694458  135.93400574    0.05000000    0.01000000
   21.09333420  135.93400574    0.05000000    0.01000000
   21.09722328  139.26199341    0.05000000    0.01000000
   21.10055542  136.22799683    0.05000000    0.01000000
   21.10388947  136.25000000    0.05000000    0.01000000
   21.10694504  145.20500183    0.05000000    0.01000000
   21.11027908  140.55400085    0.05000000    0.01000000
   21.11333466  142.46600342    0.05000000    0.01000000
   21.11611176  136.68699646    0.05000000    0.01000000
   21.11722183  133.34700012    0.05000000    0.01000000
   21.12027740  139.47399902    0.05000000    0.01000000
   21.12361145  135.24000549    0.05000000    0.01000000
   21.12694550  146.30499268    0.05000000    0.01000000
   21.13000107  142.34599304    0.05000000    0.01000000
   21.13611031  142.34599304    0.05000000    0.01000000
   21.14027786  146.02299500    0.05000000    0.01000000
   21.14333344  136.40800476    0.05000000    0.01000000
   21.14666748  147.67500305    0.05000000    0.01000000
   21.14944458  143.14399719    0.05000000    0.01000000
   21.15027809  147.62600708    0.05000000    0.01000000
   21.15333366  138.57699585    0.05000000    0.01000000
   21.15666580  149.88200378    0.05000000    0.01000000
   21.15999985  149.76800537    0.05000000    0.01000000
   21.16305542  146.94099426    0.05000000    0.01000000
   21.16638756  143.03500366    0.05000000    0.01000000
   21.16972160  138.07899475    0.05000000    0.01000000
   21.17277718  147.07499695    0.05000000    0.01000000
   21.17888832  147.07499695    0.05000000    0.01000000
   21.18305397  149.74400330    0.05000000    0.01000000
   21.18638802  144.29100037    0.05000000    0.01000000
   21.18944359  148.21099854    0.05000000    0.01000000
   21.19277763  142.12500000    0.05000000    0.01000000
   21.19610977  141.56599426    0.05000000    0.01000000
   21.19916534  140.34399414    0.05000000    0.01000000
   21.20250130  146.17999268    0.05000000    0.01000000
   21.20555687  142.11300659    0.05000000    0.01000000
   21.20888901  140.66099548    0.05000000    0.01000000
   21.21222305  144.48599243    0.05000000    0.01000000
   21.21527863  140.78300476    0.05000000    0.01000000
   21.21611214  137.86099243    0.05000000    0.01000000
   21.22166634  137.86099243    0.05000000    0.01000000
   21.22583389  143.92199707    0.05000000    0.01000000
   21.22916794  140.91799927    0.05000000    0.01000000
   21.23222351  143.66499329    0.05000000    0.01000000
   21.23555565  148.60499573    0.05000000    0.01000000
   21.23888969  148.29899597    0.05000000    0.01000000
   21.24194527  149.64500427    0.05000000    0.01000000
   21.24527740  152.46000671    0.05000000    0.01000000
   21.24833298  149.24600220    0.05000000    0.01000000
   21.24944496  143.90699768    0.05000000    0.01000000
   21.25222206  149.76899719    0.05000000    0.01000000
   21.25527763  151.55200195    0.05000000    0.01000000
   21.25861168  148.29899597    0.05000000    0.01000000
   21.26472282  148.29899597    0.05000000    0.01000000
   21.26861000  140.04400635    0.05000000    0.01000000
   21.27194405  143.70599365    0.05000000    0.01000000
   21.27527809  140.32299805    0.05000000    0.01000000
   21.27833366  141.83500671    0.05000000    0.01000000
   21.28166580  146.82899475    0.05000000    0.01000000
   21.28277779  145.41799927    0.05000000    0.01000000
   21.28527641  165.25999451    0.05000000    0.01000000
   21.28833199  165.75500488    0.05000000    0.01000000
   21.29166603  177.41600037    0.05000000    0.01000000
   21.29500008  201.85499573    0.05000000    0.01000000
   21.29805565  190.47599792    0.05000000    0.01000000
   21.30138779  191.91900635    0.05000000    0.01000000
   21.30749893  191.91900635    0.05000000    0.01000000
   21.31166649  197.94099426    0.05000000    0.01000000
   21.31472206  200.16299438    0.05000000    0.01000000
   21.31611061  199.38000488    0.05000000    0.01000000
   21.31833458  202.07699585    0.05000000    0.01000000
   21.32139015  185.38900757    0.05000000    0.01000000
   21.32472229  169.91400146    0.05000000    0.01000000
   21.32805634  203.32000732    0.05000000    0.01000000
   21.33111191  188.76600647    0.05000000    0.01000000
   21.33444595  171.92700195    0.05000000    0.01000000
   21.33777809  174.34500122    0.05000000    0.01000000
   21.34083366  139.11199951    0.05000000    0.01000000
   21.34416771  171.66700745    0.05000000    0.01000000
   21.35027885  171.66700745    0.05000000    0.01000000
   21.35444450  136.38499451    0.05000000    0.01000000
   21.35750008  153.02299500    0.05000000    0.01000000
   21.36083412  146.28100586    0.05000000    0.01000000
   21.36416626  139.11700439    0.05000000    0.01000000
   21.36722183  139.62500000    0.05000000    0.01000000
   21.37055588  157.86700439    0.05000000    0.01000000
   21.37388992  156.00199890    0.05000000    0.01000000
   21.37694550  150.25000000    0.05000000    0.01000000
   21.38027763  149.69900513    0.05000000    0.01000000
   21.38277817  147.93200684    0.05000000    0.01000000
   21.38388824  150.00300598    0.05000000    0.01000000
   21.38694382  150.42100525    0.05000000    0.01000000
   21.39305496  150.42100525    0.05000000    0.01000000
   21.39722252  151.67999268    0.05000000    0.01000000
   21.40055466  144.14900208    0.05000000    0.01000000
   21.40361023  139.12300110    0.05000000    0.01000000
   21.40694427  144.89500427    0.05000000    0.01000000
   21.41027832  146.84899902    0.05000000    0.01000000
   21.41333389  140.56500244    0.05000000    0.01000000
   21.41611099  137.56799316    0.05000000    0.01000000
   21.41694450  139.53900146    0.05000000    0.01000000
   21.42000008  111.61000061    0.05000000    0.01000000
   21.42333221  148.82699585    0.05000000    0.01000000
   21.42666626  146.91099548    0.05000000    0.01000000
   21.42972183  135.66099548    0.05000000    0.01000000
