    HOUR (UT)   FLARE FACTOR    SKY TESTER    SUN TESTER
   11.88638878   -1.00000000   -1.00000000   -1.00000000
   12.00249958  173.38800049    1.88000000    2.42000008
   12.00583363  178.90299988    1.88000000    2.42000008
   12.00888920  173.73599243    1.86000001    2.40000010
   12.01222229  161.14199829    1.86000001    2.42000008
   12.01555538  166.93299866    1.86000001    2.42000008
   12.01861095  170.20399475    1.86000001    2.42000008
   12.02277756  170.20399475    1.85000002    2.42000008
   12.02694416  166.13000488    1.83000004    2.42000008
   12.03027725  163.41999817    1.83000004    2.40000010
   12.03333378  163.01600647    1.85000002    2.42000008
   12.03583336  157.64799500    1.83000004    2.42000008
   12.03722286  164.94999695    1.83000004    2.42000008
   12.04027843  182.13000488    1.85000002    2.42000008
   12.04361153  176.03300476    1.83000004    2.42000008
   12.04694462  174.14599609    1.83000004    2.44000006
   12.05000019  197.24800110    1.85000002    2.44000006
   12.05333328  181.66400146    1.85000002    2.42000008
   12.05638885  169.07699585    1.80999994    2.42000008
   12.05972195  180.30099487    1.83000004    2.44000006
   12.06555557  180.30099487    1.80999994    2.44000006
   12.06972218  177.51800537    1.80999994    2.44000006
   12.07305527  177.31100464    1.78999996    2.44000006
   12.07638836  172.73899841    1.80999994    2.44000006
   12.07944393  171.37800598    1.80999994    2.44000006
   12.08277798  177.27200317    1.80999994    2.44000006
   12.08583260  179.28799438    1.78999996    2.44000006
   12.08916664  185.84899902    1.78999996    2.44000006
   12.09249973  171.51100159    1.76999998    2.44000006
   12.09611034  160.55000305    1.78999996    2.46000004
   12.09944439  171.64799500    1.78999996    2.44000006
   12.10249996  166.39300537    1.76999998    2.46000004
   12.10305595  166.85000610    1.76999998    2.46000004
   12.10861111  166.85000610    1.76999998    2.46000004
   12.11277771  167.17700195    1.75000000    2.46000004
   12.11583328  167.51400757    1.75000000    2.46000004
   12.11916637  155.47099304    1.73000002    2.46000004
   12.12250042  162.99400330    1.75000000    2.46000004
   12.12555599  165.90400696    1.73000002    2.46000004
   12.12888908  180.40699768    1.73000002    2.46000004
   12.13222218  164.37600708    1.71000004    2.46000004
   12.13527775  153.55400085    1.71000004    2.48000002
   12.13583279  157.07000732    1.71000004    2.48000002
   12.13888836  167.12600708    1.69000006    2.46000004
   12.14194393  151.96299744    1.69000006    2.48000002
   12.14527798  181.45199585    1.69000006    2.48000002
   12.15138817  181.45199585    1.69000006    2.48000002
   12.15555477  174.51899719    1.69000006    2.48000002
   12.15861034  164.93400574    1.69000006    2.46000004
   12.16194439  172.85099792    1.66999996    2.48000002
   12.16527748  154.90499878    1.66999996    2.48000002
   12.16833401  157.66000366    1.66999996    2.48000002
   12.16916656  159.69500732    1.66999996    2.48000002
   12.17222214  163.66299438    1.66999996    2.48000002
   12.17527771  151.74099731    1.64999998    2.50000000
   12.17861176  168.86700439    1.64999998    2.50000000
   12.18194485  152.16200256    1.63000000    2.50000000
   12.18500042  155.48899841    1.63000000    2.50000000
   12.18833351  167.05099487    1.63000000    2.50000000
   12.19416714  167.05099487    1.63000000    2.50000000
   12.19833374  157.60299683    1.63000000    2.50000000
   12.20166683  155.85000610    1.61000001    2.50000000
   12.20249939  154.59399414    1.61000001    2.50000000
   12.20527744  155.44700623    1.61000001    2.50000000
   12.20861053  154.33599854    1.61000001    2.50000000
   12.21166611  164.21299744    1.60000002    2.50000000
   12.21500015  174.80000305    1.60000002    2.51999998
   12.21805477  156.63800049    1.58000004    2.51999998
   12.22138882  161.96600342    1.58000004    2.51999998
   12.22472191  156.88299561    1.55999994    2.51999998
   12.22777748  151.75300598    1.55999994    2.51999998
   12.23111057  157.35400391    1.55999994    2.51999998
   12.23694515  157.35400391    1.55999994    2.51999998
   12.24111176  135.65600586    1.55999994    2.51999998
   12.24444485  149.26600647    1.55999994    2.51999998
   12.24777794  149.24800110    1.55999994    2.51999998
   12.25083351  152.57600403    1.55999994    2.51999998
   12.25416660  147.42500305    1.53999996    2.51999998
   12.25722218  164.74400330    1.53999996    2.51999998
   12.26055527  158.57200623    1.53999996    2.51999998
   12.26388931  164.02600098    1.53999996    2.51999998
   12.26694393  150.93499756    1.53999996    2.51999998
   12.26916599  157.71099854    1.53999996    2.51999998
   12.27083302  148.98199463    1.53999996    2.53999996
   12.27388859  159.12800598    1.53999996    2.53999996
   12.27999973  159.12800598    1.53999996    2.53999996
   12.28416729  150.75599670    1.53999996    2.53999996
   12.28722286  147.55299377    1.53999996    2.53999996
   12.29055595  145.75599670    1.53999996    2.53999996
   12.29361153  151.21899414    1.53999996    2.53999996
   12.29694462  147.20500183    1.51999998    2.53999996
   12.30027771  152.34300232    1.51999998    2.55999994
   12.30249977  151.36999512    1.51999998    2.53999996
   12.30388927  158.93699646    1.51999998    2.53999996
   12.30694485  167.10899353    1.51999998    2.53999996
   12.31027794  148.71299744    1.50000000    2.53999996
   12.31361103  152.88900757    1.50000000    2.53999996
   12.31666660  143.90499878    1.50000000    2.55999994
   12.32277775  143.90499878    1.48000002    2.55999994
   12.32694435  151.39399719    1.48000002    2.55999994
   12.32999992  156.76300049    1.46000004    2.55999994
   12.33333302  161.18899536    1.46000004    2.55999994
   12.33583260  162.36900330    1.46000004    2.55999994
   12.33694458  153.25199890    1.46000004    2.55999994
   12.34000015  149.14700317    1.44000006    2.55999994
   12.34333324  151.17599487    1.46000004    2.55999994
   12.34666634  150.55999756    1.46000004    2.55999994
   12.34972191  144.91700745    1.44000006    2.55999994
   12.35305595  157.02799988    1.44000006    2.55999994
   12.35638905  151.86799622    1.46000004    2.55999994
   12.35944462  143.71499634    1.44000006    2.55999994
   12.36555576  143.71499634    1.44000006    2.57999992
   12.36972237  158.34800720    1.44000006    2.55999994
   12.37305546  140.80599976    1.41999996    2.57999992
   12.37611103  147.44000244    1.41999996    2.57999992
   12.37944412  149.96499634    1.39999998    2.57999992
   12.38277817  160.25000000    1.39999998    2.55999994
   12.38583279  157.23800659    1.39999998    2.55999994
   12.38916683  160.47000122    1.39999998    2.55999994
   12.39249992  146.85000610    1.39999998    2.57999992
   12.39555550  149.75900269    1.39999998    2.57999992
   12.39888859  148.31199646    1.39999998    2.57999992
   12.40194416  150.56700134    1.39999998    2.57999992
   12.40249920  149.30900574    1.39999998    2.57999992
   12.40833282  149.30900574    1.39999998    2.57999992
   12.41249943  158.74400330    1.39999998    2.57999992
   12.41583252  151.77799988    1.39999998    2.57999992
   12.41888905  138.43600464    1.41999996    2.57999992
   12.42222214  154.18299866    1.39999998    2.57999992
   12.42555618  148.61000061    1.39999998    2.57999992
   12.42861176  137.50999451    1.39999998    2.59999990
   12.43194485  139.25599670    1.38000000    2.59999990
   12.43527794  133.90299988    1.36000001    2.57999992
   12.43583298  131.60400391    1.36000001    2.57999992
   12.43888855  136.20899963    1.36000001    2.57999992
   12.44222260  145.66900635    1.34000003    2.59999990
   12.44527817  139.57899475    1.34000003    2.59999990
   12.45138836  139.57899475    1.34000003    2.59999990
   12.45527744  151.94900513    1.34000003    2.59999990
   12.45861053  145.40199280    1.34000003    2.59999990
   12.46194458  153.43699646    1.36000001    2.59999990
   12.46500015  152.22300720    1.36000001    2.59999990
   12.46833324  155.46200562    1.36000001    2.59999990
   12.46916580  164.52200317    1.36000001    2.59999990
   12.47194386  143.12699890    1.36000001    2.59999990
   12.47527695  157.24800110    1.36000001    2.59999990
   12.47833252  153.79299927    1.36000001    2.59999990
   12.48166656  150.99899292    1.36000001    2.59999990
   12.48500061  144.10200500    1.34000003    2.59999990
   12.48805618  132.68499756    1.34000003    2.61999989
   12.49416733  132.68499756    1.33000004    2.61999989
   12.49833393  149.24699402    1.33000004    2.59999990
   12.50138855  146.16900635    1.33000004    2.61999989
   12.50249958  141.92999268    1.33000004    2.61999989
   12.50500011  145.06599426    1.33000004    2.61999989
   12.50833321  154.60699463    1.33000004    2.61999989
   12.51138878  156.77999878    1.34000003    2.59999990
   12.51472187  144.97599792    1.33000004    2.59999990
   12.51805496  135.46899414    1.34000003    2.59999990
   12.52111053  142.80499268    1.33000004    2.61999989
   12.52444458  143.45700073    1.33000004    2.61999989
   12.52750015  146.29899597    1.30999994    2.59999990
   12.53083324  153.04699707    1.30999994    2.61999989
   12.53694534  153.04699707    1.33000004    2.61999989
   12.54111195  142.74099731    1.33000004    2.61999989
   12.54444504  152.43299866    1.30999994    2.61999989
   12.54750061  152.04699707    1.33000004    2.61999989
   12.55083370  150.12899780    1.30999994    2.61999989
   12.55388927  145.30799866    1.30999994    2.61999989
   12.55722237  147.06900024    1.30999994    2.61999989
   12.56055546  153.82099915    1.30999994    2.64000010
   12.56361103  155.01899719    1.30999994    2.61999989
   12.56694412  141.00999451    1.30999994    2.61999989
   12.56916618  147.88900757    1.30999994    2.61999989
   12.57055569  143.95399475    1.30999994    2.64000010
   12.57388878  142.88000488    1.28999996    2.61999989
   12.57972240  142.88000488    1.28999996    2.61999989
   12.58388901  143.93699646    1.26999998    2.64000010
   12.58722210  146.61099243    1.26999998    2.66000009
   12.59027767  157.44400024    1.26999998    2.64000010
   12.59361076  158.36300659    1.25000000    2.64000010
   12.59694386  152.12500000    1.26999998    2.64000010
   12.60000038  143.85000610    1.26999998    2.64000010
   12.60249996  132.66200256    1.26999998    2.64000010
   12.60361195  146.22799683    1.26999998    2.64000010
   12.60694504  142.88400269    1.26999998    2.64000010
   12.61000061  157.07000732    1.26999998    2.64000010
   12.61333370  147.89399719    1.28999996    2.64000010
   12.61666679  139.34599304    1.28999996    2.66000009
   12.62277794  139.34599304    1.28999996    2.64000010
   12.62666702  152.30299377    1.28999996    2.64000010
   12.63000011  139.80799866    1.28999996    2.64000010
   12.63333321  138.84899902    1.28999996    2.64000010
   12.63583279  139.90199280    1.26999998    2.64000010
   12.63694477  151.03199768    1.26999998    2.66000009
   12.64027786  154.19599915    1.26999998    2.66000009
   12.64333344  153.45599365    1.26999998    2.64000010
   12.64666653  150.91999817    1.26999998    2.66000009
   12.64999962  137.42900085    1.26999998    2.64000010
   12.65305519  144.29299927    1.26999998    2.66000009
   12.65638828  142.30599976    1.25000000    2.64000010
   12.65944386  146.07899475    1.25000000    2.64000010
   12.66555500  146.07899475    1.25000000    2.64000010
   12.66972256  151.21499634    1.25000000    2.66000009
   12.67277813  146.17799377    1.23000002    2.64000010
   12.67611122  142.93699646    1.23000002    2.66000009
   12.67944431  153.10200500    1.23000002    2.66000009
   12.68249989  150.59100342    1.23000002    2.66000009
   12.68583298  145.85099792    1.23000002    2.66000009
   12.68888855  144.54100037    1.23000002    2.67000008
   12.69222260  146.91400146    1.23000002    2.67000008
   12.69555569  143.37699890    1.23000002    2.66000009
   12.69861126  151.03500366    1.21000004    2.66000009
   12.70194435  157.88000488    1.23000002    2.66000009
   12.70249939  148.44500732    1.23000002    2.66000009
   12.70833302  148.44500732    1.23000002    2.66000009
   12.71249962  150.91400146    1.21000004    2.67000008
   12.71583271  147.08099365    1.21000004    2.66000009
   12.71888828  154.27200317    1.21000004    2.67000008
   12.72222137  153.82499695    1.21000004    2.67000008
   12.72555542  150.27699280    1.21000004    2.67000008
   12.72861099  152.44200134    1.19000006    2.67000008
   12.73194408  149.35000610    1.19000006    2.67000008
   12.73527813  161.77099609    1.21000004    2.67000008
   12.73583317  156.63099670    1.21000004    2.67000008
   12.73861122  147.77099609    1.19000006    2.66000009
   12.74194431  154.58700562    1.19000006    2.67000008
   12.74499989  145.82600403    1.19000006    2.67000008
   12.75111103  145.82600403    1.19000006    2.67000008
   12.75527763  157.43899536    1.19000006    2.67000008
   12.75861073  142.61199951    1.19000006    2.67000008
   12.76166630  145.07899475    1.19000006    2.67000008
   12.76500034  139.99000549    1.19000006    2.67000008
   12.76833344  147.86399841    1.19000006    2.67000008
   12.76944447  136.64999390    1.19000006    2.69000006
   12.77194405  144.51499939    1.19000006    2.67000008
   12.77527714  142.98599243    1.19000006    2.67000008
   12.77833271  143.92300415    1.19000006    2.67000008
   12.78166676  146.14799500    1.16999996    2.67000008
   12.78500080  145.12800598    1.16999996    2.69000006
   12.78805637  143.51600647    1.16999996    2.67000008
   12.79416752  143.51600647    1.16999996    2.67000008
   12.79805565  141.81300354    1.16999996    2.67000008
   12.80138874  150.09800720    1.16999996    2.69000006
   12.80277824  168.04800415    1.16999996    2.69000006
   12.80500031  147.50900269    1.14999998    2.69000006
   12.80833340  151.52699280    1.16999996    2.69000006
   12.81138897  152.17100525    1.14999998    2.69000006
   12.81472206  159.44599915    1.14999998    2.67000008
   12.81805515  151.37300110    1.14999998    2.69000006
   12.82111073  148.13099670    1.14999998    2.69000006
   12.82444477  148.28500366    1.14999998    2.69000006
   12.82777786  139.49099731    1.14999998    2.69000006
   12.83083344  161.52400208    1.14999998    2.69000006
   12.83694458  161.52400208    1.14999998    2.69000006
   12.84111118  147.73399353    1.14999998    2.69000006
   12.84416676  152.58900452    1.14999998    2.67000008
   12.84749985  156.25599670    1.13000000    2.69000006
   12.85083389  147.99099731    1.14999998    2.69000006
   12.85388947  150.22500610    1.14999998    2.69000006
   12.85722256  152.76199341    1.13000000    2.69000006
   12.86027813  138.28900146    1.13000000    2.69000006
   12.86361122  144.74000549    1.13000000    2.71000004
   12.86694431  145.97399902    1.11000001    2.71000004
   12.86944485  143.87699890    1.11000001    2.69000006
   12.87055588  156.14500427    1.11000001    2.69000006
   12.87388897  151.22599792    1.11000001    2.69000006
   12.87972260  151.22599792    1.11000001    2.71000004
   12.88388920  145.62699890    1.11000001    2.69000006
   12.88722229  154.18499756    1.11000001    2.71000004
   12.89027786  152.96099854    1.11000001    2.69000006
   12.89361095  152.39500427    1.09000003    2.69000006
   12.89694405  160.33399963    1.11000001    2.71000004
   12.89999962  154.27699280    1.09000003    2.71000004
   12.90277767  159.35099792    1.11000001    2.71000004
   12.90361118  155.80000305    1.11000001    2.71000004
   12.90694427  149.83900452    1.09000003    2.71000004
   12.90999985  157.90899658    1.09000003    2.69000006
   12.91333294  141.12500000    1.09000003    2.71000004
   12.91666698  142.50700378    1.09000003    2.71000004
   12.92250061  142.50700378    1.09000003    2.71000004
   12.92666721  151.63800049    1.09000003    2.69000006
   12.93000031  141.65100098    1.09000003    2.71000004
   12.93305588  150.77699280    1.09000003    2.71000004
   12.93611145  144.53999329    1.09000003    2.71000004
   12.93666649  146.33299255    1.09000003    2.71000004
   12.94000053  146.76600647    1.09000003    2.71000004
   12.94333363  141.54499817    1.09000003    2.71000004
   12.94638920  144.83999634    1.09000003    2.73000002
   12.94972229  154.73699951    1.11000001    2.71000004
   12.95277786  153.02000427    1.11000001    2.71000004
   12.95611095  154.61500549    1.09000003    2.71000004
   12.95944405  153.37500000    1.09000003    2.73000002
   12.96527767  153.37500000    1.09000003    2.73000002
   12.96944427  171.12199402    1.09000003    2.73000002
   12.97277737  142.53500366    1.14999998    2.71000004
   12.97611046  156.50300598    1.09000003    2.71000004
   12.97916603  158.38499451    1.14999998    2.73000002
   12.98249912  145.57099915    1.09000003    2.73000002
   12.98583317  150.13400269    1.07000005    2.73000002
   12.98888874  152.99000549    1.13000000    2.71000004
   12.99222279  155.97200012    1.13000000    2.73000002
   12.99527836  150.71000671    1.07000005    2.71000004
   12.99861145  145.86199951    1.14999998    2.71000004
   13.00194454  146.10400391    1.14999998    2.73000002
   13.00277805  156.42999268    1.09000003    2.73000002
   13.02333355  156.42999268    1.09000003    2.73000002
   13.02750015  145.61399841    1.07000005    2.73000002
   13.03055573  147.62699890    1.09000003    2.71000004
   13.03388977  151.96200562    1.07000005    2.71000004
   13.03611183  154.73699951    1.07000005    2.71000004
   13.03750038  145.76699829    1.07000005    2.71000004
   13.04083347  160.70799255    1.07000005    2.71000004
   13.04416752  150.97300720    1.07000005    2.73000002
   13.04722309  154.58599854    1.07000005    2.73000002
   13.05055618  150.16200256    1.07000005    2.73000002
   13.05361176  152.32600403    1.07000005    2.71000004
   13.05694485  142.86700439    1.07000005    2.73000002
   13.06027794  145.36199951    1.07000005    2.73000002
   13.06611156  145.36199951    1.07000005    2.73000002
   13.07027817  146.52299500    1.05999994    2.73000002
   13.07333374  150.06599426    1.05999994    2.73000002
   13.07666683  137.73199463    1.05999994    2.73000002
   13.07999992  156.95599365    1.05999994    2.75000000
   13.08305550  157.33799744    1.05999994    2.75000000
   13.08638859  147.73399353    1.05999994    2.75000000
   13.08972168  139.49000549    1.03999996    2.73000002
   13.09277725  151.48699951    1.03999996    2.75000000
   13.09611034  151.48800659    1.03999996    2.75000000
   13.09916592  150.73399353    1.03999996    2.75000000
   13.10249996  156.21699524    1.03999996    2.75000000
   13.10305595  142.42199707    1.03999996    2.75000000
   13.10888958  142.42199707    1.03999996    2.73000002
   13.11305618  145.85200500    1.01999998    2.73000002
   13.11638927  153.14199829    1.03999996    2.75000000
   13.11944485  151.41499329    1.03999996    2.75000000
   13.12277794  162.88000488    1.03999996    2.75000000
   13.12583351  156.90299988    1.03999996    2.75000000
   13.12916660  154.30900574    1.01999998    2.75000000
   13.13249969  160.75399780    1.03999996    2.75000000
   13.13555527  144.41999817    1.03999996    2.75000000
   13.13638878  153.63600159    1.03999996    2.75000000
   13.13944435  156.94299316    1.01999998    2.75000000
   13.14249992  151.90100098    1.01999998    2.75000000
   13.14583302  150.12899780    1.03999996    2.76999998
   13.15166664  150.12899780    1.01999998    2.75000000
   13.15583324  157.36399841    1.01999998    2.75000000
   13.15916634  148.28300476    1.01999998    2.75000000
   13.16222191  152.46699524    1.01999998    2.76999998
   13.16555500  156.21099854    1.01999998    2.76999998
   13.16888905  150.79899597    1.01999998    2.75000000
   13.16972256  152.99800110    1.01999998    2.76999998
   13.17250061  149.90100098    1.01999998    2.75000000
   13.17555618  147.81300354    1.01999998    2.73000002
   13.17888927  143.35299683    1.01999998    2.75000000
   13.18194485  153.61599731    1.01999998    2.75000000
   13.18527794  151.46000671    1.01999998    2.76999998
   13.18861103  152.32699585    1.01999998    2.75000000
   13.19472218  152.32699585    1.01999998    2.76999998
   13.19861126  151.45899963    1.00000000    2.76999998
   13.20194435  148.82899475    1.00000000    2.76999998
   13.20305538  150.19799805    1.00000000    2.76999998
   13.20555496  160.79600525    1.00000000    2.76999998
   13.20861053  146.55900574    1.00000000    2.76999998
   13.21194458  160.63600159    0.98000002    2.76999998
   13.21500015  147.00300598    1.00000000    2.76999998
   13.21833324  145.79299927    0.98000002    2.76999998
   13.22166634  149.10899353    1.00000000    2.76999998
   13.22472191  142.97500610    1.00000000    2.76999998
   13.22805500  159.52400208    0.98000002    2.76999998
   13.23138809  153.04600525    1.00000000    2.76999998
   13.23750019  153.04600525    1.00000000    2.76999998
   13.24166679  159.59899902    1.00000000    2.76999998
   13.24472237  149.22599792    0.98000002    2.76999998
   13.24805546  154.54899597    1.00000000    2.76999998
   13.25138855  145.79800415    1.00000000    2.76999998
   13.25444412  156.73699951    1.00000000    2.76999998
   13.25777817  157.90600586    1.00000000    2.76999998
   13.26083374  152.72000122    1.00000000    2.76999998
   13.26416683  151.38299561    1.01999998    2.78999996
   13.26749992  143.64999390    1.01999998    2.76999998
   13.26972198  148.68499756    1.01999998    2.76999998
   13.27111053  152.86900330    1.01999998    2.78999996
   13.27416611  149.16099548    1.01999998    2.76999998
   13.28027725  149.16099548    1.01999998    2.76999998
   13.28444481  145.15100098    1.01999998    2.76999998
   13.28750038  151.18800354    1.03999996    2.76999998
   13.29083347  151.00700378    1.03999996    2.76999998
   13.29416752  144.01499939    1.03999996    2.76999998
   13.29722309  155.49299622    1.03999996    2.76999998
   13.30055618  154.69000244    1.01999998    2.76999998
   13.30305576  142.28500366    1.03999996    2.76999998
   13.30416679  146.38200378    1.01999998    2.76999998
   13.30722237  150.05000305    1.03999996    2.78999996
   13.31055546  152.60600281    1.01999998    2.76999998
   13.31388950  150.61599731    1.03999996    2.76999998
   13.31694412  146.49499512    1.01999998    2.76999998
   13.32305527  146.49499512    1.03999996    2.78999996
   13.32722187  150.59300232    1.03999996    2.78999996
   13.33055592  143.39799500    1.03999996    2.76999998
   13.33361053  160.47999573    1.03999996    2.76999998
   13.33638859  153.41000366    1.03999996    2.76999998
   13.33749962  149.06799316    1.03999996    2.76999998
   13.34055519  148.36300659    1.03999996    2.76999998
   13.34388828  149.74899292    1.03999996    2.76999998
   13.34694386  149.98699951    1.03999996    2.76999998
   13.35027790  149.12699890    1.03999996    2.76999998
   13.35361195  151.12500000    1.03999996    2.78999996
   13.35666752  162.27799988    1.03999996    2.76999998
   13.36000061  147.79100037    1.03999996    2.76999998
   13.36611176  147.79100037    1.03999996    2.76999998
   13.37027836  149.50300598    1.03999996    2.76999998
   13.37333393  149.30299377    1.03999996    2.76999998
   13.37666702  162.38800049    1.03999996    2.78999996
   13.37972260  150.88099670    1.03999996    2.78999996
   13.38305569  142.83999634    1.03999996    2.76999998
   13.38638878  155.10899353    1.05999994    2.76999998
   13.38944435  147.23199463    1.05999994    2.76999998
   13.39277744  155.03500366    1.05999994    2.76999998
   13.39583302  157.52099609    1.05999994    2.76999998
   13.39916611  140.69099426    1.05999994    2.78999996
   13.40249920  152.15499878    1.05999994    2.76999998
   13.40305519  155.47200012    1.05999994    2.76999998
   13.40888882  155.47200012    1.05999994    2.76999998
   13.41305542  156.51600647    1.03999996    2.76999998
   13.41611099  164.53100586    1.03999996    2.76999998
   13.41944504  157.06199646    1.03999996    2.76999998
   13.42277813  157.82200623    1.03999996    2.78999996
   13.42583370  161.14599609    1.03999996    2.78999996
   13.42916679  169.86999512    1.03999996    2.78999996
   13.43249989  151.43600464    1.03999996    2.76999998
   13.43555546  151.82800293    1.03999996    2.78999996
   13.43638897  156.23500061    1.03999996    2.78999996
   13.43944454  163.97999573    1.05999994    2.78999996
   13.44250011  139.65100098    1.05999994    2.76999998
   13.44583321  154.42799377    1.05999994    2.76999998
   13.45166683  154.42799377    1.05999994    2.78999996
   13.45583344  152.23699951    1.05999994    2.76999998
   13.45888901  157.07699585    1.05999994    2.78999996
   13.46222210  161.73800659    1.07000005    2.78999996
   13.46555519  152.17399597    1.07000005    2.78999996
   13.46861076  151.18899536    1.05999994    2.78999996
   13.46972179  145.45300293    1.05999994    2.78999996
   13.47249985  153.29699707    1.05999994    2.76999998
   13.47555542  147.06399536    1.05999994    2.78999996
   13.47888851  151.79299927    1.05999994    2.76999998
   13.48222160  155.22900391    1.05999994    2.78999996
   13.48527813  151.83900452    1.05999994    2.78999996
   13.48861122  152.55099487    1.05999994    2.78999996
   13.49444485  152.55099487    1.05999994    2.76999998
   13.49861145  167.23599243    1.05999994    2.78999996
   13.50194454  168.49299622    1.05999994    2.78999996
   13.50305557  153.69400024    1.05999994    2.78999996
   13.50555515  177.36300659    1.05999994    2.78999996
   13.50888920  156.40100098    1.05999994    2.76999998
   13.51194477  157.98399353    1.03999996    2.78999996
   13.51527786  149.68400574    1.01999998    2.78999996
   13.51833344  167.87399292    1.01999998    2.80999994
   13.52166653  155.70300293    1.01999998    2.78999996
   13.52499962  161.42100525    1.01999998    2.78999996
   13.52805519  158.31500244    1.01999998    2.78999996
   13.53138828  162.48399353    1.01999998    2.78999996
   13.53750038  162.48399353    1.01999998    2.80999994
   13.54138947  159.49499512    1.01999998    2.78999996
   13.54472256  153.81599426    1.00000000    2.78999996
   13.54805565  144.23100281    1.00000000    2.78999996
   13.55111122  154.07600403    1.00000000    2.78999996
   13.55444431  150.16799927    1.00000000    2.78999996
   13.55749989  158.47200012    1.00000000    2.80999994
   13.56083393  153.16499329    1.01999998    2.78999996
   13.56416702  150.39700317    1.01999998    2.80999994
   13.56722260  150.33900452    1.01999998    2.78999996
   13.56972218  144.21899414    1.01999998    2.78999996
   13.57111073  153.42399597    1.01999998    2.78999996
   13.57416630  138.27400208    1.00000000    2.80999994
   13.58027744  138.27400208    1.00000000    2.78999996
   13.58444405  154.95300293    1.00000000    2.78999996
   13.58749962  172.58599854    1.00000000    2.78999996
   13.59083271  151.86999512    1.00000000    2.80999994
   13.59388828  153.86099243    1.00000000    2.80999994
   13.59722233  161.59500122    0.98000002    2.80999994
   13.60055637  171.79499817    1.00000000    2.78999996
   13.60305595  162.36599731    1.00000000    2.78999996
   13.60416698  148.43299866    1.00000000    2.78999996
   13.60722256  161.51199341    1.00000000    2.80999994
   13.61055565  167.35600281    1.00000000    2.80999994
   13.61388969  172.06300354    1.00000000    2.80999994
   13.61694431  158.96400452    1.00000000    2.78999996
   13.62305546  158.96400452    1.00000000    2.78999996
   13.62722206  164.87800598    1.00000000    2.80999994
   13.63055611  158.11700439    1.00000000    2.80999994
   13.63361073  150.17900085    1.00000000    2.80999994
   13.63638878  152.93099976    1.00000000    2.80999994
   13.63722229  146.09100342    0.98000002    2.80999994
   13.64027786  157.04899597    0.98000002    2.80999994
   13.64361095  149.44999695    0.98000002    2.80999994
   13.64694405  172.01100159    0.98000002    2.80999994
   13.64999962  153.88800049    0.98000002    2.80999994
   13.65333271  157.77200317    0.98000002    2.78999996
   13.65638828  149.40600586    0.98000002    2.80999994
   13.65972137  151.13699341    0.95999998    2.80999994
   13.66583252  151.13699341    0.95999998    2.80999994
   13.67000008  151.32800293    0.95999998    2.80999994
   13.67333412  148.48100281    0.95999998    2.80999994
   13.67638874  142.50900269    0.98000002    2.80999994
   13.67972279  151.34100342    0.95999998    2.80999994
   13.68305588  156.38499451    0.95999998    2.78999996
   13.68611145  154.32800293    0.95999998    2.78999996
   13.68944454  154.36500549    0.95999998    2.80999994
   13.69277763  151.04899597    0.95999998    2.80999994
   13.69583321  159.22799683    0.95999998    2.82999992
   13.69916630  155.98899841    0.95999998    2.80999994
   13.70222187  133.20899963    0.95999998    2.80999994
   13.70305538  154.05599976    0.98000002    2.80999994
   13.70888901  154.05599976    0.98000002    2.78999996
   13.71277714  162.27900696    0.98000002    2.80999994
   13.71611118  147.58099365    0.98000002    2.80999994
   13.71944427  149.19799805    0.98000002    2.80999994
   13.72249985  145.14500427    1.00000000    2.80999994
   13.72583294  138.95399475    1.00000000    2.80999994
   13.72888851  139.02699280    0.98000002    2.82999992
   13.73222160  138.77400208    0.98000002    2.80999994
   13.73555565  133.74200439    0.98000002    2.80999994
   13.73638916  142.31300354    0.98000002    2.80999994
   13.73916721  147.24200439    0.95999998    2.80999994
   13.74222279  150.08200073    0.95999998    2.82999992
   13.74555588  150.54499817    0.94000000    2.80999994
   13.75166702  150.54499817    0.92000002    2.82999992
   13.75583363  145.93200684    0.92000002    2.82999992
   13.75888920  142.58700562    0.94000000    2.80999994
   13.76222229  159.75399780    0.94000000    2.80999994
   13.76527786  149.01899719    0.94000000    2.80999994
   13.76861095  135.05499268    0.94000000    2.80999994
   13.76972198  157.91099548    0.94000000    2.80999994
   13.77222157  158.81199646    0.94000000    2.80999994
   13.77527714  147.62699890    0.95999998    2.82999992
   13.77861118  135.32400513    0.94000000    2.82999992
   13.78194427  140.98899841    0.94000000    2.80999994
   13.78500080  135.74499512    0.92000002    2.82999992
   13.78833389  143.21299744    0.89999998    2.82999992
   13.79444504  143.21299744    0.89999998    2.80999994
   13.79861164  151.14300537    0.88000000    2.82999992
   13.80166721  146.58099365    0.88000000    2.80999994
   13.80305576  146.71000671    0.88000000    2.80999994
   13.80555534  140.33999634    0.88000000    2.82999992
   13.80861092  149.91400146    0.88000000    2.82999992
   13.81194496  137.37199402    0.88000000    2.82999992
   13.81527805  156.58900452    0.88000000    2.82999992
   13.81833363  142.96800232    0.88000000    2.82999992
   13.82166672  155.05799866    0.88000000    2.84999990
   13.82499981  147.33999634    0.88000000    2.82999992
   13.82805538  140.73599243    0.88000000    2.82999992
   13.83138847  138.33599854    0.88000000    2.82999992
   13.83722210  138.33599854    0.88000000    2.82999992
   13.84138870  137.28799438    0.88000000    2.82999992
   13.84472179  147.34300232    0.86000001    2.82999992
   13.84777737  140.98699951    0.86000001    2.82999992
   13.85111141  139.06199646    0.86000001    2.82999992
   13.85444450  144.32499695    0.86000001    2.82999992
   13.85750008  142.76899719    0.86000001    2.84999990
   13.86083412  136.22599792    0.86000001    2.84999990
   13.86388969  153.13000488    0.86000001    2.84999990
   13.86722279  146.57600403    0.86000001    2.82999992
   13.86972237  145.19500732    0.86000001    2.82999992
   13.87083340  138.85200500    0.86000001    2.84999990
   13.87388897  146.64500427    0.86000001    2.84999990
   13.88000011  146.64500427    0.86000001    2.84999990
   13.88416672  144.61099243    0.86000001    2.82999992
   13.88749981  134.50000000    0.86000001    2.84999990
   13.89083290  137.80599976    0.86000001    2.82999992
   13.89388847  141.11900330    0.86000001    2.84999990
   13.89722252  133.81700134    0.83999997    2.84999990
   13.90027714  134.84300232    0.86000001    2.84999990
   13.90305519  141.64199829    0.86000001    2.84999990
   13.90416622  134.42799377    0.86000001    2.84999990
   13.90749931  143.76699829    0.86000001    2.82999992
   13.91055489  138.00399780    0.86000001    2.82999992
   13.91388893  149.41999817    0.88000000    2.84999990
   13.91694450  147.98199463    0.88000000    2.84999990
   13.92305565  147.98199463    0.88000000    2.84999990
   13.92722225  138.03100586    0.88000000    2.84999990
   13.93027782  136.29899597    0.92000002    2.84999990
   13.93361092  141.01699829    0.94000000    2.82999992
   13.93638897  138.63999939    0.95999998    2.82999992
   13.93722248  139.41600037    0.95999998    2.82999992
   13.94055557  132.96800232    0.95999998    2.84999990
   13.94361115  143.58799744    0.94000000    2.84999990
   13.94694424  144.48500061    0.94000000    2.84999990
   13.94999981  143.54100037    0.94000000    2.82999992
   13.95333290  141.19900513    0.95999998    2.84999990
   13.95666695  147.32699585    0.95999998    2.84999990
   13.95972157  147.71299744    0.98000002    2.84999990
   13.96583271  147.71299744    0.98000002    2.84999990
   13.96999931  144.69000244    0.98000002    2.84999990
   13.97305489  149.60899353    1.00000000    2.84999990
   13.97638798  153.75900269    1.00000000    2.82999992
   13.97972202  153.21099854    0.98000002    2.84999990
   13.98277760  144.50500488    1.00000000    2.82999992
   13.98611164  144.95599365    0.98000002    2.82999992
   13.98944473  146.08900452    0.98000002    2.84999990
   13.99250031  157.07499695    1.00000000    2.84999990
   13.99583340  160.00999451    1.00000000    2.84999990
   13.99888897  149.57499695    1.00000000    2.84999990
   14.00222206  146.85499573    1.00000000    2.84999990
   14.00305557  149.61500549    1.00000000    2.84999990
   14.00861073  149.61500549    1.00000000    2.84999990
   14.01277733  132.22999573    1.00000000    2.84999990
   14.01611137  144.21600342    1.00000000    2.84999990
   14.01916599  147.43699646    1.00000000    2.84999990
   14.03694534  144.58700562    1.00000000    2.86999989
   14.03916740  146.86500549    1.00000000    2.84999990
   14.04250050  143.06500244    1.00000000    2.86999989
   14.04583359  140.88200378    1.00000000    2.84999990
   14.05166721  140.88200378    1.00000000    2.84999990
   14.05583382  146.66600037    0.98000002    2.84999990
   14.05916691  142.30900574    0.98000002    2.82999992
   14.06222248  143.86599731    0.95999998    2.84999990
   14.06555557  139.73199463    0.95999998    2.84999990
   14.06861115  141.72900391    0.98000002    2.84999990
   14.06999969  151.21600342    0.98000002    2.82999992
   14.07250023  140.75599670    0.95999998    2.82999992
   14.07583332  141.61500549    0.95999998    2.84999990
   14.07888889  134.08099365    0.94000000    2.82999992
   14.08222198  147.47200012    0.94000000    2.82999992
   14.08527756  145.62199402    0.92000002    2.86999989
   14.08861065  141.63699341    0.92000002    2.84999990
   14.09444427  141.63699341    0.89999998    2.82999992
   14.09861088  139.22099304    0.94000000    2.84999990
   14.10194492  148.66600037    0.88000000    2.82999992
   14.10333347  143.96600342    0.88000000    2.84999990
   14.10555553  145.41400146    0.88000000    2.86999989
   14.10888958  137.35899353    0.88000000    2.84999990
   14.11194515  138.25799561    0.88000000    2.84999990
   14.11527824  138.89900208    0.86000001    2.86999989
   14.11861134  140.97999573    0.86000001    2.84999990
   14.12166691  137.91600037    0.86000001    2.86999989
   14.12500000  147.76899719    0.86000001    2.84999990
   14.12833309  140.01199341    0.86000001    2.86999989
   14.13138866  130.82499695    0.83999997    2.86999989
   14.13749981  130.82499695    0.83999997    2.86999989
   14.14138889  137.18699646    0.83999997    2.86999989
   14.14472198  152.63600159    0.83999997    2.86999989
   14.14805508  141.29899597    0.83999997    2.86999989
   14.15111065  140.23300171    0.83999997    2.86999989
   14.15444374  145.44599915    0.83999997    2.86999989
   14.15777779  140.12199402    0.83999997    2.84999990
   14.16083336  142.40699768    0.83999997    2.86999989
   14.16416645  141.10600281    0.83999997    2.84999990
   14.16722298  144.34899902    0.83999997    2.86999989
   14.17000008  148.88800049    0.83999997    2.86999989
   14.17111111  143.99200439    0.83999997    2.86999989
   14.17444515  138.36199951    0.83999997    2.86999989
   14.18027782  138.36199951    0.86000001    2.84999990
   14.18444443  134.05200195    0.86000001    2.84999990
   14.18750000  137.40400696    0.86000001    2.86999989
   14.19083309  137.05200195    0.86000001    2.86999989
   14.19416714  139.62600708    0.86000001    2.84999990
   14.19722271  143.68600464    0.86000001    2.84999990
   14.20055580  135.02699280    0.88000000    2.84999990
   14.20333290  143.83000183    0.86000001    2.84999990
   14.20416641  137.47099304    0.86000001    2.84999990
   14.20749950  140.41299438    0.86000001    2.86999989
   14.21055508  137.65800476    0.86000001    2.86999989
   14.21388912  139.70700073    0.86000001    2.84999990
   14.21694374  139.64300537    0.86000001    2.86999989
   14.22305489  139.64300537    0.86000001    2.86999989
   14.22722149  139.15299988    0.86000001    2.84999990
   14.23055553  136.37300110    0.86000001    2.86999989
   14.23361111  137.57400513    0.86000001    2.86999989
   14.23666668  132.47599792    0.86000001    2.86999989
   14.23722267  146.56199646    0.86000001    2.86999989
   14.24055576  144.11399841    0.86000001    2.84999990
   14.24361134  137.66200256    0.86000001    2.86999989
   14.24694443  139.31100464    0.83999997    2.86999989
   14.25027752  144.27400208    0.86000001    2.86999989
   14.25333309  146.94099426    0.86000001    2.86999989
   14.25666714  148.70899963    0.83999997    2.86999989
   14.25972176  143.91099548    0.86000001    2.86999989
   14.26583290  143.91099548    0.83999997    2.86999989
   14.26999950  142.92999268    0.86000001    2.86999989
   14.27055550  138.47799683    0.86000001    2.86999989
   14.27388859  143.67500305    0.86000001    2.86999989
   14.27694416  144.35000610    0.86000001    2.86999989
   14.28027725  142.68400574    0.86000001    2.86999989
   14.28361130  146.53100586    0.86000001    2.86999989
   14.28666687  134.41200256    0.88000000    2.86999989
   14.29000092  136.38600159    0.88000000    2.86999989
   14.29333401  132.44999695    0.88000000    2.86999989
   14.29638958  144.02200317    0.88000000    2.86999989
   14.29972267  148.49600220    0.88000000    2.86999989
   14.30277824  144.50500488    0.89999998    2.86999989
   14.30333328  133.51699829    0.89999998    2.86999989
   14.30888939  133.51699829    0.92000002    2.84999990
   14.31277752  138.93899536    0.92000002    2.86999989
   14.31611156  126.70700073    0.92000002    2.86999989
   14.31944466  142.59899902    0.92000002    2.86999989
   14.32250023  133.77400208    0.92000002    2.86999989
   14.32583332  139.69500732    0.92000002    2.86999989
   14.32916641  137.17100525    0.94000000    2.86999989
   14.33222198  132.19000244    0.92000002    2.86999989
   14.33555508  138.15899658    0.94000000    2.86999989
   14.33666611  136.72399902    0.94000000    2.86999989
   14.33916664  145.57699585    0.94000000    2.86999989
   14.34249973  133.06100464    0.94000000    2.86999989
   14.34555531  143.89700317    0.94000000    2.86999989
   14.35166740  143.89700317    0.92000002    2.89000010
   14.35583401  145.74400330    0.92000002    2.86999989
   14.35888958  133.69200134    0.92000002    2.86999989
   14.36222267  137.65199280    0.92000002    2.86999989
   14.36527824  140.94200134    0.92000002    2.86999989
   14.36861134  138.39599609    0.92000002    2.89000010
   14.36999989  133.58399963    0.89999998    2.89000010
   14.37222195  146.69700623    0.89999998    2.86999989
   14.37555599  142.84800720    0.89999998    2.89000010
   14.37861156  138.12399292    0.89999998    2.86999989
   14.38194466  155.86199951    0.89999998    2.84999990
   14.38527775  156.73500061    0.89999998    2.86999989
   14.38833332  140.89799500    0.89999998    2.86999989
   14.39444447  140.89799500    0.92000002    2.84999990
   14.39861107  148.44700623    0.92000002    2.86999989
   14.40166664  150.13699341    0.92000002    2.86999989
   14.40361118  158.02299500    0.92000002    2.89000010
   14.40527725  159.22399902    0.92000002    2.86999989
   14.40861034  161.32800293    0.94000000    2.86999989
   14.41166592  168.20300293    0.94000000    2.86999989
   14.41499996  169.80200195    0.94000000    2.86999989
   14.41833401  160.12100220    0.92000002    2.86999989
   14.42138958  166.44999695    0.94000000    2.86999989
   14.42472267  171.52499390    0.94000000    2.86999989
   14.42805576  177.46099854    0.94000000    2.89000010
   14.43111134  188.60899353    0.92000002    2.89000010
   14.43722248  188.60899353    0.92000002    2.86999989
   14.44138908  184.89999390    0.92000002    2.89000010
   14.44472218  188.15499878    0.92000002    2.86999989
   14.44777775  198.25300598    0.92000002    2.86999989
   14.45111084  210.45100403    0.89999998    2.86999989
   14.45444393  220.08200073    0.89999998    2.89000010
   14.45749950  225.79499817    0.89999998    2.89000010
   14.46083355  243.67500305    0.89999998    2.86999989
   14.46416664  228.04899597    0.89999998    2.89000010
   14.46722221  240.12199402    0.89999998    2.89000010
   14.47027779  239.60299683    0.92000002    2.86999989
   14.47083282  241.78300476    0.92000002    2.86999989
   14.47416592  258.40399170    0.92000002    2.86999989
   14.47999954  258.40399170    0.92000002    2.86999989
   14.48416710  278.16198730    0.92000002    2.89000010
   14.48750019  307.16101074    0.92000002    2.89000010
   14.48944473  340.28500366    0.92000002    2.89000010
   14.49083328  295.13598633    0.92000002    2.89000010
   14.49222279  334.12701416    0.92000002    2.89000010
   14.49361134  329.14300537    0.92000002    2.89000010
   14.49499989  355.85699463    0.92000002    2.86999989
   14.49638939  372.26699829    0.92000002    2.86999989
   14.49777794  395.80599976    0.89999998    2.86999989
   14.49916649  369.40701294    0.89999998    2.86999989
   14.50055599  393.71701050    0.89999998    2.89000010
   14.50194454  386.89300537    0.89999998    2.89000010
   14.50333309  392.12298584    0.88000000    2.89000010
   14.50472260  412.92098999    0.88000000    2.89000010
   14.50611115  426.38800049    0.86000001    2.86999989
   14.50749969  430.28799438    0.86000001    2.86999989
   14.50888920  417.64001465    0.86000001    2.89000010
   14.51027775  398.87799072    0.86000001    2.89000010
   14.51166630  413.41900635    0.86000001    2.89000010
   14.51305580  361.26800537    0.86000001    2.89000010
   14.51444435  348.33898926    0.86000001    2.91000009
   14.51583290  301.14498901    0.86000001    2.89000010
   14.51722240  286.57998657    0.83999997    2.86999989
   14.51861095  236.46099854    0.83999997    2.89000010
   14.51861095  225.79499817    0.89999998    2.89000010
   14.51888847  243.67500305    0.89999998    2.86999989
   14.51888847  228.04899597    0.89999998    2.89000010
   14.51888847  240.12199402    0.89999998    2.89000010
   14.51916599  241.78300476    0.92000002    2.86999989
   14.51916599  258.40399170    0.92000002    2.86999989
   14.51916599  278.16198730    0.92000002    2.89000010
   14.51944447  307.16101074    0.92000002    2.89000010
   14.51944447  220.08200073    0.89999998    2.89000010
   14.51999950  202.44900513    0.83999997    2.89000010
   14.52333355  120.67700195    0.83999997    2.89000010
   14.52638817  106.08000183    0.83999997    2.86999989
   14.52972221   93.01360321    0.80000001    2.89000010
   14.53305531   95.19090271    0.80000001    2.89000010
   14.53944492   95.19090271    0.79000002    2.89000010
   14.54361153  116.99199677    0.80000001    2.89000010
   14.54666710  116.90599823    0.80000001    2.91000009
   14.55000019  108.33899689    0.80000001    2.89000010
   14.55249977   88.69640350    0.81999999    2.89000010
   14.55388927  101.25399780    0.81999999    2.89000010
   14.55694485   92.10659790    0.83999997    2.89000010
   14.56027794   75.16649628    0.83999997    2.89000010
   14.56333351   67.45760345    0.83999997    2.91000009
   14.56666660   -1.00000000   -1.00000000   -1.00000000
   14.56999969   -1.00000000    0.83999997    2.89000010
   14.57305527   -1.00000000    0.83999997    2.89000010
   14.57638836   -1.00000000    0.83999997    2.89000010
   14.58222198   -1.00000000    0.83999997    2.89000010
   14.58638859   -1.00000000    0.81999999    2.89000010
   14.58972168   -1.00000000    0.81999999    2.89000010
   14.59277725   -1.00000000    0.81999999    2.89000010
   14.59611034   -1.00000000    0.80000001    2.91000009
   14.59916592   -1.00000000    0.79000002    2.89000010
   14.60249996   -1.00000000    0.79000002    2.89000010
   14.60583401   -1.00000000    0.79000002    2.91000009
   14.60888958   -1.00000000    0.79000002    2.91000009
   14.61222267   -1.00000000    0.79000002    2.91000009
   14.61527824   -1.00000000    0.79000002    2.89000010
   14.61861134   -1.00000000    0.79000002    2.89000010
   14.62916660   -1.00000000    0.79000002    2.89000010
   14.63249969   -1.00000000    0.79000002    2.91000009
   14.63555527   -1.00000000    0.76999998    2.91000009
   14.63888836   -1.00000000    0.76999998    2.89000010
   14.64194393   -1.00000000    0.79000002    2.91000009
   14.64527798   -1.00000000    0.79000002    2.89000010
   14.64861107   -1.00000000    0.79000002    2.89000010
   14.65166664   -1.00000000    0.79000002    2.89000010
   14.65527725   -1.00000000    0.79000002    2.91000009
   14.65861034   -1.00000000    0.76999998    2.89000010
   14.66194439   -1.00000000    0.79000002    2.91000009
   14.67194462   -1.00000000    0.76999998    2.91000009
   14.67527771   -1.00000000    0.76999998    2.89000010
   14.67833328   -1.00000000    0.76999998    2.89000010
   14.68166733   -1.00000000    0.76999998    2.91000009
   14.68500042   -1.00000000    0.75000000    2.91000009
   14.68833351   -1.00000000    0.75000000    2.91000009
   14.69166660   -1.00000000    0.75000000    2.91000009
   14.69499969   -1.00000000    0.75000000    2.91000009
   14.69805527   -1.00000000    0.73000002    2.89000010
   14.70138836   -1.00000000    0.73000002    2.91000009
   14.70444393   -1.00000000    0.73000002    2.91000009
   14.71472168   -1.00000000    0.73000002    2.91000009
   14.71805477   -1.00000000    0.70999998    2.91000009
   14.72138882   -1.00000000    0.70999998    2.93000007
   14.72472191   -1.00000000    0.70999998    2.91000009
   14.72805500   -1.00000000    0.70999998    2.91000009
   14.73111057   -1.00000000    0.70999998    2.91000009
   14.73444462   -1.00000000    0.70999998    2.91000009
   14.73750019   -1.00000000    0.70999998    2.91000009
   14.74083328   -1.00000000    0.69000000    2.91000009
   14.74416733   -1.00000000    0.69000000    2.91000009
   14.74722290   -1.00000000    0.69000000    2.91000009
   14.75777817   -1.00000000    0.67000002    2.91000009
   14.76083374   -1.00000000    0.69000000    2.91000009
   14.76416683   -1.00000000    0.67000002    2.91000009
   14.76722240   -1.00000000    0.69000000    2.91000009
   14.77055550   -1.00000000    0.69000000    2.91000009
   14.77388859   -1.00000000    0.69000000    2.91000009
   14.77694416   -1.00000000    0.67000002    2.93000007
   14.78027725   -1.00000000    0.67000002    2.89000010
   14.78361130   -1.00000000    0.67000002    2.91000009
   14.78694534   -1.00000000    0.67000002    2.93000007
   14.79027843   -1.00000000    0.67000002    2.91000009
   14.80055618   -1.00000000    0.67000002    2.93000007
   14.80388927   -1.00000000    0.67000002    2.91000009
   14.80694485   -1.00000000    0.67000002    2.91000009
   14.81027794   -1.00000000    0.69000000    2.91000009
   14.81333351   -1.00000000    0.67000002    2.89000010
   14.81666660   -1.00000000    0.67000002    2.91000009
   14.81999969   -1.00000000    0.69000000    2.91000009
   14.82333374   -1.00000000    0.69000000    2.91000009
   14.82666683   -1.00000000    0.67000002    2.93000007
   14.82972240   -1.00000000    0.69000000    2.91000009
   14.83305550   -1.00000000    0.69000000    2.91000009
   14.84333324   -1.00000000    0.69000000    2.91000009
   14.84666634   -1.00000000    0.70999998    2.93000007
   14.84972191   -1.00000000    0.70999998    2.91000009
   14.85333347   -1.00000000    0.70999998    2.93000007
   14.85666752   -1.00000000    0.70999998    2.91000009
   14.86000061   -1.00000000    0.70999998    2.91000009
   14.86305618   -1.00000000    0.70999998    2.91000009
   14.86638927   -1.00000000    0.70999998    2.91000009
   14.86944485   -1.00000000    0.73000002    2.91000009
   14.87277794   -1.00000000    0.70999998    2.91000009
   14.87611103   -1.00000000    0.70999998    2.91000009
   14.88611126   -1.00000000    0.75000000    2.93000007
   14.88944435   -1.00000000    0.75000000    2.91000009
   14.89277744   -1.00000000    0.76999998    2.91000009
   14.89583302   -1.00000000    0.76999998    2.91000009
   14.89916611   -1.00000000    0.79000002    2.91000009
   14.90249920   -1.00000000    0.79000002    2.91000009
   14.90555477   -1.00000000    0.80000001    2.91000009
   14.90888882   -1.00000000    0.80000001    2.91000009
   14.91194439   -1.00000000    0.80000001    2.91000009
   14.91527748   -1.00000000    0.81999999    2.91000009
   14.91861153   -1.00000000    0.81999999    2.91000009
   14.92916679   -1.00000000    0.83999997    2.91000009
   14.93222237   -1.00000000    0.86000001    2.91000009
   14.93555546   -1.00000000    0.86000001    2.91000009
   14.93888855   -1.00000000    0.86000001    2.91000009
   14.94194412   -1.00000000    0.86000001    2.91000009
   14.94527817   -1.00000000    0.86000001    2.93000007
   14.94833374   -1.00000000    0.88000000    2.91000009
   14.95166683   -1.00000000    0.88000000    2.91000009
   14.95499992   -1.00000000    0.88000000    2.91000009
   14.95833302   -1.00000000    0.88000000    2.89000010
   14.96166611   -1.00000000    0.88000000    2.89000010
   14.97194386   -1.00000000    0.88000000    2.91000009
   14.97527695   -1.00000000    0.86000001    2.93000007
   14.97833252   -1.00000000    0.86000001    2.93000007
   14.98166656   -1.00000000    0.86000001    2.91000009
   14.98472214   -1.00000000    0.86000001    2.91000009
   14.98833370   -1.00000000    0.83999997    2.91000009
   14.99166679   -1.00000000    0.83999997    2.89000010
   14.99499989   -1.00000000    0.81999999    2.91000009
   14.99805546   -1.00000000    0.80000001    2.91000009
   15.00138855   -1.00000000    0.79000002    2.91000009
   15.00472260   -1.00000000    0.79000002    2.93000007
   15.01472187   -1.00000000    0.75000000    2.91000009
   15.01805496   -1.00000000    0.75000000    2.93000007
   15.02138901   -1.00000000    0.75000000    2.93000007
   15.02472210   -1.00000000    0.75000000    2.93000007
   15.02805519   -1.00000000    0.75000000    2.91000009
   15.03111076   -1.00000000    0.75000000    2.93000007
   15.03444481   -1.00000000    0.75000000    2.91000009
   15.06138897   -1.00000000    0.76999998    2.93000007
   15.06472206   -1.00000000    0.76999998    2.93000007
   15.06777763   -1.00000000    0.76999998    2.93000007
   15.07111073   -1.00000000    0.76999998    2.93000007
   15.07444477   -1.00000000    0.76999998    2.93000007
   15.07750034   -1.00000000    0.76999998    2.91000009
   15.08083344   -1.00000000    0.76999998    2.91000009
   15.08416653   -1.00000000    0.76999998    2.93000007
   15.08722210   -1.00000000    0.76999998    2.93000007
   15.09083271   -1.00000000    0.76999998    2.93000007
   15.09388828   -1.00000000    0.79000002    2.93000007
   15.10416698   -1.00000000    0.86000001    2.93000007
   15.10750008   -1.00000000    0.89999998    2.93000007
   15.11055565   -1.00000000    0.92000002    2.93000007
   15.11388969   -1.00000000    0.94000000    2.93000007
   15.11722279   -1.00000000    0.94000000    2.93000007
   15.12027836   -1.00000000    0.94000000    2.93000007
   15.12388897   -1.00000000    0.94000000    2.93000007
   15.12722206   -1.00000000    0.94000000    2.93000007
   15.13027763   -1.00000000    0.94000000    2.93000007
   15.13361073   -1.00000000    0.92000002    2.93000007
   15.13666630   -1.00000000    0.92000002    2.93000007
   15.14694405   -1.00000000    0.89999998    2.93000007
   15.15027714   -1.00000000    0.89999998    2.93000007
   15.15361118   -1.00000000    0.89999998    2.93000007
   15.15499973  139.50000000    0.86000001    2.91000009
   15.15722179  133.24699402    0.83999997    2.93000007
   15.16055489  138.32099915    0.80000001    2.91000009
   15.16361046  136.24299622    0.80000001    2.91000009
   15.16694450  141.86599731    0.75000000    2.93000007
   15.17000008  144.29200745    0.73000002    2.93000007
   15.17333412  133.42300415    0.70999998    2.93000007
   15.17666721  135.37300110    0.69000000    2.91000009
   15.17972279  138.52799988    0.67000002    2.93000007
   15.18583298  138.52799988    0.67000002    2.93000007
   15.19000053  135.38499451    0.67000002    2.93000007
   15.19333363  135.51600647    0.67000002    2.91000009
   15.19638920  135.02299500    0.64999998    2.93000007
   15.19972229  140.16200256    0.63000000    2.91000009
   15.20277786  144.57000732    0.63000000    2.93000007
   15.20611095  143.01600647    0.61000001    2.91000009
   15.20944405  157.43899536    0.61000001    2.93000007
   15.21249962  157.89999390    0.58999997    2.93000007
   15.21583271  144.35099792    0.56999999    2.93000007
   15.21916580  149.58900452    0.55000001    2.93000007
   15.22166634  139.21800232    0.55000001    2.93000007
   15.22277737  122.88600159    0.52999997    2.93000007
   15.22861099  122.88600159    0.52999997    2.93000007
   15.23277760  127.70700073    0.51999998    2.93000007
   15.23611164  134.74899292    0.50000000    2.91000009
   15.23916721  124.38700104    0.47999999    2.93000007
   15.24250031  134.12100220    0.47999999    2.93000007
   15.24583340  132.56799316    0.47999999    2.94000006
   15.24888897  133.40499878    0.46000001    2.93000007
   15.25222206  128.80299377    0.46000001    2.93000007
   15.25500011  140.54800415    0.44000000    2.93000007
   15.25583363  135.13499451    0.44000000    2.93000007
   15.25916672  138.88299561    0.44000000    2.93000007
   15.26222229  133.03900146    0.41999999    2.94000006
   15.26555538  133.40800476    0.41999999    2.93000007
   15.27166653  133.40800476    0.38000000    2.93000007
   15.27555561  156.63699341    0.38000000    2.94000006
   15.27888870  130.66499329    0.36000001    2.93000007
   15.28222179  134.71699524    0.36000001    2.93000007
   15.28527832  135.78300476    0.36000001    2.93000007
   15.28833389  119.87500000    0.36000001    2.93000007
   15.28888893  122.12999725    0.36000001    2.93000007
   15.29222298  124.02700043    0.34000000    2.91000009
   15.29527855  119.36699677    0.31999999    2.93000007
   15.29861164  125.93199921    0.31999999    2.94000006
   15.30194473  129.44599915    0.30000001    2.93000007
   15.30500031  128.39500427    0.28000000    2.93000007
   15.30833340  125.27200317    0.25999999    2.93000007
   15.31444454  125.27200317    0.25999999    2.94000006
   15.31861115  132.46600342    0.25000000    2.93000007
   15.32166672  124.24199677    0.25999999    2.94000006
   15.32222176  131.05700684    0.25999999    2.94000006
   15.32555580  136.61900330    0.25999999    2.94000006
   15.32861137  132.87300110    0.25999999    2.94000006
   15.33194447  142.24099731    0.25999999    2.93000007
   15.33527756  132.48599243    0.25000000    2.93000007
   15.33833313  137.59800720    0.23000000    2.93000007
   15.34166622  140.57099915    0.20999999    2.93000007
   15.34472179  137.85899353    0.20999999    2.94000006
   15.34805489  133.53500366    0.19000000    2.93000007
   15.35138893  136.33700562    0.19000000    2.93000007
   15.35722256  136.33700562    0.15000001    2.93000007
   15.36138916  138.72000122    0.13000000    2.94000006
   15.36472225  135.90600586    0.15000001    2.93000007
   15.36777782  130.14399719    0.13000000    2.93000007
   15.37111092  137.85099792    0.11000000    2.94000006
   15.37444496  132.32600403    0.11000000    2.91000009
   15.37750053  129.08700562    0.11000000    2.94000006
   15.38083363  127.84600067    0.09000000    2.94000006
   15.38416672  134.86799622    0.09000000    2.91000009
   15.38722229  136.02200317    0.07000000    2.93000007
   15.38833332  144.77600098    0.07000000    2.93000007
   15.39083290  137.62199402    0.07000000    2.93000007
   15.39416695  135.70599365    0.07000000    2.93000007
   15.39999962  135.70599365    0.07000000    2.93000007
   15.40416622  135.19200134    0.07000000    2.93000007
   15.40749931  125.56400299    0.07000000    2.91000009
   15.41055489  135.79400635    0.07000000    2.93000007
   15.41388893  143.88699341    0.05000000    2.93000007
   15.41722298  139.17399597    0.05000000    2.93000007
   15.42027855  144.84300232    0.05000000    2.93000007
   15.42166710  138.59599304    0.05000000    2.93000007
   15.42388916  131.19700623    0.05000000    2.94000006
   15.42722225  127.78700256    0.05000000    2.93000007
   15.43027782  138.55099487    0.05000000    2.93000007
   15.43361092  131.30099487    0.05000000    2.93000007
   15.43694496  134.97000122    0.05000000    2.93000007
   15.44305515  134.97000122    0.05000000    2.93000007
   15.44694424  133.16299438    0.05000000    2.93000007
   15.45027733  136.66799927    0.05000000    2.93000007
   15.45361137  144.06199646    0.05000000    2.93000007
   15.45527744  131.53300476    0.05000000    2.94000006
   15.45722198  140.80000305    0.03000000    2.93000007
   15.46055508  135.96299744    0.03000000    2.94000006
   15.46361065  135.27200317    0.03000000    2.93000007
   15.46694374  138.15100098    0.03000000    2.93000007
   15.46999931  134.99099731    0.03000000    2.94000006
   15.47333336  139.25700378    0.03000000    2.93000007
   15.47666645  137.00799561    0.03000000    2.93000007
   15.47972202  136.25500488    0.03000000    2.93000007
   15.48583317  136.25500488    0.03000000    2.94000006
   15.49000072  147.22999573    0.03000000    2.94000006
   15.49305534  131.22900391    0.03000000    2.93000007
   15.49638939  140.32699585    0.03000000    2.93000007
   15.49972248  132.28399658    0.03000000    2.93000007
   15.50277805  147.55000305    0.03000000    2.93000007
   15.50611115  132.83500671    0.03000000    2.93000007
   15.50916672  143.98899841    0.03000000    2.91000009
   15.51249981  142.02799988    0.03000000    2.93000007
   15.51583290  137.90100098    0.03000000    2.93000007
   15.51888847  141.44799805    0.03000000    2.91000009
   15.52194405  135.91099548    0.03000000    2.91000009
   15.52277756  131.85200500    0.03000000    2.93000007
   15.52861118  131.85200500    0.03000000    2.91000009
   15.53277779  131.30999756    0.03000000    2.93000007
   15.53611183  135.93800354    0.03000000    2.93000007
   15.53916740  136.37300110    0.03000000    2.91000009
   15.54250050  130.29699707    0.03000000    2.91000009
   15.54555607  145.17700195    0.03000000    2.93000007
   15.54888916  149.99400330    0.03000000    2.93000007
   15.55222225  126.85299683    0.03000000    2.93000007
   15.55527782  140.61599731    0.03000000    2.91000009
   15.55583382  133.79200745    0.03000000    2.89000010
   15.55888939  128.76600647    0.03000000    2.82999992
   15.56222248  133.96099854    0.03000000    2.61999989
   15.56555557  142.13000488    0.03000000    2.40000010
   15.57138920  142.13000488    0.03000000    2.30999994
   15.57555580  137.96800232    0.03000000    1.30999994
   15.57888889  144.06300354    0.03000000    0.92000002
   15.58194447  142.08999634    0.03000000    0.64999998
   15.58527756  122.39800262    0.01000000    0.34000000
   15.58861065  150.73100281    0.03000000    0.13000000
   15.58916664  131.67999268    0.03000000    0.09000000
   15.59222221  136.49299622    0.03000000    0.01000000
   15.59555531  133.95300293    0.03000000    0.01000000
   15.59861088  133.82499695    0.03000000    0.01000000
   15.60194492  131.45899963    0.03000000    0.01000000
   15.60527802  133.66999817    0.03000000    0.01000000
   15.60833359  133.16799927    0.03000000    0.01000000
   15.61416721  133.16799927    0.03000000    0.01000000
   15.61833382  136.58599854    0.03000000    0.01000000
   15.62166691  137.94799805    0.03000000    0.01000000
   15.62250042  142.43699646    0.03000000    0.01000000
   15.62527752  126.19300079    0.03000000    0.01000000
   15.62861156  129.65899658    0.03000000    0.01000000
   15.63194466  129.83000183    0.03000000    0.01000000
   15.63500023  131.01800537    0.03000000    0.01000000
   15.63833332  133.89999390    0.03000000    0.01000000
   15.64166641  139.21099854    0.03000000    0.01000000
   15.64472198  141.92100525    0.03000000    0.01000000
   15.64805508  124.45500183    0.03000000    0.01000000
   15.65111065  132.91499329    0.03000000    0.01000000
   15.80083370   -1.00000000   -1.00000000   -1.00000000
   15.95472240   -1.00000000   -1.00000000   -1.00000000
   16.21611214   -1.00000000   -1.00000000   -1.00000000
   16.32361221   70.30519867    0.50000000    0.30000001
   16.32694626  154.34399414    0.50000000    2.93000007
   16.33027840  139.35600281    0.50000000    2.93000007
   16.33361244  144.76600647    0.50000000    2.93000007
   16.33666801  123.56999969    0.50000000    2.94000006
   16.34000015  135.57600403    0.50000000    2.93000007
   16.34416771  135.57600403    0.50000000    2.93000007
   16.34833336  133.54600525    0.50000000    2.93000007
   16.35138893  137.96499634    0.50000000    2.93000007
   16.35472298  141.13600159    0.50000000    2.93000007
   16.35694504  139.42700195    0.50000000    2.94000006
   16.35833359  146.68800354    0.51999998    2.94000006
   16.36166763  143.19000244    0.51999998    2.94000006
   16.36472321  139.99000549    0.51999998    2.94000006
   16.36805534  143.86300659    0.51999998    2.94000006
   16.37138939  141.45799255    0.51999998    2.94000006
   16.37444496  133.94799805    0.51999998    2.94000006
   16.37777710  140.63900757    0.52999997    2.93000007
   16.38083267  142.83799744    0.52999997    2.93000007
   16.38694382  142.83799744    0.52999997    2.93000007
   16.39111137  138.20300293    0.70999998    1.03999996
   16.39416695  134.39100647    0.70999998    0.81999999
   16.39749908  137.98699951    0.70999998    0.81999999
   16.40083313  125.19100189    0.70999998    0.81999999
   16.40388870  131.17199707    0.70999998    0.81999999
   16.40722275  136.42399597    0.70999998    0.81999999
   16.41055489  133.28500366    0.70999998    0.81999999
   16.41361046  134.29299927    0.70999998    0.81999999
   16.41694450  131.14599609    0.70999998    0.81999999
   16.42000008  129.55999756    0.70999998    0.81999999
   16.42333221  130.22099304    0.70999998    0.81999999
   16.42388916  123.99400330    0.70999998    0.81999999
   16.42972183  123.99400330    0.70999998    0.81999999
   16.43388748  125.82599640    0.70999998    0.81999999
   16.43722153  134.46000671    0.70999998    0.81999999
   16.44027710  130.47599792    0.70999998    0.81999999
   16.44361115  122.39900208    0.70999998    0.81999999
   16.44694328  128.81799316    0.70999998    0.81999999
   16.45000076  132.98899841    0.70999998    0.81999999
   16.45333481  123.84999847    0.70999998    0.81999999
   16.45639038  125.55100250    0.70999998    0.81999999
   16.45722389  130.09100342    0.70999998    0.81999999
   16.46027946  126.37000275    0.70999998    0.81999999
   16.46333504  121.97299957    0.70999998    0.81999999
   16.46666718  129.21600342    0.70999998    0.81999999
   16.47249985  129.21600342    0.70999998    0.81999999
   16.47666740  132.77799988    0.70999998    0.81999999
   16.48000145  129.95500183    0.70999998    0.81999999
   16.48333359  128.03599548    0.70999998    0.81999999
   16.48638916  127.93900299    0.70999998    0.81999999
   16.48972321  134.00199890    0.70999998    0.81999999
   16.49055672  130.92399597    0.70999998    0.81999999
   16.49333382  135.28999329    0.70999998    0.81999999
   16.49638939  123.97499847    0.70999998    0.81999999
   16.49972153  126.44300079    0.70999998    0.81999999
   16.50305557  136.54100037    0.70999998    0.81999999
   16.50611115  127.41300201    0.70999998    0.81999999
   16.50944519  122.82900238    0.70999998    0.81999999
   16.51555634  122.82900238    0.70999998    0.81999999
   16.51972198  125.76999664    0.70999998    0.81999999
   16.52277756  124.29699707    0.70999998    0.81999999
   16.52388954  120.03600311    0.70999998    0.81999999
   16.52666664  123.48200226    0.70999998    0.81999999
   16.52972221  124.83899689    0.70999998    0.81999999
   16.53305435  128.47399902    0.70999998    0.81999999
   16.53638840  121.85900116    0.70999998    0.81999999
   16.53944397  130.96000671    0.70999998    0.81999999
   16.54277802  122.73899841    0.70999998    0.81999999
   16.54583359  130.99200439    0.70999998    0.81999999
   16.54916573  117.26499939    0.70999998    0.81999999
   16.55249977  124.04599762    0.70999998    0.81999999
   16.55833244  124.04599762    0.70999998    0.81999999
   16.56250000  120.66400146    0.70999998    0.81999999
   16.56555557  125.19400024    0.70999998    0.81999999
   16.56888962  114.60099792    0.70999998    0.81999999
   16.57222366  124.88500214    0.70999998    0.81999999
   16.57527924  131.65100098    0.70999998    0.81999999
   16.57861137  116.61799622    0.70999998    0.81999999
   16.58194542  124.72599792    0.70999998    0.81999999
   16.58500099  128.53799438    0.70999998    0.81999999
   16.58833313  124.00599670    0.70999998    0.81999999
   16.59055710  132.68899536    0.70999998    0.81999999
   16.59194565  130.87199402    0.70999998    0.81999999
   16.59500122  115.21900177    0.70999998    0.81999999
   16.60111237  115.21900177    0.70999998    0.81999999
   16.60527802  127.89099884    0.70999998    0.81999999
   16.60861206  126.73799896    0.70999998    0.81999999
   16.61166763  125.98899841    0.70999998    0.81999999
   16.61499977  127.42099762    0.70999998    0.81999999
   16.61833382  139.98100281    0.70999998    0.81999999
   16.62138939  127.70400238    0.70999998    0.81999999
   16.62388992  126.61000061    0.70999998    0.81999999
   16.62527847  126.18099976    0.70999998    0.81999999
   16.62833405  126.12400055    0.70999998    0.81999999
   16.63166618  126.28900146    0.70999998    0.81999999
   16.63500023  122.92900085    0.70999998    0.81999999
   16.63805580  124.77200317    0.70999998    0.81999999
   16.64388847  124.77200317    0.70999998    0.81999999
   16.64805603  128.98899841    0.70999998    0.81999999
   16.65138817  124.85900116    0.70999998    0.81999999
   16.65472221  123.31300354    0.70999998    0.81999999
   16.65722275  121.62400055    0.70999998    0.81999999
   16.65833282  127.80500031    0.70999998    0.81999999
   16.66138840  121.95500183    0.70999998    0.81999999
   16.66472244  115.17199707    0.70999998    0.81999999
   16.66777802  124.10399628    0.70999998    0.81999999
   16.67111015  127.73100281    0.70999998    0.81999999
   16.67444420  122.00399780    0.70999998    0.81999999
   16.67749977  118.68000031    0.70999998    0.81999999
   16.68083191  125.60399628    0.70999998    0.81999999
   16.68694305  125.60399628    0.70999998    0.81999999
   16.69083214  125.01899719    0.70999998    0.81999999
   16.69416618  117.40899658    0.70999998    0.81999999
   16.69749832  131.55900574    0.70999998    0.81999999
   16.70055580  127.01799774    0.70999998    0.81999999
   16.70388985  116.20099640    0.70999998    0.81999999
   16.70722389  119.30200195    0.70999998    0.81999999
   16.71027946  127.15000153    0.70999998    0.81999999
   16.71361160  125.42700195    0.70999998    0.81999999
   16.71666718  116.95899963    0.70999998    0.81999999
   16.72000122  125.44300079    0.70999998    0.81999999
   16.72333336  119.81900024    0.70999998    0.81999999
   16.72389030  110.31800079    0.70999998    0.81999999
   16.72972298  110.31800079    0.70999998    0.81999999
   16.73388863  116.41300201    0.70999998    0.81999999
   16.73694420  123.40100098    0.70999998    0.81999999
   16.74027824  120.77700043    0.70999998    0.81999999
   16.74361229  121.16300201    0.70999998    0.81999999
   16.74694443  123.71700287    0.70999998    0.81999999
   16.75000000  126.93900299    0.70999998    0.81999999
   16.75333405  123.94999695    0.70999998    0.81999999
   16.75638962  125.59400177    0.70999998    0.81999999
   16.75722313  129.20599365    0.70999998    0.81999999
   16.76027870  126.50199890    0.70999998    0.81999999
   16.76333427  133.92199707    0.70999998    0.81999999
   16.76666641  125.74700165    0.70999998    0.81999999
   16.77249908  125.74700165    0.70999998    0.81999999
   16.77666664  129.96299744    0.70999998    0.81999999
   16.78000069  123.98200226    0.70999998    0.81999999
   16.78305435  124.69499969    0.70999998    0.81999999
   16.78638840  131.90100098    0.70999998    0.81999999
   16.78972244  114.72699738    0.70999998    0.81999999
   16.79055595  123.30799866    0.70999998    0.81999999
   16.79333305  125.05400085    0.70999998    0.81999999
   16.79638863  116.91000366    0.70999998    0.81999999
   16.79972076  123.61799622    0.70999998    0.81999999
   16.80305481  127.94400024    0.70999998    0.81999999
   16.80611038  123.70999908    0.70999998    0.81999999
   16.80944443  116.61299896    0.70999998    0.81999999
   16.81527710  116.61299896    0.70999998    0.81999999
   16.81944466  122.60399628    0.70999998    0.81999999
   16.82277870  117.69699860    0.70999998    0.81999999
   16.82389069  127.19699860    0.70999998    0.81999999
   16.82638931  125.18900299    0.70999998    0.81999999
   16.82944489  124.85399628    0.70999998    0.81999999
   16.83277893  129.21899414    0.70999998    0.81999999
   16.83611107  121.89800262    0.70999998    0.81999999
   16.83916664  123.19300079    0.70999998    0.81999999
   16.84250069  118.09200287    0.70999998    0.81999999
   16.84555626  125.69000244    0.70999998    0.81999999
   16.84889030  126.79799652    0.70999998    0.81999999
   16.85222244  131.08399963    0.70999998    0.81999999
   16.85833359  131.08399963    0.70999998    0.81999999
   16.86222267  126.92199707    0.70999998    0.81999999
   16.86555672  118.77400208    0.70999998    0.81999999
   16.86888885  125.45200348    0.70999998    0.81999999
   16.87194443  141.10800171    0.70999998    0.81999999
   16.87527847  111.14399719    0.70999998    0.81999999
   16.87833405  116.03700256    0.70999998    0.81999999
   16.88166618  114.71700287    0.70999998    0.81999999
   16.88500023  125.32299805    0.70999998    0.81999999
   16.88805580  120.31300354    0.70999998    0.81999999
   16.89055634  123.74600220    0.70999998    0.81999999
   16.89194489  116.80500031    0.70999998    0.81999999
   16.89500046  121.93099976    0.70999998    0.81999999
   16.90111160  121.93099976    0.70999998    0.81999999
   16.90527725  119.40299988    0.70999998    0.81999999
   16.90833282  133.35800171    0.70999998    0.81999999
   16.91166687  126.18599701    0.70999998    0.81999999
   16.91499901  114.36900330    0.70999998    0.81999999
   16.91805458  118.72299957    0.70999998    0.81999999
   16.92138863  127.85099792    0.70999998    0.81999999
   16.92388916  122.95500183    0.70999998    0.81999999
   16.92499924  116.89399719    0.70999998    0.81999999
   16.92805481  119.48500061    0.70999998    0.81999999
   16.93138885  111.79000092    0.70999998    0.81999999
   16.93472099  125.92500305    0.70999998    0.81999999
   16.93777657  115.26200104    0.70999998    0.81999999
   16.94388771  115.26200104    0.70999998    0.81999999
   16.94805527  119.63600159    0.70999998    0.81999999
   16.95111275  121.36199951    0.70999998    0.81999999
   16.95444489  128.36099243    0.70999998    0.81999999
   16.95722389  117.20600128    0.70999998    0.81999999
   16.95805550  129.09199524    0.70999998    0.81999999
   16.96111107  123.61900330    0.70999998    0.81999999
   16.96444511  123.53099823    0.70999998    0.81999999
   16.96777916  119.54100037    0.70999998    0.81999999
   16.97083473  123.25199890    0.70999998    0.81999999
   16.97416687  117.44699860    0.70999998    0.81999999
   16.97722244   89.72689819    0.70999998    0.81999999
   16.98055649  119.89900208    0.70999998    0.81999999
   16.98666763  119.89900208    0.70999998    0.81999999
   16.99083328  126.58100128    0.70999998    0.81999999
   16.99416733  120.84500122    0.70999998    0.81999999
   16.99722290  113.31600189    0.70999998    0.81999999
   17.00055504  116.84400177    0.70999998    0.81999999
   17.00388908  120.23100281    0.70999998    0.81999999
   17.00694466  117.89800262    0.70999998    0.81999999
   17.01027870  113.98300171    0.70999998    0.81999999
   17.01333427  117.05799866    0.70999998    0.81999999
   17.01666641  116.75800323    0.70999998    0.81999999
   17.02000046  111.56400299    0.70999998    0.81999999
   17.02305603  164.26300049    0.70999998    0.81999999
   17.02388954  167.45100403    0.70999998    0.81999999
   17.02972221  167.45100403    0.70999998    0.81999999
   17.03361130  123.29799652    0.70999998    0.81999999
   17.03694344  117.43699646    0.70999998    0.81999999
   17.04027748  129.05099487    0.70999998    0.81999999
   17.04333305  113.60399628    0.70999998    0.81999999
   17.04666710  121.07099915    0.70999998    0.81999999
   17.04972076  124.27899933    0.70999998    0.81999999
   17.05305481  122.13999939    0.70999998    0.81999999
   17.05638885  122.53099823    0.70999998    0.81999999
   17.05722237  122.79299927    0.70999998    0.81999999
   17.05999947  113.55500031    0.70999998    0.81999999
   17.06305504  110.46800232    0.70999998    0.81999999
   17.06638718  127.71700287    0.70999998    0.81999999
   17.07250023  127.71700287    0.70999998    0.81999999
   17.07666779  114.94200134    0.70999998    0.81999999
   17.07972336  114.89600372    0.70999998    0.81999999
   17.08305550  110.86799622    0.70999998    0.81999999
   17.08638954  121.77999878    0.70999998    0.81999999
   17.08944511  115.50199890    0.70999998    0.81999999
   17.09055710  112.57399750    0.70999998    0.81999999
   17.09305573  114.10099792    0.70999998    0.81999999
   17.09611130  109.32900238    0.70999998    0.81999999
   17.09944534  113.55799866    0.70999998    0.81999999
   17.10277748  130.12699890    0.70999998    0.81999999
   17.10583305  117.91699982    0.70999998    0.81999999
   17.10916710  126.05400085    0.70999998    0.81999999
   17.11527824  126.05400085    0.70999998    0.81999999
   17.11944389  109.24400330    0.70999998    0.81999999
   17.12249947  117.15899658    0.70999998    0.81999999
   17.12388992  125.64299774    0.70999998    0.81999999
   17.12638855  124.63300323    0.70999998    0.81999999
   17.12944412  127.38300323    0.70999998    0.81999999
   17.13277817  124.57499695    0.70999998    0.81999999
   17.13611031  122.08599854    0.70999998    0.81999999
   17.13916588  115.43599701    0.70999998    0.81999999
   17.14249992  123.15200043    0.70999998    0.81999999
   17.14583397  122.78199768    0.70999998    0.81999999
   17.14888954  119.80999756    0.70999998    0.81999999
   17.15222168  128.31900024    0.70999998    0.81999999
   17.15805435  128.31900024    0.70999998    0.81999999
   17.16222191  128.61399841    0.70999998    0.81999999
   17.16555595  127.01200104    0.70999998    0.81999999
   17.16860962  123.64800262    0.70999998    0.81999999
   17.17194366  125.10399628    0.70999998    0.81999999
   17.17527771  124.74099731    0.70999998    0.81999999
   17.17833328  128.56599426    0.70999998    0.81999999
   17.18166542  124.34500122    0.70999998    0.81999999
   17.18472099  125.80999756    0.70999998    0.81999999
   17.18805504  128.42799377    0.70999998    0.81999999
   17.19055557  126.27300262    0.70999998    0.81999999
   17.19166565  114.20099640    0.70999998    0.81999999
   17.19472122  115.69300079    0.70999998    0.81999999
   17.20111275  115.69300079    0.70999998    0.81999999
   17.20499992  138.39399719    0.70999998    0.81999999
   17.20833397  120.00099945    0.70999998    0.81999999
   17.21166801  119.02200317    0.70999998    0.81999999
   17.21472359  129.01400757    0.70999998    0.81999999
   17.21805573  114.46800232    0.70999998    0.81999999
   17.22111130  116.06800079    0.70999998    0.81999999
   17.22389030  112.21399689    0.70999998    0.81999999
   17.22500038  117.52799988    0.70999998    0.81999999
   17.22833443  114.94200134    0.70999998    0.81999999
   17.23139000  117.14299774    0.70999998    0.81999999
   17.23472214  118.68499756    0.70999998    0.81999999
   17.23777771  118.28399658    0.70999998    0.81999999
   17.24388885  118.28399658    0.70999998    0.81999999
   17.24805641  122.36000061    0.70999998    0.81999999
   17.25111198  119.43099976    0.70999998    0.81999999
   17.25444412  123.41699982    0.70999998    0.81999999
   17.25722313  116.23300171    0.70999998    0.81999999
   17.25805473  128.68099976    0.70999998    0.81999999
   17.26138878  120.69300079    0.70999998    0.81999999
   17.26444435  127.19100189    0.70999998    0.81999999
   17.26777840  125.03900146    0.70999998    0.81999999
   17.27111053  115.64900208    0.70999998    0.81999999
   17.27416611  118.85299683    0.70999998    0.81999999
   17.27750015  115.04299927    0.70999998    0.81999999
   17.28055573  118.58399963    0.70999998    0.81999999
   17.28666687  118.58399963    0.70999998    0.81999999
   17.29083252  124.28299713    0.70999998    0.81999999
   17.29416656  117.84799957    0.70999998    0.81999999
   17.29722214  124.99700165    0.70999998    0.81999999
   17.30055428  112.68099976    0.70999998    0.81999999
   17.30360985  119.12899780    0.70999998    0.81999999
   17.30694389  121.54699707    0.70999998    0.81999999
   17.31027794  119.98999786    0.70999998    0.81999999
   17.31333351  141.43299866    0.70999998    0.81999999
   17.31666756  125.88400269    0.70999998    0.81999999
   17.32000160  114.91300201    0.70999998    0.81999999
   17.32305717  124.37400055    0.70999998    0.81999999
   17.32389069  120.42700195    0.70999998    0.81999999
   17.34472275  120.42700195    0.70999998    0.81999999
   17.34889030  116.40599823    0.70999998    0.81999999
   17.35194397  127.93399811    0.70999998    0.81999999
   17.35527802  120.75199890    0.70999998    0.81999999
   17.35722351  117.45500183    0.70999998    0.81999999
   17.35888863  117.76300049    0.70999998    0.81999999
   17.36222267  117.41400146    0.70999998    0.81999999
   17.36527824  116.44100189    0.70999998    0.81999999
   17.36861038  122.74600220    0.70999998    0.81999999
   17.37166595  121.47799683    0.70999998    0.81999999
   17.37500000  117.84300232    0.70999998    0.81999999
   17.37833405  123.12300110    0.70999998    0.81999999
   17.38138962  120.65399933    0.70999998    0.81999999
   17.38750076  120.65399933    0.70999998    0.81999999
   17.39166641  123.78199768    0.70999998    0.81999999
   17.39472198  115.26799774    0.70999998    0.81999999
   17.39805603  117.89299774    0.70999998    0.81999999
   17.40138817  120.93399811    0.70999998    0.81999999
   17.40444374  112.38300323    0.70999998    0.81999999
   17.40777779  113.74800110    0.70999998    0.81999999
   17.41083336  119.30999756    0.70999998    0.81999999
   17.41416550  119.97000122    0.70999998    0.81999999
   17.41749954  121.27600098    0.70999998    0.81999999
   17.42055511  123.30500031    0.70999998    0.81999999
   17.42388916  117.30599976    0.70999998    0.81999999
   17.42444420  114.00399780    0.70999998    0.81999999
   17.43027687  114.00399780    0.70999998    0.81999999
   17.43444443  116.86699677    0.70999998    0.81999999
   17.43750000  115.99500275    0.70999998    0.81999999
   17.44083214  123.57700348    0.70999998    0.81999999
   17.44416618  128.46099854    0.70999998    0.81999999
   17.44722176  134.77799988    0.70999998    0.81999999
   17.45055580  122.88500214    0.70999998    0.81999999
   17.45388985  124.84700012    0.70999998    0.81999999
   17.45694542  115.52400208    0.70999998    0.81999999
   17.45777893  122.13899994    0.70999998    0.81999999
   17.46083450  114.95800018    0.70999998    0.81999999
   17.46389008  117.80200195    0.70999998    0.81999999
   17.46722221  134.61700439    0.70999998    0.81999999
   17.47305679  134.61700439    0.70999998    0.81999999
   17.47722244  119.98500061    0.70999998    0.81999999
   17.48055649  121.83000183    0.70999998    0.81999999
   17.48361206  118.83000183    0.70999998    0.81999999
   17.48694420  123.63200378    0.70999998    0.81999999
   17.49027824  125.57499695    0.70999998    0.81999999
   17.49111176  121.17900085    0.70999998    0.81999999
   17.49388885  122.53700256    0.70999998    0.81999999
   17.49694443  121.31700134    0.70999998    0.81999999
   17.50027847  120.39499664    0.70999998    0.81999999
   17.50333405  135.75700378    0.70999998    0.81999999
   17.50666618  120.57199860    0.70999998    0.81999999
   17.51000023  117.24500275    0.70999998    0.81999999
   17.51583290  117.24500275    0.70999998    0.81999999
   17.52000046  119.14499664    0.70999998    0.81999999
   17.52333260  120.45400238    0.70999998    0.81999999
   17.52444458  116.33399963    0.70999998    0.81999999
   17.52694511  113.87300110    0.70999998    0.81999999
   17.53000069  131.94200134    0.70999998    0.81999999
   17.53333282  120.47499847    0.70999998    0.81999999
   17.53638840  113.30500031    0.70999998    0.81999999
   17.53972244  122.63200378    0.70999998    0.81999999
   17.54305458  126.34500122    0.70999998    0.81999999
   17.54611015  119.62200165    0.70999998    0.81999999
   17.54944420  122.32599640    0.70999998    0.81999999
   17.55277634  132.65199280    0.70999998    0.81999999
   17.55888748  132.65199280    0.70999998    0.81999999
   17.56305504  118.11499786    0.70999998    0.81999999
   17.56611061  128.92900085    0.70999998    0.73000002
   17.56944466  128.05599976    0.70999998    2.91000009
   17.57277870  121.37899780    0.73000002    2.91000009
   17.57583427  130.58999634    0.73000002    2.93000007
   17.57916832  125.90899658    0.75000000    2.93000007
   17.58222389  116.69200134    0.75000000    2.93000007
   17.58555603  123.62599945    0.76999998    2.91000009
   17.58889008  120.39399719    0.76999998    2.91000009
   17.59111214  120.11699677    0.76999998    2.91000009
   17.59250069  121.91899872    0.76999998    2.91000009
   17.59555626  126.87799835    0.76999998    2.91000009
   17.60166740  126.87799835    0.75000000    2.93000007
   17.60583305  109.15699768    0.73000002    2.91000009
   17.60888863  114.53399658    0.75000000    2.93000007
   17.61222267  118.39499664    0.75000000    2.93000007
   17.61555672  122.07900238    0.75000000    2.93000007
   17.61861038  112.25599670    0.73000002    2.93000007
   17.62194443  124.77300262    0.75000000    2.93000007
   17.62444496  113.44899750    0.76999998    2.93000007
   17.62555504  122.54799652    0.76999998    2.93000007
   17.62861061  115.63099670    0.79000002    2.93000007
   17.63194466  115.24199677    0.80000001    2.91000009
   17.63500023  137.00599670    0.81999999    2.91000009
   17.63833237  140.80099487    0.81999999    2.93000007
   17.64444351  140.80099487    0.83999997    2.91000009
   17.64861107  115.17400360    0.86000001    2.91000009
   17.65194321  124.98400116    0.88000000    2.91000009
   17.65499878  115.30100250    0.88000000    2.93000007
   17.65861130  123.43699646    0.89999998    2.91000009
   17.66194344  131.77699280    0.89999998    2.91000009
   17.66527748  126.22399902    0.89999998    2.91000009
   17.66833305  128.57099915    0.89999998    2.91000009
   17.67166519  117.60299683    0.89999998    2.93000007
   17.67472076  120.61000061    0.89999998    2.91000009
   17.67805481  128.11099243    0.89999998    2.91000009
   17.68138885  121.02600098    0.89999998    2.91000009
   17.68750000  121.02600098    0.89999998    2.93000007
   17.69138718  131.69400024    0.89999998    2.93000007
   17.69472122  117.19999695    0.89999998    2.91000009
   17.69805527  126.52100372    0.89999998    2.93000007
   17.70111275  126.40799713    0.88000000    2.93000007
   17.70444489  121.50900269    0.88000000    2.91000009
   17.70750046  123.39900208    0.88000000    2.91000009
   17.71083450  127.35500336    0.88000000    2.91000009
   17.71416664  124.89399719    0.86000001    2.91000009
   17.71722221  125.72799683    0.86000001    2.91000009
   17.72055626  130.29499817    0.86000001    2.93000007
   17.72389030  126.49400330    0.86000001    2.93000007
   17.72444534  113.65499878    0.86000001    2.93000007
   17.73027802  113.65499878    0.88000000    2.91000009
   17.73444557  131.86900330    0.88000000    2.91000009
   17.73750114  126.24800110    0.89999998    2.91000009
   17.74083328  129.63600159    0.89999998    2.93000007
   17.74388885  130.80299377    0.92000002    2.91000009
   17.74722290  126.73899841    0.92000002    2.91000009
   17.75055504  124.96399689    0.92000002    2.93000007
   17.75361061  124.91699982    0.92000002    2.93000007
   17.75694466  129.49000549    0.92000002    2.91000009
   17.75777817  122.54599762    0.92000002    2.91000009
   17.76055527  124.32499695    0.94000000    2.91000009
   17.76361084  120.99299622    0.95999998    2.91000009
   17.76694489  125.18900299    0.95999998    2.91000009
   17.77305603  125.18900299    0.95999998    2.91000009
   17.77722168  225.30099487    0.95999998    2.91000009
   17.78027725  122.22899628    0.94000000    2.91000009
   17.78361130  126.89900208    0.94000000    2.93000007
   17.78694344  129.47399902    0.95999998    2.93000007
   17.78999901  132.70300293    0.95999998    2.93000007
   17.79111099  121.77100372    0.95999998    2.93000007
   17.79388809  123.47599792    0.94000000    2.91000009
   17.79694366  132.37800598    0.94000000    2.91000009
   17.80027771  125.54799652    0.92000002    2.91000009
   17.80360985  129.75799561    0.92000002    2.91000009
   17.80666542  132.40499878    0.92000002    2.91000009
   17.80999947  117.16500092    0.89999998    2.91000009
   17.81583214  117.16500092    0.89999998    2.91000009
   17.82000160  124.53900146    0.88000000    2.91000009
   17.82333374  128.13999939    0.88000000    2.93000007
   17.82444572  129.20500183    0.88000000    2.93000007
   17.82694626  126.03199768    0.88000000    2.91000009
   17.83000183  126.65200043    0.88000000    2.93000007
   17.83333397  127.26999664    0.86000001    2.91000009
   17.83666801  123.38600159    0.86000001    2.93000007
   17.83972359  132.31300354    0.86000001    2.93000007
   17.84305573  116.75900269    0.88000000    2.91000009
   17.84638977  122.38500214    0.86000001    2.91000009
   17.84944534  118.30100250    0.86000001    2.93000007
   17.85277748  119.33999634    0.86000001    2.93000007
   17.85861206  119.33999634    0.86000001    2.91000009
   17.86277771  128.33399963    0.86000001    2.93000007
   17.86611176  123.81999969    0.86000001    2.93000007
   17.86944389  120.96199799    0.83999997    2.93000007
   17.87249947  125.28199768    0.83999997    2.91000009
   17.87583351  124.55699921    0.83999997    2.93000007
   17.87888908  125.99199677    0.83999997    2.91000009
   17.88222313  125.09999847    0.83999997    2.93000007
   17.88555527  120.24500275    0.83999997    2.93000007
   17.88861084  120.59700012    0.83999997    2.91000009
   17.89111137  115.88899994    0.83999997    2.93000007
   17.89249992  118.63400269    0.86000001    2.93000007
   17.89555550  123.69400024    0.83999997    2.93000007
   17.90166664  123.69400024    0.86000001    2.91000009
   17.90583229  133.79600525    0.88000000    2.93000007
   17.90888786  128.44999695    0.88000000    2.93000007
   17.91222191  121.47899628    0.88000000    2.91000009
   17.91527748  124.51399994    0.88000000    2.93000007
   17.91860962  123.43399811    0.89999998    2.93000007
   17.92194366  120.14499664    0.88000000    2.91000009
   17.92444420  121.37500000    0.88000000    2.91000009
   17.92555428  121.33300018    0.88000000    2.93000007
   17.92888832  124.75599670    0.88000000    2.93000007
   17.93194389  120.19999695    0.88000000    2.91000009
   17.93527603  125.99299622    0.88000000    2.93000007
   17.93833160  121.20099640    0.88000000    2.91000009
   17.94444275  121.20099640    0.88000000    2.93000007
   17.94861031  124.44100189    0.86000001    2.91000009
   17.95166779  118.97000122    0.86000001    2.93000007
   17.95499992  118.60700226    0.86000001    2.91000009
   17.95777893  118.01599884    0.86000001    2.93000007
   17.95861244  123.37899780    0.86000001    2.93000007
   17.96166801  112.55999756    0.86000001    2.93000007
   17.96500015  123.38999939    0.86000001    2.91000009
   17.96833420  122.67199707    0.86000001    2.91000009
   17.97138977  128.61599731    0.83999997    2.91000009
   17.97500038  119.91400146    0.83999997    2.93000007
   17.97833443  125.09700012    0.83999997    2.91000009
   17.98139000  116.93099976    0.83999997    2.93000007
   17.98722267  116.93099976    0.86000001    2.93000007
   17.99138832  125.64199829    0.86000001    2.91000009
   17.99472237  126.10500336    0.88000000    2.93000007
   17.99777794  134.93099976    0.88000000    2.93000007
   18.00111198  120.44799805    0.88000000    2.91000009
   18.00444412  121.30000305    0.89999998    2.91000009
   18.00749969  118.31400299    0.92000002    2.91000009
   18.01083374  124.40799713    0.92000002    2.91000009
   18.01388931  123.97499847    0.89999998    2.91000009
   18.01722145  125.10700226    0.89999998    2.93000007
   18.02055550  125.80200195    0.88000000    2.91000009
   18.02361107  126.34899902    0.88000000    2.93000007
   18.02444458  142.35200500    0.88000000    2.91000009
   18.03000069  142.35200500    0.88000000    2.91000009
   18.03416634  119.05699921    0.86000001    2.93000007
   18.03750038  120.57099915    0.86000001    2.91000009
   18.04083252  115.48200226    0.86000001    2.91000009
   18.04388809  126.20300293    0.83999997    2.91000009
   18.04722214  120.04100037    0.83999997    2.93000007
   18.05027771  118.13600159    0.83999997    2.93000007
   18.05360985  112.78900146    0.83999997    2.91000009
   18.05694389  115.71600342    0.83999997    2.91000009
   18.05777740  121.39099884    0.86000001    2.93000007
   18.06055450  120.91600037    0.86000001    2.93000007
   18.06361008  118.64600372    0.86000001    2.93000007
   18.06694603  117.87599945    0.86000001    2.93000007
   18.07305717  117.87599945    0.86000001    2.93000007
   18.07722282  117.13400269    0.86000001    2.91000009
   18.08027840  124.11699677    0.86000001    2.93000007
   18.08361244  119.33599854    0.86000001    2.91000009
   18.08666801  123.27799988    0.83999997    2.93000007
   18.09000015  120.66600037    0.83999997    2.91000009
   18.09111214  120.17099762    0.83999997    2.91000009
   18.09361267  126.35600281    0.83999997    2.93000007
   18.09666824  122.45600128    0.83999997    2.93000007
   18.10000038  119.07900238    0.83999997    2.91000009
   18.10333443  122.47200012    0.81999999    2.93000007
   18.10639000  118.97200012    0.81999999    2.91000009
   18.10972214  118.13800049    0.80000001    2.91000009
   18.11583328  118.13800049    0.80000001    2.91000009
   18.12000084  112.87400055    0.81999999    2.91000009
   18.12305641  119.80599976    0.83999997    2.93000007
   18.12444496  124.40799713    0.83999997    2.93000007
   18.12694550  123.64700317    0.83999997    2.91000009
   18.13000107  124.31900024    0.86000001    2.91000009
   18.13333321  116.71700287    0.83999997    2.93000007
   18.13666725  120.05599976    0.83999997    2.93000007
   18.13972282  121.94499969    0.86000001    2.93000007
   18.14305496  122.90599823    0.83999997    2.93000007
   18.14638901  130.00300598    0.81999999    2.93000007
   18.14944458  119.78099823    0.80000001    2.93000007
   18.15277672  126.58899689    0.79000002    2.93000007
   18.15861130  126.58899689    0.76999998    2.94000006
   18.16277695  122.50099945    0.76999998    2.93000007
   18.16611099  132.42100525    0.75000000    2.91000009
   18.16916656  125.58899689    0.75000000    2.93000007
   18.17249870  123.02700043    0.75000000    2.93000007
   18.17583275  124.53299713    0.75000000    2.91000009
   18.17888832  121.20500183    0.75000000    2.93000007
   18.18222237  118.28800201    0.75000000    2.93000007
   18.18555450  120.64900208    0.75000000    2.93000007
   18.18861008  117.04100037    0.75000000    2.93000007
   18.19111061  129.62500000    0.75000000    2.93000007
   18.19222069  122.59100342    0.75000000    2.93000007
   18.19527626  132.79899597    0.73000002    2.93000007
   18.20138931  132.79899597    0.70999998    2.93000007
   18.20555687  126.96099854    0.70999998    2.93000007
   18.20888901  123.70099640    0.69000000    2.93000007
   18.21194458  129.94400024    0.69000000    2.94000006
   18.21527863  132.42199707    0.69000000    2.93000007
   18.21861076  127.26699829    0.69000000    2.93000007
   18.22166634  127.62799835    0.69000000    2.93000007
   18.22444534  128.02000427    0.70999998    2.91000009
   18.22555542  126.08300018    0.70999998    2.93000007
   18.22861099  128.49600220    0.70999998    2.93000007
   18.23194504  129.01199341    0.70999998    2.93000007
   18.23527718  125.84700012    0.70999998    2.93000007
   18.23833275  124.51599884    0.73000002    2.93000007
   18.24444389  124.51599884    0.73000002    2.93000007
   18.24861145  124.52200317    0.73000002    2.93000007
   18.25166702  117.61900330    0.73000002    2.93000007
   18.25499916  131.03599548    0.73000002    2.93000007
   18.25777817  127.79399872    0.73000002    2.93000007
   18.25861168  120.97799683    0.73000002    2.93000007
   18.26166725  131.46600342    0.73000002    2.91000009
   18.26499939  128.94200134    0.73000002    2.93000007
   18.26833344  116.26599884    0.73000002    2.93000007
   18.27138901  121.79900360    0.79000002    2.93000007
   18.27472115  116.15799713    0.73000002    2.93000007
   18.27805519  126.41100311    0.79000002    2.93000007
   18.28111076  130.74099731    0.79000002    2.93000007
   18.28722191  130.74099731    0.83999997    2.93000007
   18.29138756  119.44499969    0.70999998    2.93000007
   18.29444313  116.57599640    0.76999998    2.93000007
   18.29777718  126.41699982    0.89999998    2.93000007
   18.30111122  129.19200134    0.80000001    2.93000007
   18.30416679  130.00799561    0.88000000    2.93000007
   18.30749893  121.35500336    0.81999999    2.93000007
   18.31055450  128.66400146    0.81999999    2.93000007
   18.31388855  129.74899292    0.83999997    2.93000007
   18.31722260  122.04900360    0.70999998    2.94000006
   18.32027817  117.66300201    0.70999998    2.94000006
   18.32361221  126.17400360    0.69000000    2.93000007
   18.32444572  123.73999786    0.69000000    2.94000006
   18.33000183  123.73999786    0.69000000    2.93000007
   18.33416748  119.41200256    0.69000000    2.94000006
   18.33750153  120.74800110    0.69000000    2.93000007
   18.34138870  121.92700195    0.67000002    2.93000007
   18.35833359  120.77100372    0.67000002    2.94000006
   18.36111069  125.03199768    0.67000002    2.94000006
   18.36416626  131.52099609    0.64999998    2.93000007
   18.36750031  123.83899689    0.67000002    2.93000007
   18.37305641  123.83899689    0.67000002    2.93000007
   18.37694550  124.86199951    0.67000002    2.93000007
   18.38027763  126.54599762    0.67000002    2.93000007
   18.38361168  132.17500305    0.67000002    2.93000007
   18.38666725  121.06199646    0.69000000    2.93000007
   18.38999939  118.45300293    0.69000000    2.93000007
   18.39166641  119.42099762    0.69000000    2.93000007
   18.39361191  132.49299622    0.67000002    2.93000007
   18.39694405  114.17900085    0.67000002    2.93000007
   18.40027809  120.19999695    0.67000002    2.93000007
   18.40333366  118.78900146    0.64999998    2.93000007
   18.40666580  121.09300232    0.64999998    2.93000007
   18.40999985  109.45400238    0.67000002    2.93000007
   18.41583252  109.45400238    0.64999998    2.93000007
   18.42000008  118.25499725    0.67000002    2.93000007
   18.42305565  126.29299927    0.67000002    2.91000009
   18.42499924  127.56700134    0.67000002    2.94000006
   18.42666626  121.40100098    0.67000002    2.91000009
   18.43000031  115.90299988    0.67000002    2.93000007
   18.43333244  119.76599884    0.67000002    2.93000007
   18.43638802  123.33200073    0.64999998    2.91000009
   18.43972206  119.98699951    0.64999998    2.93000007
   18.44305420  127.65799713    0.67000002    2.93000007
   18.44610977  129.13499451    0.69000000    2.93000007
   18.44944382  125.35199738    0.69000000    2.93000007
   18.45277786  127.51599884    0.69000000    2.93000007
   18.45861244  127.51599884    0.69000000    2.93000007
   18.46277809  132.27799988    0.69000000    2.93000007
   18.46611214  116.86000061    0.69000000    2.93000007
   18.46916771  119.63899994    0.69000000    2.91000009
   18.47249985  111.36900330    0.69000000    2.91000009
   18.47555542  129.78900146    0.70999998    2.93000007
   18.47888947  120.92600250    0.73000002    2.91000009
   18.48222351  129.74299622    0.75000000    2.91000009
   18.48527718  124.06900024    0.76999998    2.91000009
   18.48861122  120.87899780    0.80000001    2.89000010
   18.49166679  116.62000275    0.83999997    2.91000009
   18.49222183  115.16200256    0.83999997    2.91000009
   18.49555588  113.81400299    0.83999997    2.91000009
   18.50138855  113.81400299    0.92000002    2.91000009
   18.50555611  125.64099884    0.89999998    2.91000009
   18.50888824  131.83599854    0.89999998    2.91000009
   18.51194382  127.92099762    0.89999998    2.91000009
   18.51527786  125.33499908    0.83999997    2.91000009
   18.51861000  124.42400360    0.83999997    2.91000009
   18.52166557  127.05999756    0.83999997    2.89000010
   18.52499962  134.77600098    0.83999997    2.91000009
   18.52555466  129.47399902    0.83999997    2.91000009
   18.52861023  126.13099670    0.83999997    2.91000009
   18.53194427  130.49200439    0.83999997    2.91000009
   18.53527641  129.04899597    0.83999997    2.91000009
   18.53833199  124.95300293    0.81999999    2.91000009
   18.54416656  124.95300293    0.80000001    2.91000009
   18.54833221  117.74900055    0.81999999    2.91000009
   18.55166626  123.38099670    0.81999999    2.91000009
   18.55499840  130.59199524    0.80000001    2.89000010
   18.55805397  117.71800232    0.80000001    2.89000010
   18.55861092  114.84400177    0.80000001    2.89000010
   18.56194305  129.13600159    0.79000002    2.89000010
   18.56499863  121.01899719    0.79000002    2.91000009
   18.56833458  125.11000061    0.79000002    2.91000009
   18.57166672  128.78700256    0.79000002    2.91000009
   18.57472229  120.63099670    0.79000002    2.91000009
   18.57805634  117.71600342    0.79000002    2.91000009
   18.58139038  123.54299927    0.79000002    2.91000009
   18.58722305  123.54299927    0.80000001    2.91000009
   18.59138870  114.95999908    0.80000001    2.91000009
   18.59194565  120.13200378    0.80000001    2.89000010
   18.59500122  121.56800079    0.81999999    2.89000010
   18.59805679  114.00599670    0.83999997    2.91000009
   18.60138893  125.26200104    0.83999997    2.89000010
   18.60472298  114.06600189    0.83999997    2.89000010
   18.60777855  119.77999878    0.83999997    2.86999989
   18.61111069  112.10800171    0.83999997    2.82999992
   18.61444473  114.48600006    0.83999997    2.82999992
   18.61750031  115.27200317    0.83999997    2.67000008
   18.62083435  122.89600372    0.86000001    2.44000006
   18.62416649  120.76699829    0.86000001    2.40000010
   18.62527847  122.84400177    0.86000001    2.28999996
   18.63000107  122.84400177    0.88000000    1.75000000
   18.63416672  110.83200073    0.88000000    1.36000001
   18.63722229  119.43399811    0.88000000    1.13000000
   18.64055634  118.45999908    0.88000000    0.81999999
   18.64388847  122.04299927    0.86000001    0.56999999
   18.64694405  109.40599823    0.86000001    0.38000000
   18.65027809  118.88600159    0.83999997    0.23000000
   18.65361023  118.43599701    0.86000001    0.20999999
   18.65666580  124.25499725    0.83999997    0.05000000
   18.65861130  130.43600464    0.83999997    0.01000000
   18.66027832  131.96299744    0.83999997    0.01000000
   18.66333389  110.66000366    0.83999997    0.01000000
   18.66666603  122.20899963    0.83999997    0.01000000
   18.67277718  122.20899963    0.83999997    0.01000000
   18.67694473  111.36900330    0.83999997    0.01000000
   18.68027687  114.19200134    0.83999997    0.01000000
   18.68333244  128.36700439    0.83999997    0.01000000
   18.68666649  114.79599762    0.83999997    0.01000000
   18.68999863  114.69100189    0.83999997    0.01000000
   18.69194412  116.76899719    0.83999997    0.01000000
   18.69361115  120.61100006    0.83999997    0.01000000
   18.69666672  113.13700104    0.83999997    0.01000000
   18.70000076  126.45200348    0.83999997    0.01000000
   18.70333481  120.49199677    0.83999997    0.01000000
   18.70639038  127.55200195    0.83999997    0.01000000
   18.70972252  127.03299713    0.83999997    0.01000000
   18.71555710  127.03299713    0.83999997    0.01000000
   18.71972275  122.22599792    0.83999997    0.01000000
   18.72305679  128.04600525    0.83999997    0.01000000
   18.72527885  132.31900024    0.83999997    0.01000000
   18.72666740  126.76899719    0.83999997    0.01000000
   18.73000145  132.59399414    0.83999997    0.01000000
   18.73305511  133.14900208    0.83999997    0.01000000
   18.73638916  124.16200256    0.83999997    0.01000000
   18.73944473  128.22200012    0.83999997    0.01000000
   18.74277878  132.48699951    0.83999997    0.01000000
   18.74611092  129.48800659    0.83999997    0.01000000
   18.74916649  144.45100403    0.83999997    0.01000000
   18.75250053  129.14999390    0.83999997    0.01000000
   18.75861168  129.14999390    0.83999997    0.01000000
   18.76277733  137.76499939    0.83999997    0.01000000
   18.76583290  131.46200562    0.83999997    0.01000000
   18.76916695  118.75000000    0.83999997    0.01000000
   18.77222252  143.22200012    0.83999997    0.01000000
   18.77555466  132.34700012    0.83999997    0.01000000
   18.77888870  129.60499573    0.83999997    0.01000000
   18.78194427  133.65100098    0.83999997    0.01000000
   18.78527641  117.15799713    0.83999997    0.01000000
   18.78861046  133.92700195    0.83999997    0.01000000
   18.79166603  123.23000336    0.83999997    0.01000000
   18.79361153  127.18399811    0.83999997    0.01000000
   18.79555511  140.50999451    0.83999997    0.01000000
   18.80138779  140.50999451    0.83999997    0.01000000
   18.80555534  120.23000336    0.83999997    0.01000000
   18.80861092  140.63499451    0.83999997    0.01000000
   18.81194305  131.33599854    0.83999997    0.01000000
   18.81527710  147.82899475    0.83999997    0.01000000
   18.81833458  137.97799683    0.83999997    0.01000000
   18.82166672  147.46099854    0.83999997    0.01000000
   18.82500076  133.04299927    0.83999997    0.01000000
   18.82694626  144.07699585    0.83999997    0.01000000
   18.82861137  131.47700500    0.83999997    0.01000000
   18.83166695  153.30999756    0.83999997    0.01000000
   18.83500099  131.68200684    0.83999997    0.01000000
   18.83805656  141.68099976    0.83999997    0.01000000
   18.84416771  141.68099976    0.83999997    0.01000000
   18.84833336  137.13499451    0.83999997    0.01000000
   18.85166740  137.23800659    0.83999997    0.01000000
   18.85472298  129.87300110    0.83999997    0.01000000
   18.85805511  147.69799805    0.83999997    0.01000000
   18.86055565  145.84500122    0.83999997    0.01000000
   18.86166763  155.49400330    0.83999997    0.01000000
   18.86499977  148.56500244    0.83999997    0.01000000
   18.86833382  148.24800110    0.83999997    0.01000000
   18.87138939  154.22200012    0.83999997    0.01000000
   18.87472153  149.32099915    0.83999997    0.01000000
   18.87805557  141.87199402    0.83999997    0.01000000
   18.88111115  152.38000488    0.83999997    0.01000000
   18.88694382  152.38000488    0.83999997    0.01000000
   18.89111137  118.12300110    0.83999997    0.01000000
   18.89388847  140.83700562    0.83999997    0.01000000
   18.89472198  136.74600220    0.83999997    0.01000000
   18.89805603  141.31900024    0.83999997    0.01000000
   18.90138817  121.25900269    0.83999997    0.01000000
   18.90444374  132.62800598    0.83999997    0.01000000
   18.90777779  131.48399353    0.83999997    0.01000000
   18.91083336  129.50799561    0.83999997    0.01000000
   18.91416550  129.67199707    0.83999997    0.01000000
   18.91749954  121.56800079    0.83999997    0.01000000
   18.92055511  130.44400024    0.83999997    0.01000000
   18.92388916  133.59300232    0.83999997    0.01000000
   18.93000031  133.59300232    0.83999997    0.01000000
   18.93416595  117.12000275    0.83999997    0.01000000
   18.93722153  122.77400208    0.83999997    0.01000000
   18.94055557  111.40000153    0.83999997    0.01000000
   18.94361115  130.57400513    0.83999997    0.01000000
   18.94694328  130.74299622    0.83999997    0.01000000
   18.95027924  116.02799988    0.83999997    0.01000000
   18.95333481  126.04000092    0.83999997    0.01000000
   18.95666695  120.16500092    0.83999997    0.01000000
   18.96000099  147.67500305    0.83999997    0.01000000
   18.96083450  130.90400696    0.83999997    0.01000000
   18.96361160  117.05300140    0.83999997    0.01000000
   18.96666718  132.48599243    0.83999997    0.01000000
   18.97277832  132.48599243    0.83999997    0.01000000
   18.97694588  106.04199982    0.83999997    0.01000000
   18.98000145  110.48400116    0.83999997    0.01000000
   18.98333359  120.49900055    0.83999997    0.01000000
   18.98666763  104.18000031    0.83999997    0.01000000
   18.98972321  113.21199799    0.83999997    0.01000000
   18.99305534  113.31800079    0.83999997    0.01000000
   18.99416733  116.53399658    0.83999997    0.01000000
   18.99666786  121.87400055    0.83999997    0.01000000
   18.99972153  115.90399933    0.83999997    0.01000000
   19.00305557  125.90200043    0.83999997    0.01000000
   19.00611115  110.38300323    0.83999997    0.01000000
   19.00944519  119.11299896    0.83999997    0.01000000
   19.01555634  119.11299896    0.83999997    0.01000000
   19.01972198  121.26799774    0.83999997    0.01000000
   19.02305603  116.67600250    0.83999997    0.01000000
   19.02611160  117.42700195    0.83999997    0.01000000
   19.02777672  114.50199890    0.83999997    0.01000000
   19.03000069  117.26000214    0.83999997    0.01000000
   19.03305435  114.57099915    0.83999997    0.01000000
   19.03638840  111.54599762    0.83999997    0.01000000
   19.03944397  116.22399902    0.83999997    0.01000000
   19.04277802  117.31999969    0.83999997    0.01000000
   19.04611015  121.53700256    0.83999997    0.01000000
   19.04916573  122.74299622    0.83999997    0.01000000
   19.05249977  118.79100037    0.83999997    0.01000000
   19.05833244  118.79100037    0.83999997    0.01000000
   19.06250000  109.43000031    0.83999997    0.01000000
   19.06583214  121.24600220    0.83999997    0.01000000
   19.06916809  128.73199463    0.83999997    0.01000000
   19.07222366  112.32800293    0.83999997    0.01000000
   19.07555580  118.51999664    0.83999997    0.01000000
   19.07861137  116.63700104    0.83999997    0.01000000
   19.08194542  118.14099884    0.83999997    0.01000000
   19.08527756  110.15200043    0.83999997    0.01000000
   19.08833313  110.56500244    0.83999997    0.01000000
   19.09166718  117.03500366    0.83999997    0.01000000
   19.09444427  127.27700043    0.83999997    0.01000000
   19.09527779  114.25499725    0.83999997    0.01000000
   19.10138893  114.25499725    0.83999997    0.01000000
   19.10555649  123.84200287    0.83999997    0.01000000
   19.10861206  126.64399719    0.83999997    0.01000000
   19.11194420  125.27100372    0.83999997    0.01000000
   19.11527824  124.88300323    0.83999997    0.01000000
   19.11833382  124.72799683    0.83999997    0.01000000
   19.12166595  144.33099365    0.83999997    0.01000000
   19.12472153  129.96499634    0.83999997    0.01000000
   19.12777710  138.30200195    0.83999997    0.01000000
   19.12833405  123.38400269    0.83999997    0.01000000
   19.13166618  140.52999878    0.83999997    0.01000000
   19.13500023  123.72000122    0.83999997    0.01000000
   19.13805580  126.94999695    0.83999997    0.01000000
   19.14416695  126.94999695    0.83999997    0.01000000
   19.14833260  143.95300293    0.83999997    0.01000000
   19.15138817  121.34400177    0.83999997    0.01000000
   19.15472221  117.26599884    0.83999997    0.01000000
   19.15805435  116.13400269    0.83999997    0.01000000
   19.16110992  125.35700226    0.83999997    0.01000000
   19.16138840  134.36799622    0.83999997    0.01000000
   19.16472244  142.64999390    0.83999997    0.01000000
   19.16805458  127.03399658    0.83999997    0.01000000
   19.17111015  140.84100342    0.88000000    2.84999990
   19.17444420  130.10099792    0.88000000    2.84999990
   19.17777634  126.78199768    0.88000000    2.84999990
   19.18083191  120.03600311    0.88000000    2.84999990
   19.18694305  120.03600311    0.88000000    2.84999990
   19.19111061  128.12500000    0.86000001    2.84999990
   19.19444275  125.99099731    0.86000001    2.84999990
   19.19472122  123.74600220    0.86000001    2.84999990
   19.19805527  126.40299988    0.86000001    2.84999990
   19.20138931  117.57800293    0.86000001    2.86999989
   19.20444489  133.17300415    0.86000001    2.84999990
   19.20777893  121.47299957    0.86000001    2.84999990
   19.21111107  117.80200195    0.83999997    2.86999989
   19.21416664  131.92799377    0.83999997    2.86999989
   19.21750069  120.46199799    0.83999997    2.86999989
   19.22055626  125.31199646    0.81999999    2.86999989
   19.22389030  119.30699921    0.81999999    2.86999989
   19.22972298  119.30699921    0.80000001    2.84999990
   19.23388863  122.97799683    0.80000001    2.86999989
   19.23722267  124.65499878    0.80000001    2.86999989
   19.24055672  120.65799713    0.80000001    2.86999989
   19.24361229  123.77799988    0.80000001    2.86999989
   19.24694443  135.21800232    0.80000001    2.86999989
   19.25000000  121.62200165    0.79000002    2.86999989
   19.25333405  113.06400299    0.79000002    2.86999989
   19.25666618  127.01799774    0.79000002    2.89000010
   19.25972176  127.23999786    0.79000002    2.86999989
   19.26111031  122.48699951    0.79000002    2.86999989
   19.26361084  129.48199463    0.79000002    2.86999989
   19.26666641  127.62200165    0.76999998    2.86999989
   19.27277756  127.62200165    0.76999998    2.86999989
   19.27694511  118.45600128    0.76999998    2.86999989
   19.28000069  120.74500275    0.76999998    2.89000010
   19.28333282  127.97499847    0.76999998    2.86999989
   19.28666687  134.19900513    0.76999998    2.86999989
   19.28972244  126.05599976    0.76999998    2.86999989
   19.29305458  128.58099365    0.76999998    2.89000010
   19.29444313  128.72099304    0.76999998    2.86999989
   19.29666710  118.29299927    0.76999998    2.86999989
   19.29972076  125.90399933    0.76999998    2.86999989
   19.30305481  127.87500000    0.76999998    2.86999989
   19.30611038  127.53299713    0.76999998    2.86999989
   19.30944443  124.84500122    0.76999998    2.86999989
   19.31555557  124.84500122    0.76999998    2.86999989
   19.31972313  128.74299622    0.76999998    2.86999989
   19.32277870  126.14099884    0.76999998    2.86999989
   19.32611275  127.06400299    0.76999998    2.86999989
   19.32805634  134.16700745    0.76999998    2.86999989
   19.32972336  123.66500092    0.75000000    2.86999989
   19.33305550  123.11100006    0.76999998    2.86999989
   19.33638954  130.85099792    0.75000000    2.86999989
   19.33944511  131.07800293    0.75000000    2.89000010
   19.34277916  133.38400269    0.75000000    2.86999989
   19.34583473  125.02400208    0.76999998    2.86999989
   19.34916687  123.84300232    0.76999998    2.86999989
   19.35250092  127.38200378    0.76999998    2.86999989
   19.35833359  127.38200378    0.81999999    2.86999989
   19.37666702  132.37699890    0.80000001    2.86999989
   19.38000107  132.38299561    0.80000001    2.86999989
   19.38333321  128.68200684    0.80000001    2.86999989
   19.38638878  129.32000732    0.81999999    2.86999989
   19.38972282  136.25599670    0.80000001    2.86999989
   19.39305496  128.66999817    0.81999999    2.86999989
   19.39611053  131.47999573    0.81999999    2.86999989
   19.40138817  131.47999573    0.92000002    2.86999989
   19.40555573  133.13299561    0.83999997    2.89000010
   19.40888786  119.12400055    0.88000000    2.84999990
   19.40972137  122.09500122    0.86000001    2.86999989
   19.41250038  136.66400146    0.86000001    2.86999989
   19.41583252  130.03500366    0.86000001    2.86999989
   19.41888809  123.34200287    0.81999999    2.86999989
   19.42222214  127.98100281    0.81999999    2.86999989
   19.42555428  124.59300232    0.81999999    2.84999990
   19.42860985  130.48300171    0.80000001    2.86999989
   19.43194389  130.11399841    0.80000001    2.86999989
   19.43499947  119.30799866    0.80000001    2.86999989
   19.43833160  114.26899719    0.81999999    2.84999990
   19.44444275  114.26899719    0.83999997    2.86999989
   19.44833183  117.59700012    0.83999997    2.84999990
   19.45166779  119.79599762    0.86000001    2.86999989
   19.45499992  120.94400024    0.86000001    2.84999990
   19.45805550  118.48400116    0.86000001    2.84999990
   19.46138954  113.25700378    0.86000001    2.84999990
   19.46472359  124.34600067    0.86000001    2.84999990
   19.46777916  119.29900360    0.86000001    2.84999990
   19.47111130  118.86499786    0.86000001    2.84999990
   19.47416687  127.52300262    0.86000001    2.84999990
   19.47638893  118.88200378    0.86000001    2.84999990
   19.47777748  129.55299377    0.86000001    2.84999990
   19.48111153  126.81900024    0.86000001    2.84999990
   19.48722267  126.81900024    0.86000001    2.84999990
   19.49138832  122.38600159    0.86000001    2.84999990
   19.49444389  119.77500153    0.86000001    2.84999990
   19.49777794  125.53399658    0.86000001    2.84999990
   19.50111198  123.86599731    0.86000001    2.84999990
   19.50416756  118.75099945    0.86000001    2.84999990
   19.50749969  125.99199677    0.86000001    2.84999990
   19.50972176  129.33799744    0.86000001    2.84999990
   19.51111031  125.24800110    0.86000001    2.84999990
   19.51444435  124.23600006    0.86000001    2.84999990
   19.51749992  122.43199921    0.86000001    2.84999990
   19.52083397  118.16799927    0.86000001    2.84999990
   19.52416611  117.20400238    0.86000001    2.84999990
   19.53000069  117.20400238    0.86000001    2.84999990
   19.53416634  136.11599731    0.86000001    2.84999990
   19.53750038  121.82599640    0.86000001    2.84999990
   19.54055595  130.67300415    0.86000001    2.84999990
   19.54305458  121.45700073    0.86000001    2.84999990
   19.54416656  130.89900208    0.86000001    2.84999990
   19.54749870  120.35700226    0.86000001    2.84999990
   19.55055428  124.99199677    0.86000001    2.84999990
   19.55388832  124.90000153    0.86000001    2.84999990
   19.55722237  125.37999725    0.86000001    2.86999989
   19.56027794  122.62500000    0.98000002    2.82999992
   19.56361008  126.63899994    0.95999998    2.82999992
   19.56694603  128.60000610    0.95999998    2.82999992
   19.57277870  128.60000610    0.95999998    2.82999992
   19.57694626  132.07099915    0.95999998    2.82999992
   19.58027840  127.00599670    0.95999998    2.82999992
   19.58333397  118.53600311    0.94000000    2.80999994
   19.58666801  118.34899902    0.94000000    2.82999992
   19.59000015  116.27799988    0.94000000    2.82999992
   19.59305573  122.58999634    0.94000000    2.82999992
   19.59638977  120.14800262    0.94000000    2.82999992
   19.59972191  124.98100281    0.94000000    2.80999994
   19.60277748  119.07499695    0.94000000    2.82999992
   19.60611153  126.60600281    0.94000000    2.82999992
   19.60916710  123.72799683    0.94000000    2.84999990
   19.60972214  123.04900360    0.94000000    2.82999992
   19.61583328  123.04900360    0.94000000    2.80999994
   19.61972237  122.18099976    0.94000000    2.82999992
   19.62305641  121.00499725    0.94000000    2.80999994
   19.62638855  120.74500275    0.94000000    2.76999998
   19.62972260  117.61399841    0.94000000    2.73000002
   19.63277817  128.16600037    0.94000000    2.66000009
   19.63611031  121.71299744    0.94000000    2.53999996
   19.63916588  123.57399750    0.94000000    2.40000010
   19.64249992  124.47599792    0.94000000    2.23000002
   19.64305496  127.06400299    0.94000000    2.15000010
   19.64611053  123.92500305    0.94000000    2.05999994
   19.64944458  118.09400177    0.94000000    1.83000004
   19.65250015  128.30900574    0.94000000    1.63000000
   19.65861130  128.30900574    0.95999998    1.19000006
   19.66277695  117.94899750    0.95999998    0.81999999
   19.66583252  119.04299927    0.95999998    0.61000001
   19.66916656  124.43499756    0.95999998    0.41999999
   19.67249870  117.67700195    0.95999998    0.25999999
   19.67555428  122.38800049    0.98000002    0.13000000
   19.67638779  117.52500153    0.98000002    0.09000000
   19.67916679  124.53600311    1.00000000    0.05000000
   19.68249893  122.24500275    0.98000002    0.03000000
   19.68555450  125.47499847    0.98000002    0.03000000
   19.68888855  117.73699951    0.98000002    0.03000000
   19.69222069  114.54599762    0.98000002    0.03000000
   19.69527626  110.02799988    0.98000002    0.03000000
   19.70138931  110.02799988    0.98000002    0.03000000
   19.70555687  121.93800354    0.98000002    0.03000000
   19.70888901  119.10800171    0.98000002    0.03000000
   19.70972252  122.60600281    0.98000002    0.03000000
   19.71222305  121.26300049    0.98000002    0.03000000
   19.71555710  120.59100342    0.98000002    0.03000000
   19.71861076  126.72799683    0.98000002    0.03000000
   19.72194481  131.41600037    0.98000002    0.03000000
   19.72527885  124.19100189    0.98000002    0.03000000
   19.72833443  125.61900330    0.98000002    0.03000000
   19.73166656  134.06700134    0.98000002    0.03000000
   19.73500061  132.29400635    0.98000002    0.03000000
   19.73805618  129.68099976    0.98000002    0.03000000
   19.74416733  129.68099976    0.98000002    0.03000000
   19.74833298  124.86499786    0.98000002    0.03000000
   19.75166702  120.91200256    0.98000002    0.03000000
   19.75499916  102.47399902    0.98000002    0.03000000
   19.75805473  116.34400177    0.98000002    0.03000000
   19.76138878  122.96600342    0.98000002    0.03000000
   19.76444435  117.39700317    0.98000002    0.03000000
   19.76777840  121.13600159    0.98000002    0.03000000
   19.77111053  121.65799713    0.98000002    0.03000000
   19.77416611  124.09100342    0.98000002    0.03000000
   19.77666664  120.77899933    0.98000002    0.03000000
   19.77777672  122.98300171    0.98000002    0.03000000
   19.78111076  124.28199768    0.98000002    0.03000000
   19.78722191  124.28199768    0.98000002    0.03000000
   19.79138756  122.83200073    0.98000002    0.03000000
   19.79444313  118.66300201    0.98000002    0.03000000
   19.79777718  129.01499939    0.98000002    0.03000000
   19.80083275  128.03399658    0.98000002    0.03000000
   19.80416679  124.92600250    0.98000002    0.03000000
   19.80749893  118.59100342    0.98000002    0.03000000
   19.80999947  121.08999634    0.98000002    0.03000000
   19.81110954  119.98999786    0.98000002    0.03000000
   19.81444359  120.94699860    0.98000002    0.03000000
   19.81750107  125.37599945    0.98000002    0.03000000
   19.82083511  123.86399841    0.98000002    0.03000000
   19.82416725  115.74099731    0.98000002    0.03000000
   19.83000183  115.74099731    0.98000002    0.03000000
   19.83416748  122.37400055    0.98000002    0.03000000
   19.83722305  120.18499756    0.98000002    0.03000000
   19.84055710  113.64800262    0.98000002    0.03000000
   19.84333420  113.13500214    0.98000002    0.03000000
   19.84416771  115.63899994    0.98000002    0.03000000
   19.84749985  116.10399628    0.98000002    0.03000000
   19.85055542  128.75199890    0.98000002    0.03000000
   19.85388947  122.90000153    0.98000002    0.03000000
   19.85722351  119.35700226    0.98000002    0.03000000
   19.86027908  121.82199860    0.98000002    0.03000000
   19.86361122  114.23300171    0.98000002    0.03000000
   19.86694527  128.39900208    0.98000002    0.03000000
   19.87277794  128.39900208    0.98000002    0.03000000
   19.87694550  114.45300293    0.98000002    0.03000000
   19.88027763  124.06099701    0.98000002    0.03000000
   19.88333321  123.57700348    0.98000002    0.03000000
   19.88666725  120.02100372    0.98000002    0.03000000
   19.88999939  113.25199890    0.98000002    0.03000000
   19.89305496  115.17299652    0.98000002    0.03000000
   19.89638901  117.18900299    0.98000002    0.03000000
   19.89972115  122.77100372    0.98000002    0.03000000
   19.90277672  120.68000031    0.98000002    0.03000000
   19.90611076  121.33699799    0.98000002    0.03000000
   19.90916634  122.12100220    0.98000002    0.03000000
   19.90999985  123.25900269    0.98000002    0.03000000
   19.91555595  123.25900269    0.98000002    0.03000000
   19.91972160  117.70500183    0.98000002    0.03000000
   19.92305565  117.32900238    0.98000002    0.03000000
   19.92611122  125.31099701    0.98000002    0.03000000
   19.92944336  123.95600128    0.98000002    0.03000000
   19.93277740  118.92800140    0.98000002    0.03000000
   19.93583298  117.34999847    0.98000002    0.03000000
   19.93916512  120.74400330    0.98000002    0.03000000
   19.94249916  123.99600220    0.98000002    0.03000000
   19.94333267  121.04299927    0.98000002    0.03000000
   19.94583321  123.38899994    0.98000002    0.03000000
   19.94916534  114.54799652    0.98000002    0.03000000
   19.95250130  116.61199951    0.98000002    0.03000000
   19.95861244  116.61199951    0.98000002    0.03000000
   19.96250153  130.90899658    0.98000002    0.03000000
   19.96583366  125.82299805    0.98000002    0.03000000
   19.96916771  115.57800293    0.98000002    0.03000000
   19.97222328  126.83000183    0.98000002    0.03000000
   19.97555542  124.56500244    0.98000002    0.03000000
   19.97666740  129.83299255    0.98000002    0.03000000
   19.97916794  126.65599823    0.98000002    0.03000000
   19.98250008  128.17199707    0.98000002    0.03000000
   19.98583412  119.85600281    0.98000002    0.03000000
   19.98888969  124.49600220    0.98000002    0.03000000
   19.99222183  129.41900635    0.98000002    0.03000000
   19.99527740  124.43499756    0.98000002    0.03000000
   20.00138855  124.43499756    0.98000002    0.03000000
   20.00555611  120.91999817    0.98000002    0.03000000
   20.00861168  124.32099915    0.98000002    0.03000000
   20.01000023  118.92700195    0.98000002    0.03000000
   20.01222229  127.83200073    0.98000002    0.03000000
   20.01555634  119.87500000    0.98000002    0.03000000
   20.01888847  131.65800476    0.98000002    0.03000000
   20.02194405  122.88700104    0.98000002    0.03000000
   20.02527809  124.98500061    0.98000002    0.03000000
   20.02833366  115.28500366    0.98000002    0.03000000
   20.03166580  115.94300079    0.98000002    0.03000000
   20.03499985  120.21700287    0.98000002    0.03000000
   20.03805542  127.95300293    0.98000002    0.03000000
   20.04416656  127.95300293    0.98000002    0.03000000
   20.04833221  112.78199768    0.98000002    0.03000000
   20.05166626  121.68000031    0.98000002    0.03000000
   20.05472183  120.92900085    0.98000002    0.03000000
   20.05805397  124.66100311    0.98000002    0.03000000
   20.06110954  116.36399841    0.98000002    0.03000000
   20.06444359  117.48600006    0.98000002    0.03000000
   20.06777954  119.90200043    0.98000002    0.03000000
   20.07083511  120.65699768    0.98000002    0.03000000
   20.07416725  120.76399994    0.98000002    0.03000000
   20.07666779  125.53099823    0.98000002    0.03000000
   20.07777786  116.08699799    0.98000002    0.03000000
   20.08111191  116.61599731    0.98000002    0.03000000
   20.08694458  116.61599731    0.98000002    0.03000000
   20.09111214  121.37899780    0.98000002    0.03000000
   20.09444427  119.28299713    0.98000002    0.03000000
   20.09749985  119.39199829    0.98000002    0.03000000
   20.10083389  125.45600128    0.98000002    0.03000000
   20.10416794  121.13700104    0.98000002    0.03000000
   20.10722351  124.20999908    0.98000002    0.03000000
   20.11000061  118.98400116    0.98000002    0.03000000
   20.11083412  114.72299957    0.98000002    0.03000000
   20.11416626  114.93599701    0.98000002    0.03000000
   20.11750031  126.69400024    0.98000002    0.03000000
   20.12055588  119.30000305    0.98000002    0.03000000
   20.12388992  119.64600372    0.98000002    0.03000000
   20.13000107  119.64600372    0.98000002    0.03000000
   20.13388824  114.37300110    0.98000002    0.03000000
   20.13722229  119.57900238    0.98000002    0.03000000
   20.14055634  112.52700043    0.98000002    0.03000000
   20.14333344  118.38600159    0.98000002    0.03000000
   20.14388847  122.36900330    0.98000002    0.03000000
   20.14722252  123.23000336    0.98000002    0.03000000
   20.15055466  124.30599976    0.98000002    0.03000000
   20.15361023  126.57800293    0.98000002    0.03000000
   20.15694427  136.62300110    0.98000002    0.03000000
   20.15999985  118.05400085    0.98000002    0.03000000
   20.16333389  119.62200165    0.98000002    0.03000000
   20.16666603  112.33300018    0.98000002    0.03000000
   20.17277718  112.33300018    0.98000002    0.03000000
   20.17694473  127.01799774    0.98000002    0.03000000
   20.18000031  121.82399750    0.98000002    0.03000000
   20.18333244  119.70400238    0.98000002    0.03000000
   20.18666649  119.45400238    0.98000002    0.03000000
   20.18972206  122.09100342    0.98000002    0.03000000
   20.19305420  123.74400330    0.98000002    0.03000000
   20.19610977  124.05999756    0.98000002    0.03000000
   20.19944382  122.21199799    0.98000002    0.03000000
   20.20277786  114.12799835    0.98000002    0.03000000
   20.20583344  123.11399841    0.98000002    0.03000000
   20.20916748  115.70400238    0.98000002    0.03000000
   20.21000099  124.22899628    0.98000002    0.03000000
   20.21555710  124.22899628    0.98000002    0.03000000
   20.21972275  125.04199982    0.98000002    0.03000000
   20.22305679  117.74600220    0.98000002    0.03000000
   20.22611237  133.22399902    0.98000002    0.03000000
   20.22944450  122.33799744    0.98000002    0.03000000
   20.23277855  136.15600586    0.98000002    0.03000000
   20.23583412  126.62100220    0.98000002    0.03000000
   20.23916626  121.01200104    0.98000002    0.03000000
   20.24250031  121.69499969    0.98000002    0.03000000
   20.24333382  117.45099640    0.98000002    0.03000000
   20.24583435  121.00299835    0.98000002    0.03000000
   20.24916649  117.65699768    0.98000002    0.03000000
   20.25250053  126.25800323    0.98000002    0.03000000
   20.25833321  126.25800323    0.98000002    0.03000000
   20.26250076  107.73100281    0.98000002    0.03000000
   20.26583290  120.37599945    0.98000002    0.03000000
   20.26888847  113.41300201    0.98000002    0.03000000
   20.27222252  121.98899841    0.98000002    0.03000000
   20.27555466  118.86299896    0.98000002    0.03000000
   20.27666664  114.07099915    0.98000002    0.03000000
   20.27888870  127.95800018    0.98000002    0.03000000
   20.28222275  122.34700012    0.98000002    0.03000000
   20.28555489  121.78600311    0.98000002    0.03000000
   20.28861046  114.91400146    0.98000002    0.03000000
   20.29194450  120.32499695    0.98000002    0.03000000
   20.29527664  125.91999817    0.98000002    0.03000000
   20.30138779  125.91999817    0.98000002    0.03000000
   20.30527687  118.02999878    0.98000002    0.03000000
   20.30861092  124.29000092    0.98000002    0.03000000
   20.30999947  134.89300537    0.98000002    0.03000000
   20.31222153  120.41699982    0.98000002    0.03000000
   20.31555557  113.60600281    0.98000002    0.03000000
   20.31888962  118.59799957    0.98000002    0.03000000
   20.32194519  120.34700012    0.98000002    0.03000000
   20.32527924  116.26200104    0.98000002    0.03000000
   20.32861137  119.38500214    0.98000002    0.03000000
   20.33166695  120.83200073    0.98000002    0.03000000
   20.33500099  126.35500336    0.98000002    0.03000000
   20.33805656  126.05100250    0.98000002    0.03000000
   20.34416771  126.05100250    0.98000002    0.03000000
   20.34833336  117.89600372    0.98000002    0.03000000
   20.35138893  119.79000092    0.98000002    0.03000000
   20.35472298  119.07700348    0.98000002    0.03000000
   20.35805511  129.29200745    0.98000002    0.03000000
   20.36111069  107.45099640    0.98000002    0.03000000
   20.36444473  122.35500336    0.98000002    0.03000000
   20.36750031  126.75900269    0.98000002    0.03000000
   20.37083435  116.96600342    0.98000002    0.03000000
   20.37416649  118.73899841    0.98000002    0.03000000
   20.37666702  128.65899658    0.98000002    0.03000000
   20.39722252  128.65899658    0.98000002    0.03000000
   20.40138817  118.20200348    0.98000002    0.03000000
   20.40472221  119.53199768    0.98000002    0.03000000
   20.40777779  122.20200348    0.98000002    0.03000000
   20.40999985  127.61499786    0.98000002    0.03000000
   20.41166687  122.48899841    0.98000002    0.03000000
   20.41472244  126.32599640    0.98000002    0.03000000
   20.41805458  113.84400177    0.98000002    0.03000000
   20.42138863  125.91000366    0.98000002    0.03000000
   20.42444420  125.47899628    0.98000002    0.03000000
   20.42777634  124.31500244    0.98000002    0.03000000
   20.43083191  123.45400238    0.98000002    0.03000000
   20.43416595  127.54100037    0.98000002    0.03000000
   20.43999863  127.54100037    0.98000002    0.03000000
   20.44416618  123.15899658    0.98000002    0.03000000
   20.44749832  112.53099823    0.98000002    0.03000000
   20.45055580  126.42099762    0.98000002    0.03000000
   20.45388985  120.96099854    0.98000002    0.03000000
   20.45694542  116.96800232    0.98000002    0.03000000
   20.46027946  124.52200317    0.98000002    0.03000000
   20.46361160  116.35900116    0.98000002    0.03000000
   20.46666718  119.93399811    0.98000002    0.03000000
   20.47000122  118.70400238    0.98000002    0.03000000
   20.47333336  128.32600403    0.98000002    0.03000000
   20.47638893  121.20999908    0.98000002    0.03000000
   20.47694588  125.59300232    0.98000002    0.03000000
   20.48277855  125.59300232    0.98000002    0.03000000
   20.48694420  127.05599976    0.98000002    0.03000000
   20.49027824  131.51600647    0.98000002    0.03000000
   20.49333382  126.36199951    0.98000002    0.03000000
   20.49666786  121.30400085    0.98000002    0.03000000
   20.50000000  130.80000305    0.98000002    0.03000000
   20.50305557  117.88600159    0.98000002    0.03000000
   20.50638962  135.48199463    0.98000002    0.03000000
   20.50944519  137.93899536    0.98000002    0.03000000
   20.51027870  129.05900574    0.98000002    0.03000000
   20.51333427  123.82099915    0.98000002    0.03000000
   20.51638794  136.57800293    0.98000002    0.03000000
   20.51972198  119.22499847    0.98000002    0.03000000
   20.52555466  119.22499847    0.98000002    0.03000000
   20.52972221  122.31199646    0.98000002    0.03000000
   20.53305435  124.55500031    0.98000002    0.03000000
   20.53610992  121.89600372    0.98000002    0.03000000
   20.53944397  119.95600128    0.98000002    0.03000000
   20.54277802  122.38700104    0.98000002    0.03000000
   20.54361153  122.75099945    0.98000002    0.03000000
   20.54638863  120.98600006    0.98000002    0.03000000
   20.54944420  119.52300262    0.98000002    0.03000000
   20.55277634  120.02999878    0.98000002    0.03000000
   20.55611038  119.93900299    0.98000002    0.03000000
   20.55916595  130.88999939    0.98000002    0.03000000
   20.56250000  120.40100098    0.98000002    0.03000000
   20.56861115  120.40100098    0.98000002    0.03000000
   20.57250023  122.99900055    0.98000002    0.03000000
   20.57583427  114.31600189    0.98000002    0.03000000
   20.57694626  117.19699860    0.98000002    0.03000000
   20.57944489  120.58699799    0.98000002    0.03000000
   20.58250046  123.34700012    0.98000002    0.03000000
   20.58583450  123.12500000    0.98000002    0.03000000
   20.58916664  126.25800323    0.98000002    0.03000000
   20.59222221  117.59799957    0.98000002    0.03000000
   20.59555626  135.49899292    0.98000002    0.03000000
   20.59889030  118.04299927    0.98000002    0.03000000
   20.60194397  115.44200134    0.98000002    0.03000000
   20.60527802  127.49500275    0.98000002    0.03000000
   20.61138916  127.49500275    0.98000002    0.03000000
   20.61555672  123.78900146    0.98000002    0.03000000
   20.61861038  124.49299622    0.98000002    0.03000000
   20.62194443  122.18399811    0.98000002    0.03000000
   20.62527847  126.29799652    0.98000002    0.03000000
   20.62833405  126.14700317    0.98000002    0.03000000
   20.63166618  123.92900085    0.98000002    0.03000000
   20.63500023  120.63400269    0.98000002    0.03000000
   20.63805580  117.89299774    0.98000002    0.03000000
   20.64138794  130.58700562    0.98000002    0.03000000
   20.64361191  125.53199768    0.98000002    0.03000000
   20.64500046  126.62899780    0.98000002    0.03000000
   20.64805603  126.22699738    0.98000002    0.03000000
   20.65416718  126.22699738    0.98000002    0.03000000
   20.65833282  127.64399719    0.98000002    0.03000000
   20.66166687  129.62300110    0.98000002    0.03000000
   20.66472244  125.79000092    0.98000002    0.03000000
   20.66805458  127.33300018    0.98000002    0.03000000
   20.67111015  127.95800018    0.98000002    0.03000000
   20.67444420  127.39099884    0.98000002    0.03000000
   20.67694473  126.91500092    0.98000002    0.03000000
   20.67805481  128.71000671    0.98000002    0.03000000
   20.68111038  138.96600342    0.98000002    0.03000000
   20.68444443  169.95700073    0.98000002    0.03000000
   20.68777657  188.64300537    0.98000002    0.03000000
   20.69083214  112.29599762    0.98000002    0.03000000
   20.69694328  112.29599762    0.98000002    0.03000000
   20.70111275   -1.00000000    0.98000002    0.03000000
   20.70444489   -1.00000000    0.98000002    0.03000000
   20.70777893   -1.00000000    0.98000002    0.03000000
   20.71111107   -1.00000000    0.98000002    0.03000000
   20.71444511   -1.00000000    0.98000002    0.03000000
   20.71777916   -1.00000000    0.98000002    0.03000000
   20.72083473   -1.00000000    0.98000002    0.03000000
   20.72416687   -1.00000000    0.98000002    0.03000000
   20.72722244   -1.00000000    0.98000002    0.03000000
   20.73055649   -1.00000000    0.98000002    0.03000000
