    HOUR (UT)   FLARE FACTOR    SKY TESTER    SUN TESTER
   11.75111103   -1.00000000   -1.00000000   -1.00000000
   11.77194405  219.27099609    1.16999996    1.76999998
   11.77611065  185.80200195    1.16999996    1.76999998
   11.78055573  209.14199829    1.19000006    1.76999998
   11.78472233   -1.00000000    1.21000004    1.78999996
   11.78805637  177.41499329    1.21000004    1.80999994
   11.79111195  201.20399475    1.21000004    1.83000004
   11.79444504  329.54998779    1.23000002    1.83000004
   11.79777813  304.33401489    1.23000002    1.80999994
   11.80083370  355.92001343    1.23000002    1.80999994
   11.80305576  347.29199219    1.23000002    1.83000004
   11.80416679  324.14199829    1.23000002    1.80999994
   11.80555534  332.39401245    1.23000002    1.80999994
   11.80694485  312.31900024    1.23000002    1.80999994
   11.80833340  324.64099121    1.23000002    1.83000004
   11.80972195  336.96499634    1.25000000    1.83000004
   11.81111145  352.60000610    1.23000002    1.83000004
   11.81250000  335.33300781    1.23000002    1.83000004
   11.81388950  325.37298584    1.25000000    1.85000002
   11.81527805  298.48400879    1.25000000    1.85000002
   11.81555557  185.80200195    1.16999996    1.76999998
   11.81555557  209.14199829    1.19000006    1.76999998
   11.81555557   -1.00000000    1.21000004    1.78999996
   11.81583309  177.41499329    1.21000004    1.80999994
   11.81583309  201.20399475    1.21000004    1.83000004
   11.81583309  329.54998779    1.23000002    1.83000004
   11.81611156  304.33401489    1.23000002    1.80999994
   11.81611156  355.92001343    1.23000002    1.80999994
   11.81666660  331.09201050    1.23000002    1.85000002
   11.81999969  318.80300903    1.25000000    1.85000002
   11.82305527  322.53601074    1.25000000    1.85000002
   11.82638836  308.09600830    1.25000000    1.86000001
   11.82972240  286.28900146    1.25000000    1.86000001
   11.83611107  286.28900146    1.25000000    1.86000001
   11.84027767  296.07000732    1.25000000    1.86000001
   11.84361076  270.79501343    1.25000000    1.88000000
   11.84666634  284.46701050    1.25000000    1.88000000
   11.84916592  302.06600952    1.25000000    1.88000000
   11.85055637  291.41598511    1.25000000    1.88000000
   11.85388947  299.32800293    1.25000000    1.86000001
   11.85694504  315.90701294    1.25000000    1.88000000
   11.86027813  291.18701172    1.25000000    1.88000000
   11.86333370  274.77301025    1.25000000    1.88000000
   11.86666679  296.23699951    1.25000000    1.89999998
   11.86999989  260.23599243    1.25000000    1.89999998
   11.87305546  267.14300537    1.25000000    1.89999998
   11.87916660  267.14300537    1.23000002    1.91999996
   11.88305569  282.85501099    1.23000002    1.91999996
   11.88638878  265.66400146    1.23000002    1.91999996
   11.88972187  257.53399658    1.23000002    1.91999996
   11.89277744  272.85800171    1.25000000    1.91999996
   11.89611053  263.99600220    1.23000002    1.91999996
   11.89944458  272.84298706    1.23000002    1.91999996
   11.90249920  280.08999634    1.23000002    1.91999996
   11.90583324  264.93099976    1.21000004    1.91999996
   11.90888882  303.55599976    1.21000004    1.94000006
   11.91222191  272.68600464    1.21000004    1.94000006
   11.91555500  271.31100464    1.21000004    1.94000006
   11.91611099  266.02801514    1.21000004    1.94000006
   11.92194462  266.02801514    1.19000006    1.96000004
   11.92611122  245.04600525    1.19000006    1.96000004
   11.92916679  247.45500183    1.16999996    1.96000004
   11.93249989  252.68099976    1.16999996    1.98000002
   11.93583298  264.22500610    1.16999996    1.98000002
   11.93888855  274.93099976    1.16999996    1.98000002
   11.94222260  249.47799683    1.16999996    1.98000002
   11.94527817  263.49600220    1.14999998    2.00000000
   11.94861126  260.11199951    1.14999998    2.00000000
   11.94944477  273.09698486    1.14999998    1.98000002
   11.95222187  272.17800903    1.14999998    1.98000002
   11.95555496  251.84300232    1.14999998    2.00000000
   11.95888901  239.50300598    1.13000000    2.00000000
   11.96472168  239.50300598    1.13000000    2.01999998
   11.96888828  220.34800720    1.13000000    2.00000000
   11.97194386  212.29200745    1.11000001    2.01999998
   11.97527695  222.19799805    1.11000001    2.01999998
   11.97861099  260.00900269    1.11000001    2.01999998
   11.98166656  260.79998779    1.11000001    2.01999998
   11.98277760  213.46000671    1.11000001    2.01999998
   11.98527813  223.22300720    1.11000001    2.01999998
   11.98861122  234.45799255    1.11000001    2.01999998
   11.99194431  205.22099304    1.11000001    2.01999998
   11.99499989  219.41700745    1.09000003    2.01999998
   11.99833393  233.62600708    1.09000003    2.01999998
   12.00166702  233.89799500    1.09000003    2.03999996
   12.00749969  233.89799500    1.09000003    2.03999996
   12.01166630  223.36599731    1.09000003    2.03999996
   12.01500034  202.90100098    1.09000003    2.03999996
   12.01611137  227.73800659    1.09000003    2.03999996
   12.01833344  238.01300049    1.07000005    2.05999994
   12.02166653  221.30999756    1.07000005    2.05999994
   12.02499962  219.96000671    1.07000005    2.05999994
   12.02805519  232.70899963    1.07000005    2.05999994
   12.03138828  222.27000427    1.05999994    2.05999994
   12.03444481  218.01300049    1.05999994    2.07999992
   12.03777790  224.47500610    1.05999994    2.07999992
   12.04111195  229.13999939    1.05999994    2.07999992
   12.04416752  212.80799866    1.05999994    2.07999992
   12.05055618  212.80799866    1.03999996    2.09999990
   12.05444431  192.15199280    1.03999996    2.07999992
   12.05777836  196.07600403    1.03999996    2.09999990
   12.06111145  185.48500061    1.03999996    2.09999990
   12.06416702  205.63900757    1.03999996    2.07999992
   12.06750011  196.74499512    1.03999996    2.09999990
   12.07083321  209.90800476    1.03999996    2.09999990
   12.07388878  206.27099609    1.03999996    2.09999990
   12.07750034  189.77600098    1.01999998    2.09999990
   12.08083344  199.86000061    1.01999998    2.09999990
   12.08277798  181.94200134    1.03999996    2.11999989
   12.08416653  198.07000732    1.03999996    2.11999989
   12.08749962  194.32600403    1.01999998    2.09999990
   12.09333324  194.32600403    1.01999998    2.09999990
   12.09749985  185.77900696    1.01999998    2.11999989
   12.10055637  180.28399658    1.01999998    2.11999989
   12.10388947  189.20300293    1.01999998    2.11999989
   12.10722256  194.20799255    1.01999998    2.11999989
   12.11027813  198.39300537    1.01999998    2.13000011
   12.11361122  182.61000061    1.00000000    2.13000011
   12.11611176  206.63400269    1.00000000    2.13000011
   12.11722279  198.22599792    1.00000000    2.13000011
   12.12055588  184.29200745    1.00000000    2.13000011
   12.12388897  187.01899719    1.00000000    2.13000011
   12.12694454  194.80200195    0.98000002    2.13000011
   12.13027763  200.07699585    0.98000002    2.13000011
   12.13611126  200.07699585    0.98000002    2.15000010
   12.14027786  197.13000488    0.98000002    2.15000010
   12.14333344  161.28599548    0.98000002    2.15000010
   12.14666653  181.92300415    0.98000002    2.15000010
   12.14944458  178.75599670    0.98000002    2.17000008
   12.15027714  169.72300720    0.98000002    2.17000008
   12.15361118  161.61000061    0.98000002    2.17000008
   12.15694427  170.23399353    0.98000002    2.17000008
   12.15999985  171.69900513    0.98000002    2.17000008
   12.16333294  158.71800232    0.98000002    2.17000008
   12.16666698  166.24800110    0.95999998    2.17000008
   12.16972256  157.59800720    0.95999998    2.17000008
   12.17305565  152.67799377    0.95999998    2.17000008
   12.17888927  152.67799377    0.98000002    2.17000008
   12.18305588  161.47200012    0.95999998    2.19000006
   12.18638897  194.52600098    0.95999998    2.19000006
   12.18944454  166.82000732    0.95999998    2.19000006
   12.19277763  168.80400085    0.95999998    2.19000006
   12.19611073  167.61399841    0.95999998    2.17000008
   12.19916630  158.32899475    0.95999998    2.19000006
   12.20249939  174.85699463    0.95999998    2.19000006
   12.20555496  164.71200562    0.95999998    2.19000006
   12.20888901  150.29800415    0.95999998    2.19000006
   12.21222210  171.27600098    0.94000000    2.21000004
   12.21527767  166.44099426    0.94000000    2.19000006
   12.21611118  148.54299927    0.95999998    2.21000004
   12.22166634  148.54299927    0.94000000    2.21000004
   12.24777794  170.69799805    0.94000000    2.23000002
   12.24944496  183.83999634    0.94000000    2.23000002
   12.25138855  171.97500610    0.94000000    2.23000002
   12.25472260  161.05799866    0.94000000    2.23000002
   12.25805569  155.64799500    0.94000000    2.23000002
   12.26472187  155.64799500    0.94000000    2.23000002
   12.26888847  171.56399536    0.94000000    2.23000002
   12.27194405  176.86900330    0.92000002    2.23000002
   12.27527714  170.43699646    0.92000002    2.23000002
   12.27833271  141.15400696    0.92000002    2.23000002
   12.28166676  161.92799377    0.92000002    2.25000000
   12.28277779  164.19500732    0.92000002    2.25000000
   12.28527832  164.97300720    0.92000002    2.23000002
   12.28861141  162.44799805    0.92000002    2.23000002
   12.29194450  164.57200623    0.92000002    2.25000000
   12.29500008  171.28100586    0.94000000    2.25000000
   12.29833412  151.70300293    0.92000002    2.25000000
   12.30166721  170.52999878    0.92000002    2.25000000
   12.30749989  170.52999878    0.92000002    2.25000000
   12.31166649  165.94099426    0.92000002    2.25000000
   12.31472206  173.68299866    0.92000002    2.25000000
   12.31611156  170.64999390    0.92000002    2.26999998
   12.31861115  169.49000549    0.92000002    2.26999998
   12.32166672  172.91499329    0.92000002    2.26999998
   12.32499981  168.34100342    0.92000002    2.26999998
   12.32805538  177.12300110    0.92000002    2.26999998
   12.33138847  175.49000549    0.92000002    2.28999996
   12.33472157  162.46000671    0.89999998    2.28999996
   12.33777714  170.75500488    0.89999998    2.26999998
   12.34111118  173.85499573    0.89999998    2.26999998
   12.34444427  171.64599609    0.89999998    2.26999998
   12.35027790  171.64599609    0.89999998    2.26999998
   12.35444450  173.03500366    0.89999998    2.28999996
   12.35777855  169.78700256    0.88000000    2.28999996
   12.36083412  152.90899658    0.88000000    2.28999996
   12.36416721  177.50000000    0.88000000    2.28999996
   12.36750031  168.92399597    0.88000000    2.28999996
   12.37055588  184.83900452    0.89999998    2.28999996
   12.37388897  166.14599609    0.88000000    2.28999996
   12.37694454  159.43299866    0.88000000    2.28999996
   12.38027763  155.86500549    0.88000000    2.30999994
   12.38277817  162.74099731    0.88000000    2.30999994
   12.38388920  151.62600708    0.88000000    2.28999996
   12.38722229  161.92799377    0.88000000    2.28999996
   12.39305496  161.92799377    0.88000000    2.30999994
   12.39722252  170.46400452    0.86000001    2.30999994
   12.40055561  171.68800354    0.86000001    2.30999994
   12.40388870  171.15800476    0.86000001    2.30999994
   12.40694427  170.91099548    0.86000001    2.32999992
   12.41027737  177.03799438    0.86000001    2.32999992
   12.41333294  159.57699585    0.86000001    2.30999994
   12.41611099  174.14700317    0.86000001    2.30999994
   12.41722298  176.32600403    0.86000001    2.30999994
   12.42027855  153.76199341    0.86000001    2.32999992
   12.42361164  171.00700378    0.86000001    2.32999992
   12.42666721  161.95199585    0.83999997    2.32999992
   12.43000031  169.72999573    0.86000001    2.34999990
   12.43611145  169.72999573    0.83999997    2.32999992
   12.44027805  150.92900085    0.83999997    2.32999992
   12.44333363  159.38499451    0.81999999    2.34999990
   12.44666672  158.61700439    0.83999997    2.32999992
   12.44944477  158.54400635    0.81999999    2.32999992
   12.45027733  160.01600647    0.81999999    2.32999992
   12.45333290  147.21299744    0.81999999    2.34999990
   12.45666695  164.63499451    0.83999997    2.32999992
   12.45972157  175.85099792    0.83999997    2.32999992
   12.46305561  160.85899353    0.81999999    2.34999990
   12.46638870  170.09500122    0.81999999    2.34999990
   12.46944427  160.97000122    0.80000001    2.34999990
   12.47277737  165.66900635    0.80000001    2.34999990
   12.47888851  165.66900635    0.80000001    2.34999990
   12.48305511  171.50700378    0.80000001    2.34999990
   12.48611164  165.66999817    0.80000001    2.34999990
   12.48944473  175.44200134    0.80000001    2.34999990
   12.49277782  166.40699768    0.80000001    2.36999989
   12.49583340  182.10499573    0.80000001    2.36999989
   12.49916649  172.71699524    0.80000001    2.34999990
   12.50249958  170.42300415    0.79000002    2.36999989
   12.50555515  163.40299988    0.79000002    2.36999989
   12.50888920  188.06100464    0.79000002    2.36999989
   12.51222229  144.15800476    0.79000002    2.36999989
   12.51527786  154.24499512    0.79000002    2.36999989
   12.51611137  169.88600159    0.79000002    2.36999989
   12.52166653  169.88600159    0.79000002    2.36999989
   12.52583313  166.78999329    0.79000002    2.36999989
   12.52916622  167.25599670    0.79000002    2.36999989
   12.53222179  170.29699707    0.79000002    2.36999989
   12.53555584  181.48199463    0.76999998    2.39000010
   12.53888893  160.96299744    0.76999998    2.39000010
   12.54194450  203.71099854    0.76999998    2.39000010
   12.54527855  177.12600708    0.76999998    2.39000010
   12.54833412  200.83099365    0.76999998    2.39000010
   12.54944515  186.39500427    0.76999998    2.39000010
   12.55222225  176.36099243    0.76999998    2.39000010
   12.55527782  168.21699524    0.76999998    2.39000010
   12.55861092  190.99499512    0.76999998    2.39000010
   12.56444454  190.99499512    0.75000000    2.39000010
   12.56861115  173.93400574    0.75000000    2.39000010
   12.57194424  176.33000183    0.75000000    2.39000010
   12.57527733  175.41900635    0.76999998    2.39000010
   12.57833290  161.82800293    0.76999998    2.40000010
   12.58166695  164.75199890    0.75000000    2.40000010
   12.58277798  169.90299988    0.75000000    2.40000010
   12.58527756  156.29800415    0.76999998    2.40000010
   12.58833313  164.65199280    0.75000000    2.40000010
   12.59166622  162.73100281    0.75000000    2.40000010
   12.59499931  182.56100464    0.75000000    2.40000010
   12.59805489  166.81300354    0.75000000    2.40000010
   12.60138893  170.67700195    0.75000000    2.40000010
   12.60750008  170.67700195    0.75000000    2.40000010
   12.61166668  170.27999878    0.75000000    2.40000010
   12.61472225  164.32699585    0.75000000    2.42000008
   12.61611176  176.14900208    0.75000000    2.42000008
   12.61861134  165.07699585    0.73000002    2.40000010
   12.62166691  169.40600586    0.73000002    2.40000010
   12.62500000  169.80700684    0.73000002    2.40000010
   12.62833309  181.91499329    0.73000002    2.40000010
   12.63138866  165.18499756    0.75000000    2.40000010
   12.63472176  160.08299255    0.75000000    2.40000010
   12.63777733  176.95100403    0.73000002    2.40000010
   12.64111137  169.87300110    0.73000002    2.42000008
   12.64444447  170.25000000    0.73000002    2.42000008
   12.65027714  170.25000000    0.73000002    2.42000008
   12.65444374  173.38999939    0.73000002    2.42000008
   12.65749931  176.47799683    0.73000002    2.42000008
   12.66083336  183.18800354    0.73000002    2.42000008
   12.66416645  177.98399353    0.73000002    2.42000008
   12.66722298  183.94000244    0.70999998    2.42000008
   12.67055607  172.90100098    0.70999998    2.42000008
   12.67388916  164.25799561    0.70999998    2.42000008
   12.67694473  174.20700073    0.70999998    2.42000008
   12.68027782  195.86399841    0.70999998    2.44000006
   12.68277836  176.17399597    0.70999998    2.44000006
   12.68388939  180.77799988    0.70999998    2.44000006
   12.68694496  183.45199585    0.70999998    2.42000008
   12.69305515  183.45199585    0.70999998    2.44000006
   12.69722271  171.41099548    0.70999998    2.44000006
   12.70055580  177.90100098    0.70999998    2.44000006
   12.70361137  199.92900085    0.70999998    2.42000008
   12.70694447  176.72500610    0.70999998    2.44000006
   12.71027756  174.91000366    0.70999998    2.44000006
   12.71333313  175.65899658    0.70999998    2.42000008
   12.71611118  174.92599487    0.70999998    2.42000008
   12.71722221  183.74600220    0.70999998    2.42000008
   12.72027779  178.11700439    0.70999998    2.44000006
   12.72361088  187.23300171    0.70999998    2.44000006
   12.72694397  184.48699951    0.70999998    2.44000006
   12.72999954  182.66600037    0.70999998    2.44000006
   12.73583317  182.66600037    0.69000000    2.46000004
   12.74000072  168.03700256    0.69000000    2.46000004
   12.74333382  199.89100647    0.69000000    2.46000004
   12.74666691  201.01100159    0.69000000    2.46000004
   12.74944496  190.68800354    0.69000000    2.46000004
   12.75027752  190.69400024    0.69000000    2.46000004
   12.75333309  184.53900146    0.69000000    2.44000006
   12.75666714  178.96299744    0.69000000    2.46000004
   12.76000023  191.82499695    0.69000000    2.46000004
   12.76305580  229.86000061    0.69000000    2.46000004
   12.76638889  198.07099915    0.69000000    2.46000004
   12.76944447  210.02099609    0.67000002    2.46000004
   12.79222298  210.02099609    0.69000000    2.48000002
   12.79638958  224.44099426    0.69000000    2.46000004
   12.79972267  222.80999756    0.69000000    2.46000004
   12.80305576  242.09300232    0.69000000    2.46000004
   12.80611134  232.49000549    0.67000002    2.48000002
   12.80944443  221.44099426    0.67000002    2.48000002
   12.81250000  233.59300232    0.67000002    2.46000004
   12.81583309  233.25599670    0.67000002    2.48000002
   12.81916618  238.10499573    0.67000002    2.48000002
   12.82222176  250.29600525    0.67000002    2.48000002
   12.82305527  223.05900574    0.67000002    2.48000002
   12.82583332  226.22799683    0.67000002    2.48000002
   12.82916641  228.69900513    0.67000002    2.48000002
   12.83500004  228.69900513    0.67000002    2.48000002
   12.83916664  235.55799866    0.67000002    2.48000002
   12.84249973  244.49200439    0.64999998    2.48000002
   12.84555531  209.33599854    0.67000002    2.48000002
   12.84888840  242.59899902    0.67000002    2.48000002
   12.85222244  244.59599304    0.67000002    2.48000002
   12.85527802  224.82400513    0.67000002    2.50000000
   12.85638905  226.24499512    0.67000002    2.48000002
   12.85888958  212.11199951    0.67000002    2.48000002
   12.86222267  224.61700439    0.64999998    2.48000002
   12.86527824  228.22999573    0.64999998    2.48000002
   12.86861134  223.41999817    0.64999998    2.48000002
   12.87166691  242.67700195    0.67000002    2.48000002
   12.87805557  242.67700195    0.64999998    2.48000002
   12.88222218  239.26100159    0.64999998    2.50000000
   12.88527775  230.45599365    0.64999998    2.50000000
   12.88861084  230.31300354    0.64999998    2.50000000
   12.89000034  226.10699463    0.64999998    2.50000000
   12.89222240  246.30099487    0.64999998    2.50000000
   12.89555550  239.24299622    0.64999998    2.50000000
   12.89888859  216.00599670    0.64999998    2.50000000
   12.90194416  251.80999756    0.64999998    2.48000002
   12.90527725  235.52900696    0.64999998    2.50000000
   12.90833282  221.90199280    0.64999998    2.50000000
   12.91166592  227.87300110    0.64999998    2.50000000
   12.91499996  231.30099487    0.64999998    2.50000000
   12.92083359  231.30099487    0.64999998    2.51999998
   12.92500019  236.74800110    0.64999998    2.50000000
   12.92805576  228.76600647    0.64999998    2.51999998
   12.93138885  222.21699524    0.64999998    2.51999998
   12.93472195  241.69900513    0.64999998    2.50000000
   12.93777752  224.40800476    0.64999998    2.50000000
   12.94111156  228.69000244    0.64999998    2.50000000
   12.94416714  222.46699524    0.64999998    2.51999998
   12.94750023  224.21499634    0.64999998    2.51999998
   12.95083332  227.81900024    0.64999998    2.51999998
   12.95388889  216.28500366    0.64999998    2.51999998
   12.95666695  214.43699646    0.64999998    2.51999998
   12.95777798  199.65600586    0.64999998    2.51999998
   12.96361065  199.65600586    0.64999998    2.51999998
   12.96777725  221.10200500    0.64999998    2.51999998
   12.97111034  217.51100159    0.67000002    2.51999998
   12.97416592  229.40600586    0.64999998    2.51999998
   12.97749996  218.29499817    0.64999998    2.51999998
   12.98055553  229.74499512    0.64999998    2.51999998
   12.98388958  219.67999268    0.64999998    2.51999998
   12.98722267  229.92599487    0.64999998    2.51999998
   12.99000072  215.93400574    0.67000002    2.51999998
   12.99083328  247.13699341    0.67000002    2.51999998
   12.99388885  221.70100403    0.64999998    2.53999996
   12.99722290  229.69099426    0.64999998    2.51999998
   13.00055599  223.19999695    0.64999998    2.51999998
   13.00638866  223.19999695    0.64999998    2.53999996
   13.01055527  215.17700195    0.64999998    2.53999996
   13.01388931  213.96600342    0.64999998    2.53999996
   13.01694393  205.47000122    0.64999998    2.53999996
   13.02027798  199.58399963    0.64999998    2.53999996
   13.02333355  211.38400269    0.64999998    2.53999996
   13.02416611  206.65800476    0.64999998    2.53999996
   13.02722168  210.29299927    0.64999998    2.53999996
   13.03055573  215.38200378    0.64999998    2.53999996
   13.03388977  209.09800720    0.64999998    2.53999996
   13.03694534  202.96200562    0.64999998    2.53999996
   13.04027843  212.07600403    0.64999998    2.53999996
   13.04361153  198.37500000    0.64999998    2.53999996
   13.04944515  198.37500000    0.64999998    2.53999996
   13.05361176  218.32800293    0.64999998    2.53999996
   13.05666733  208.36099243    0.64999998    2.53999996
   13.05722237  205.84599304    0.64999998    2.53999996
   13.06027794  206.20100403    0.64999998    2.53999996
   13.06361103  208.83099365    0.64999998    2.53999996
   13.06694412  214.47599792    0.64999998    2.53999996
   13.06999969  212.92799377    0.64999998    2.53999996
   13.07333374  215.28900146    0.64999998    2.53999996
   13.07666683  213.14799500    0.64999998    2.55999994
   13.07972240  205.40100098    0.64999998    2.53999996
   13.08305550  202.73100281    0.64999998    2.55999994
   13.08638859  204.38800049    0.64999998    2.55999994
   13.09222221  204.38800049    0.64999998    2.53999996
   13.09638882  214.63200378    0.64999998    2.55999994
   13.09944439  225.40499878    0.64999998    2.55999994
   13.10277843  208.58900452    0.64999998    2.55999994
   13.10611153  221.99299622    0.64999998    2.55999994
   13.10916710  213.26600647    0.64999998    2.55999994
   13.11250019  190.08299255    0.64999998    2.55999994
   13.11583328  198.25500488    0.64999998    2.55999994
   13.11888885  195.68099976    0.64999998    2.55999994
   13.12222195  215.49200439    0.64999998    2.55999994
   13.12333393  205.18899536    0.63000000    2.55999994
   13.12583351  210.19099426    0.63000000    2.55999994
   13.12916660  210.46600342    0.64999998    2.55999994
   13.13500023  210.46600342    0.64999998    2.55999994
   13.13916683  210.11700439    0.64999998    2.55999994
   13.14249992  198.79499817    0.63000000    2.55999994
   13.14555550  200.74400330    0.63000000    2.55999994
   13.14888859  188.43800354    0.63000000    2.57999992
   13.15194416  201.35699463    0.63000000    2.55999994
   13.15527725  212.01499939    0.63000000    2.55999994
   13.15666676  202.76400757    0.63000000    2.55999994
   13.15888882  211.17900085    0.63000000    2.55999994
   13.16222191  211.81500244    0.63000000    2.57999992
   13.16527748  217.17500305    0.63000000    2.57999992
   13.16861153  208.11599731    0.63000000    2.55999994
   13.17166710  210.78999329    0.63000000    2.55999994
   13.17777824  210.78999329    0.63000000    2.57999992
   13.18194485  210.19700623    0.63000000    2.55999994
   13.18527794  201.36500549    0.63000000    2.57999992
   13.18833351  202.50900269    0.61000001    2.57999992
   13.19027805  207.41200256    0.61000001    2.57999992
   13.19222260  211.22500610    0.61000001    2.57999992
   13.19527817  209.57800293    0.63000000    2.57999992
   13.19861126  215.68699646    0.63000000    2.57999992
   13.20194435  196.41999817    0.61000001    2.57999992
   13.20499992  206.84800720    0.63000000    2.57999992
   13.20833302  195.30000305    0.61000001    2.57999992
   13.21138859  194.11300659    0.61000001    2.57999992
   13.21472168  203.26400757    0.63000000    2.57999992
   13.22083282  203.26400757    0.61000001    2.57999992
   13.22472191  204.84800720    0.61000001    2.57999992
   13.22805500  209.97700500    0.63000000    2.57999992
   13.23138809  190.42500305    0.61000001    2.57999992
   13.23444462  210.48300171    0.61000001    2.57999992
   13.23777771  210.17599487    0.61000001    2.57999992
   13.24111176  199.40100098    0.63000000    2.59999990
   13.24416733  190.27799988    0.63000000    2.57999992
   13.24750042  204.57899475    0.61000001    2.57999992
   13.25055599  197.06799316    0.61000001    2.59999990
   13.25388908  217.33999634    0.61000001    2.59999990
   13.25694466  206.92399597    0.61000001    2.59999990
   13.25777817  211.00500488    0.61000001    2.59999990
   13.26361084  211.00500488    0.61000001    2.59999990
   13.26777744  194.57400513    0.61000001    2.59999990
   13.27111053  184.49499512    0.61000001    2.59999990
   13.27444458  197.94400024    0.61000001    2.59999990
   13.27750015  194.46800232    0.61000001    2.59999990
   13.28083324  205.87300110    0.61000001    2.59999990
   13.28388977  200.31300354    0.61000001    2.59999990
   13.28722286  201.84300232    0.61000001    2.59999990
   13.29027843  189.31100464    0.61000001    2.59999990
   13.29083347  200.63800049    0.61000001    2.59999990
   13.29388905  195.70700073    0.61000001    2.59999990
   13.29722309  193.59700012    0.58999997    2.59999990
   13.30055618  191.88200378    0.58999997    2.59999990
   13.30638885  191.88200378    0.61000001    2.59999990
   13.31055546  190.22300720    0.61000001    2.59999990
   13.31388950  197.58299255    0.61000001    2.59999990
   13.31694412  194.84399414    0.61000001    2.59999990
   13.32027817  201.10699463    0.58999997    2.59999990
   13.32333374  193.43699646    0.58999997    2.61999989
   13.32388878  205.86000061    0.58999997    2.61999989
   13.32722187  190.81799316    0.58999997    2.59999990
   13.33055592  199.27400208    0.58999997    2.59999990
   13.33361053  181.68400574    0.58999997    2.59999990
   13.33694458  200.99499512    0.61000001    2.61999989
   13.34027767  194.48399353    0.61000001    2.61999989
   13.34333324  182.16499329    0.58999997    2.61999989
   13.34916592  182.16499329    0.58999997    2.61999989
   13.35333347  200.33099365    0.61000001    2.61999989
   13.35666752  195.41200256    0.58999997    2.61999989
   13.35722256  204.75900269    0.58999997    2.61999989
   13.36027813  207.70700073    0.61000001    2.61999989
   13.36361122  187.05999756    0.58999997    2.61999989
   13.36666679  198.07800293    0.61000001    2.61999989
   13.36999989  194.78799438    0.58999997    2.61999989
   13.37333393  201.72700500    0.58999997    2.61999989
   13.37666702  203.81500244    0.58999997    2.61999989
   13.38000011  197.92900085    0.58999997    2.61999989
   13.38305569  198.48100281    0.58999997    2.61999989
   13.38638878  191.44299316    0.58999997    2.61999989
   13.39222240  191.44299316    0.58999997    2.61999989
   13.39611053  206.18099976    0.61000001    2.61999989
   13.51027775   -1.00000000   -1.00000000   -1.00000000
   13.60611153   -1.00000000   -1.00000000   -1.00000000
   13.71000004   -1.00000000   -1.00000000   -1.00000000
   13.73861122   93.87409973    0.55000001    2.67000008
   13.74194431  170.83299255    0.55000001    2.67000008
   13.74499989  168.70199585    0.55000001    2.67000008
   13.74833393  169.88099670    0.55000001    2.67000008
   13.75166702  199.80700684    0.55000001    2.67000008
   13.75472260  176.12899780    0.55000001    2.67000008
   13.75888920  176.12899780    0.55000001    2.69000006
   13.76305580  182.97399902    0.55000001    2.67000008
   13.76638889  163.68800354    0.55000001    2.67000008
   13.76944447  173.10099792    0.55000001    2.67000008
   13.77194405  188.67599487    0.55000001    2.67000008
   13.77333355  166.16900635    0.55000001    2.67000008
   13.77638817  173.81399536    0.55000001    2.69000006
   13.77972221  178.77999878    0.52999997    2.67000008
   13.78305531  167.58500671    0.52999997    2.67000008
   13.78611183  162.50000000    0.52999997    2.67000008
   13.78944492  176.12199402    0.52999997    2.67000008
   13.79250050  154.75700378    0.52999997    2.67000008
   13.79583359  163.67900085    0.52999997    2.67000008
   13.80166721  163.67900085    0.52999997    2.67000008
   13.80583382  171.71699524    0.52999997    2.69000006
   13.80916691  164.37300110    0.52999997    2.67000008
   13.81250000  157.22999573    0.52999997    2.69000006
   13.81555557  160.86799622    0.52999997    2.69000006
   13.81888866  165.09700012    0.52999997    2.67000008
   13.82222176  176.26899719    0.52999997    2.67000008
   13.82527733  173.61599731    0.52999997    2.69000006
   13.82861137  164.60899353    0.52999997    2.67000008
   13.83166695  171.62300110    0.52999997    2.67000008
   13.83500004  169.93499756    0.52999997    2.67000008
   13.83833313  161.16299438    0.52999997    2.69000006
   13.83888817  171.80499268    0.52999997    2.69000006
   13.84472179  171.80499268    0.52999997    2.69000006
   13.84888840  161.67399597    0.52999997    2.69000006
   13.85194492  162.76899719    0.52999997    2.69000006
   13.85527802  167.80099487    0.52999997    2.69000006
   13.85833359  168.19200134    0.52999997    2.69000006
   13.86166668  174.76300049    0.52999997    2.69000006
   13.86500072  170.35499573    0.52999997    2.69000006
   13.86805534  156.89700317    0.52999997    2.69000006
   13.87138939  154.78799438    0.52999997    2.69000006
   13.87222195  165.70399475    0.52999997    2.69000006
   13.87500000  174.28300476    0.52999997    2.69000006
   13.87833309  165.66099548    0.52999997    2.69000006
   13.88166714  162.36599731    0.55000001    2.69000006
   13.88749981  162.36599731    0.55000001    2.69000006
   13.89166641  171.72799683    0.52999997    2.69000006
   13.89472198  159.23300171    0.52999997    2.69000006
   13.89805508  161.26899719    0.52999997    2.71000004
   13.90138817  166.05200195    0.52999997    2.69000006
   13.90444374  155.36900330    0.52999997    2.69000006
   13.90555477  160.78100586    0.52999997    2.69000006
   13.90805531  151.07400513    0.52999997    2.69000006
   13.91138840  147.30700684    0.52999997    2.69000006
   13.91472149  153.84199524    0.51999998    2.69000006
   13.91777802  156.00000000    0.51999998    2.69000006
   13.92111111  157.15800476    0.51999998    2.69000006
   13.92444515  155.84199524    0.51999998    2.69000006
   13.93027782  155.84199524    0.52999997    2.71000004
   13.93444443  162.11399841    0.51999998    2.69000006
   13.93777752  159.33799744    0.51999998    2.71000004
   13.93888855  155.79800415    0.52999997    2.69000006
   13.94111156  153.67999268    0.51999998    2.71000004
   13.94444466  161.37199402    0.51999998    2.71000004
   13.94777775  161.65199280    0.51999998    2.69000006
   13.95083332  161.30200195    0.51999998    2.71000004
   13.95416641  160.00900269    0.51999998    2.69000006
   13.95722198  143.66700745    0.51999998    2.69000006
   13.96055508  160.93899536    0.51999998    2.69000006
   13.96388912  162.70199585    0.52999997    2.69000006
   13.96694374  160.22200012    0.52999997    2.71000004
   13.97305489  160.22200012    0.51999998    2.71000004
   13.97722149  155.94400024    0.51999998    2.71000004
   13.98055553  154.54200745    0.51999998    2.71000004
   13.98388958  154.27900696    0.52999997    2.69000006
   13.98694515  154.92199707    0.51999998    2.69000006
   13.99027824  155.17799377    0.51999998    2.69000006
   13.99333382  152.97399902    0.52999997    2.71000004
   13.99666691  160.55999756    0.51999998    2.71000004
   14.00000000  141.94999695    0.51999998    2.71000004
   14.00305557  164.15899658    0.51999998    2.71000004
   14.00555515  154.14700317    0.52999997    2.71000004
   14.00666714  152.87899780    0.52999997    2.71000004
   14.01000023  156.36399841    0.52999997    2.69000006
   14.01611137  156.36399841    0.51999998    2.71000004
   14.02027798  150.44700623    0.52999997    2.69000006
   14.02333355  153.57899475    0.51999998    2.71000004
   14.02666664  159.47799683    0.51999998    2.71000004
   14.02972221  158.72300720    0.51999998    2.71000004
   14.03305531  157.28399658    0.51999998    2.71000004
   14.03638935  149.25399780    0.51999998    2.71000004
   14.03888893  153.10699463    0.52999997    2.71000004
   14.03972244  145.58900452    0.51999998    2.71000004
   14.04305553  150.31700134    0.51999998    2.71000004
   14.04638958  147.89799500    0.52999997    2.71000004
   14.04944515  161.24499512    0.52999997    2.71000004
   14.05277824  142.23300171    0.52999997    2.71000004
   14.05888939  142.23300171    0.52999997    2.71000004
   14.06305599  150.47999573    0.51999998    2.71000004
   14.06611156  139.67100525    0.52999997    2.71000004
   14.06944466  158.97700500    0.52999997    2.71000004
   14.07222176  148.98599243    0.52999997    2.71000004
   14.07305527  158.72799683    0.51999998    2.71000004
   14.07638836  147.44000244    0.51999998    2.71000004
   14.07972240  158.82499695    0.51999998    2.71000004
   14.08277798  153.09700012    0.51999998    2.71000004
   14.08611107  152.51400757    0.51999998    2.71000004
   14.08944416  158.63499451    0.51999998    2.71000004
   14.09249973  149.06100464    0.51999998    2.71000004
   14.09583282  143.61300659    0.51999998    2.71000004
   14.10166740  143.61300659    0.51999998    2.71000004
   14.10583401  148.04699707    0.51999998    2.73000002
   14.10916710  147.54499817    0.51999998    2.71000004
   14.11222267  158.07499695    0.51999998    2.71000004
   14.11555576  151.47900391    0.51999998    2.71000004
   14.11861134  147.14599609    0.51999998    2.73000002
   14.12194443  147.69299316    0.51999998    2.71000004
   14.12527752  148.47000122    0.51999998    2.71000004
   14.12833309  133.50700378    0.50000000    2.73000002
   14.13166714  151.28199768    0.51999998    2.73000002
   14.13500023  153.36799622    0.51999998    2.71000004
   14.13805580  142.21899414    0.51999998    2.71000004
   14.13888836  156.43600464    0.50000000    2.71000004
   14.14444447  156.43600464    0.50000000    2.71000004
   14.14861107  156.35299683    0.50000000    2.71000004
   14.15194416  163.87800598    0.50000000    2.71000004
   14.15499973  145.73300171    0.50000000    2.73000002
   14.15833282  149.52600098    0.50000000    2.73000002
   14.16166592  149.43400574    0.50000000    2.73000002
   14.16472149  151.26800537    0.50000000    2.73000002
   14.16805553  158.31599426    0.50000000    2.73000002
   14.17138958  138.73599243    0.50000000    2.73000002
   14.17222214  146.60899353    0.50000000    2.73000002
   14.17472267  154.35200500    0.50000000    2.71000004
   14.17805576  145.55799866    0.50000000    2.73000002
   14.18138885  149.19299316    0.50000000    2.73000002
   14.18750000  149.19299316    0.50000000    2.73000002
   14.19138908  152.19799805    0.47999999    2.73000002
   14.19472218  151.37800598    0.47999999    2.73000002
   14.19805527  151.68600464    0.47999999    2.73000002
   14.20111084  145.34399414    0.47999999    2.73000002
   14.20444393  146.83099365    0.50000000    2.73000002
   14.20555496  165.77200317    0.50000000    2.73000002
   14.20805550  144.10200500    0.47999999    2.73000002
   14.21138859  157.90199280    0.50000000    2.73000002
   14.21472168  148.73300171    0.50000000    2.73000002
   14.21777725  151.99499512    0.50000000    2.73000002
   14.22111034  168.20700073    0.50000000    2.73000002
   14.22444439  149.32099915    0.47999999    2.73000002
   14.23027706  149.32099915    0.47999999    2.73000002
   14.23444462  155.71400452    0.47999999    2.73000002
   14.23750019  146.90199280    0.47999999    2.73000002
   14.23888874  153.16900635    0.50000000    2.73000002
   14.24166679  150.07899475    0.50000000    2.73000002
   14.24472237  160.06700134    0.47999999    2.73000002
   14.24805546  155.07299805    0.50000000    2.73000002
   14.25138855  167.12199402    0.50000000    2.73000002
   14.25444412  159.65199280    0.50000000    2.75000000
   14.25777817  146.64799500    0.50000000    2.73000002
   14.26111126  156.51899719    0.50000000    2.73000002
   14.26416683  172.29200745    0.50000000    2.73000002
   14.26749992  137.47999573    0.50000000    2.73000002
   14.27305508  137.47999573    0.50000000    2.73000002
   14.27722168  149.91700745    0.50000000    2.75000000
   14.28055573  150.10600281    0.50000000    2.73000002
   14.28361130  151.12500000    0.50000000    2.73000002
   14.28694534  151.34899902    0.50000000    2.73000002
   14.29027843  142.08700562    0.50000000    2.75000000
   14.29333401  154.14300537    0.50000000    2.73000002
   14.29666710  171.82000732    0.50000000    2.75000000
   14.29972267  149.70100403    0.50000000    2.75000000
   14.30305576  148.31500244    0.50000000    2.73000002
   14.30555534  153.56199646    0.50000000    2.73000002
   14.30694485  156.25900269    0.50000000    2.73000002
   14.31000042  156.05299377    0.50000000    2.73000002
   14.31583309  156.05299377    0.50000000    2.75000000
   14.31999969  179.88900757    0.47999999    2.75000000
   14.32333374  145.40400696    0.47999999    2.75000000
   14.32638836  146.67700195    0.47999999    2.75000000
   14.32972240  153.88400269    0.47999999    2.75000000
   14.33305550  150.10000610    0.47999999    2.75000000
   14.33611107  150.22900391    0.47999999    2.73000002
   14.33888817  150.56500244    0.46000001    2.73000002
   14.33972168  145.55599976    0.47999999    2.75000000
   14.34305477  158.51400757    0.47999999    2.75000000
   14.34638882  143.29400635    0.47999999    2.75000000
   14.34944439  145.01400757    0.46000001    2.73000002
   14.35277843  148.14300537    0.46000001    2.75000000
   14.35888958  148.14300537    0.47999999    2.75000000
   14.36277771  143.45300293    0.46000001    2.75000000
   14.36611176  144.57200623    0.46000001    2.75000000
   14.36944485  159.16000366    0.46000001    2.75000000
   14.37222195  151.11799622    0.46000001    2.75000000
   14.37305546  139.35499573    0.46000001    2.75000000
   14.37611103  166.35400391    0.46000001    2.75000000
   14.37944412  154.61999512    0.46000001    2.75000000
   14.38249969  162.45599365    0.46000001    2.73000002
   14.38583279  149.27099609    0.47999999    2.75000000
   14.38916683  143.79100037    0.46000001    2.73000002
   14.39222240  145.14900208    0.46000001    2.73000002
   14.39555550  146.46499634    0.46000001    2.73000002
   14.40166664  146.46499634    0.47999999    2.75000000
   14.40583324  151.71000671    0.47999999    2.75000000
   14.40888882  145.33299255    0.47999999    2.75000000
   14.41222191  150.38699341    0.47999999    2.75000000
   14.41555500  152.45199585    0.47999999    2.75000000
   14.41861153  155.99699402    0.47999999    2.75000000
   14.42194462  142.85499573    0.47999999    2.75000000
   14.42527771  140.09700012    0.47999999    2.73000002
   14.42833328  164.63000488    0.47999999    2.75000000
   14.43166733  137.58799744    0.47999999    2.75000000
   14.43472195  146.37199402    0.46000001    2.75000000
   14.43805599  145.40100098    0.46000001    2.75000000
   14.43888855  140.80999756    0.46000001    2.75000000
   14.44444466  140.80999756    0.47999999    2.75000000
   14.44861126  143.29100037    0.47999999    2.75000000
   14.45194435  157.11999512    0.47999999    2.75000000
   14.45499992  165.24499512    0.47999999    2.75000000
   14.45861053  159.60499573    0.47999999    2.75000000
   14.46194458  148.02400208    0.47999999    2.75000000
   14.46500015  147.46299744    0.47999999    2.75000000
   14.46833324  137.78599548    0.47999999    2.75000000
   14.47138882  138.13200378    0.47999999    2.75000000
   14.47222137  151.92799377    0.47999999    2.75000000
   14.47527695  143.00500488    0.47999999    2.75000000
   14.47833252  140.97500610    0.47999999    2.75000000
   14.48166656  146.65499878    0.50000000    2.75000000
   14.48722267  146.65499878    0.47999999    2.75000000
   14.49138927  138.14100647    0.47999999    2.75000000
   14.49472237  141.04100037    0.47999999    2.75000000
   14.49805546  156.03900146    0.47999999    2.75000000
   14.50111103  132.05700684    0.47999999    2.75000000
   14.50444412  134.16700745    0.47999999    2.75000000
   14.50555515  129.08000183    0.47999999    2.75000000
   14.50805569  148.75999451    0.47999999    2.75000000
   14.51111126  143.65199280    0.47999999    2.75000000
   14.51444435  145.61700439    0.47999999    2.75000000
   14.51749992  139.13999939    0.47999999    2.75000000
   14.52083302  156.58299255    0.46000001    2.75000000
   14.52416611  158.94299316    0.47999999    2.75000000
   14.53027725  158.94299316    0.47999999    2.75000000
   14.53416729  136.30599976    0.47999999    2.75000000
   14.53750038  145.09300232    0.47999999    2.75000000
   14.53888893  136.51699829    0.47999999    2.75000000
   14.54138947  143.14399719    0.47999999    2.76999998
   14.54444504  142.46899414    0.47999999    2.76999998
   14.54777813  136.31399536    0.47999999    2.76999998
   14.55111122  141.87500000    0.47999999    2.76999998
   14.55416679  131.30900574    0.47999999    2.76999998
   14.55749989  140.82000732    0.47999999    2.75000000
   14.56055546  134.37199402    0.47999999    2.75000000
   14.56388950  146.24000549    0.47999999    2.75000000
   14.56722260  141.92700195    0.47999999    2.75000000
   14.57305527  141.92700195    0.47999999    2.75000000
   14.57722187  134.92399597    0.47999999    2.75000000
   14.58027744  143.08599854    0.50000000    2.75000000
   14.58361053  140.63699341    0.47999999    2.75000000
   14.58666611  129.82899475    0.47999999    2.75000000
   14.59000015  142.96600342    0.50000000    2.75000000
   14.59333324  139.04100037    0.47999999    2.75000000
   14.59666634  139.79800415    0.47999999    2.75000000
   14.59972191  137.78199768    0.50000000    2.76999998
   14.60305595  129.00999451    0.50000000    2.76999998
   14.60555553  146.59700012    0.47999999    2.75000000
   14.60666752  137.62300110    0.47999999    2.75000000
   14.60972214  141.02699280    0.47999999    2.76999998
   14.61583328  141.02699280    0.47999999    2.75000000
   14.61999989  138.68699646    0.50000000    2.76999998
   14.62305546  153.19599915    0.50000000    2.75000000
   14.62638855  144.26699829    0.50000000    2.76999998
   14.62972260  139.87699890    0.50000000    2.76999998
   14.63277817  140.56599426    0.52999997    2.76999998
   14.63611126  145.00399780    0.52999997    2.76999998
   14.63888836  133.87399292    0.52999997    2.75000000
   14.63972187  147.35200500    0.52999997    2.75000000
   14.64277744  145.34399414    0.56999999    2.75000000
   14.64611053  148.55299377    0.98000002    2.75000000
   14.64916611  132.13900757    0.95999998    2.75000000
   14.65249920  134.68299866    0.98000002    2.75000000
   14.65861034  134.68299866    0.88000000    2.75000000
   14.66277695  152.76499939    0.86000001    2.76999998
   14.66611099  143.12800598    0.73000002    2.75000000
   14.66916656  131.24899292    0.73000002    2.75000000
   14.67222214  136.55499268    0.64999998    2.75000000
   14.67305565  142.00399780    0.64999998    2.76999998
   14.67611122  123.56600189    0.64999998    2.75000000
   14.67944431  127.40000153    0.67000002    2.76999998
   14.68249989  143.08299255    0.67000002    2.76999998
   14.68583298  134.21699524    0.67000002    2.75000000
   14.68916702  127.64399719    0.64999998    2.75000000
   14.69222260  149.02299500    0.58999997    2.76999998
   14.69555569  145.94400024    0.52999997    2.75000000
   14.70166683  145.94400024    0.51999998    2.76999998
   14.70555496  146.87199402    0.50000000    2.76999998
   14.70888901  134.47300720    0.50000000    2.76999998
   14.71222210  135.44700623    0.50000000    2.76999998
   14.71527767  132.92100525    0.50000000    2.76999998
   14.71861076  134.85299683    0.47999999    2.76999998
   14.72194386  129.05400085    0.47999999    2.76999998
   14.72499943  140.36599731    0.47999999    2.76999998
   14.72833252  145.44000244    0.50000000    2.76999998
   14.73138809  136.44200134    0.50000000    2.76999998
   14.73472214  145.41700745    0.47999999    2.76999998
   14.73805618  129.26899719    0.50000000    2.76999998
   14.73888874  127.06900024    0.50000000    2.76999998
   14.75972176  127.06900024    0.47999999    2.78999996
   14.76388931  138.52299500    0.47999999    2.76999998
   14.76694393  140.28900146    0.47999999    2.75000000
   14.77027798  144.12899780    0.47999999    2.76999998
   14.77222157  132.75000000    0.47999999    2.76999998
   14.77388859  128.57200623    0.47999999    2.76999998
   14.77694416  141.82499695    0.50000000    2.76999998
   14.78027725  129.57600403    0.50000000    2.76999998
   14.78361130  138.67700195    0.50000000    2.76999998
   14.78666687  140.86500549    0.50000000    2.76999998
   14.79000092  129.01100159    0.51999998    2.76999998
   14.79305553  137.11999512    0.51999998    2.76999998
   14.79638958  138.48100281    0.51999998    2.76999998
   14.80249977  138.48100281    0.52999997    2.76999998
   14.80638885  137.62399292    0.51999998    2.76999998
   14.80972195  139.17399597    0.51999998    2.76999998
   14.81305599  144.03900146    0.51999998    2.76999998
   14.81611156  137.10899353    0.51999998    2.78999996
   14.81944466  146.07400513    0.51999998    2.78999996
   14.82250023  137.86700439    0.50000000    2.76999998
   14.82583332  140.77000427    0.50000000    2.78999996
   14.82916641  145.09399414    0.50000000    2.78999996
   14.83222198  140.63099670    0.50000000    2.76999998
   14.83555508  139.55299377    0.50000000    2.76999998
   14.83888817  142.04699707    0.50000000    2.76999998
   14.83944416  142.58999634    0.50000000    2.78999996
   14.84527779  142.58999634    0.50000000    2.76999998
   14.84944439  137.51600647    0.47999999    2.78999996
   14.85249996  140.72399902    0.47999999    2.76999998
   14.85583401  132.17599487    0.47999999    2.76999998
   14.85888958  131.43800354    0.47999999    2.76999998
   14.86222267  143.53399658    0.47999999    2.76999998
   14.86555576  140.68299866    0.46000001    2.76999998
   14.86861134  147.59599304    0.46000001    2.76999998
   14.87194443  135.69599915    0.46000001    2.76999998
   14.87277794  139.85200500    0.46000001    2.76999998
   14.87555599  134.38400269    0.46000001    2.78999996
   14.87888908  138.15299988    0.46000001    2.76999998
   14.88194466  154.12399292    0.46000001    2.76999998
   14.88805580  154.12399292    0.46000001    2.76999998
   14.89222240  132.56599426    0.46000001    2.76999998
   14.89555550  134.34899902    0.46000001    2.78999996
   14.89861107  139.38800049    0.46000001    2.78999996
   14.90194416  143.76400757    0.46000001    2.78999996
   14.90499973  139.90100098    0.46000001    2.76999998
   14.90611076  132.05599976    0.46000001    2.76999998
   14.90861034  136.82299805    0.46000001    2.76999998
   14.91194439  138.89599609    0.46000001    2.78999996
   14.91499996  133.02900696    0.46000001    2.76999998
   14.91833401  127.89499664    0.46000001    2.78999996
   14.92166710  130.92799377    0.46000001    2.78999996
   14.92472267  143.55999756    0.46000001    2.78999996
   14.93083382  143.55999756    0.46000001    2.78999996
   14.93500042  140.49699402    0.47999999    2.76999998
   14.93833351  150.82200623    0.46000001    2.76999998
   14.93944454  148.40899658    0.47999999    2.76999998
   14.94194412  142.47999573    0.46000001    2.78999996
   14.94527817  139.28300476    0.47999999    2.78999996
   14.94833374  141.60899353    0.47999999    2.76999998
   14.95166683  137.13900757    0.47999999    2.78999996
   14.95499992  153.84599304    0.46000001    2.76999998
   14.95805550  145.59399414    0.46000001    2.78999996
   14.96138859  148.14599609    0.46000001    2.78999996
   14.96472168  143.49499512    0.46000001    2.78999996
   14.96777725  146.01699829    0.46000001    2.78999996
   14.97361088  146.01699829    0.50000000    2.78999996
   14.97777748  150.16000366    0.47999999    2.76999998
   14.98111057  158.86799622    0.46000001    2.78999996
   14.98444462  152.26199341    0.46000001    2.78999996
   14.98750019  156.97999573    0.46000001    2.78999996
   14.99083328  155.92700195    0.46000001    2.78999996
   14.99388885  164.34800720    0.46000001    2.78999996
   14.99722290  161.87899780    0.46000001    2.76999998
   15.00055599  172.53399658    0.46000001    2.76999998
   15.00361156  174.13299561    0.46000001    2.78999996
   15.00611115  162.95199585    0.46000001    2.78999996
   15.00722218  157.86099243    0.46000001    2.78999996
   15.01055527  142.17700195    0.46000001    2.78999996
   15.01666641  142.17700195    0.47999999    2.78999996
   15.02083302  157.15899658    0.46000001    2.78999996
   15.02388859  150.21800232    0.47999999    2.78999996
   15.02722168  157.02099609    0.46000001    2.78999996
   15.03027725  150.95100403    0.46000001    2.78999996
   15.03361130  160.90499878    0.46000001    2.78999996
   15.03694534  147.79299927    0.46000001    2.78999996
   15.03944492  138.73300171    0.46000001    2.78999996
   15.04055595  148.97399902    0.46000001    2.78999996
   15.04388905  140.56399536    0.46000001    2.78999996
   15.04694462  144.99699402    0.44000000    2.78999996
   15.05027771  128.16400146    0.44000000    2.78999996
   15.05361176  144.28399658    0.44000000    2.78999996
   15.05944443  144.28399658    0.44000000    2.78999996
   15.06361103  133.81300354    0.44000000    2.78999996
   15.06666660  134.16999817    0.46000001    2.78999996
   15.06999969  133.61999512    0.44000000    2.78999996
   15.07277775  141.57899475    0.46000001    2.78999996
   15.07361126  136.67500305    0.46000001    2.78999996
   15.07694435  136.91499329    0.46000001    2.78999996
   15.08027744  135.74499512    0.46000001    2.78999996
   15.08333302  127.80999756    0.50000000    2.78999996
   15.08666611  127.21800232    0.50000000    2.78999996
   15.08972168  130.22900391    0.51999998    2.78999996
   15.09305477  130.00199890    0.51999998    2.78999996
   15.09638882  141.41900635    0.47999999    2.78999996
   15.10222244  141.41900635    0.44000000    2.78999996
   15.10638905  132.07800293    0.46000001    2.78999996
   15.10972214  134.96600342    0.46000001    2.78999996
   15.11277771  131.56300354    0.47999999    2.78999996
   15.11611176  132.76400757    0.47999999    2.78999996
   15.11944485  125.96399689    0.51999998    2.78999996
   15.12250042  135.93800354    0.51999998    2.76999998
   15.12583351  131.26100159    0.51999998    2.78999996
   15.12916660  127.62899780    0.50000000    2.78999996
   15.13249969  129.00399780    0.47999999    2.78999996
   15.13555527  135.51699829    0.47999999    2.78999996
   15.13888836  129.60800171    0.46000001    2.78999996
   15.13944435  138.22900391    0.46000001    2.78999996
   15.14499950  138.22900391    0.46000001    2.78999996
   15.14916611  130.76400757    0.46000001    2.78999996
   15.15249920  125.37500000    0.46000001    2.78999996
   15.15583324  124.75800323    0.46000001    2.78999996
   15.15888882  137.80799866    0.47999999    2.78999996
   15.16222191  129.02900696    0.47999999    2.78999996
   15.16527748  125.93299866    0.44000000    2.80999994
   15.16861153  131.89300537    0.44000000    2.78999996
   15.17194462  123.78600311    0.44000000    2.78999996
   15.17277813  137.98199463    0.44000000    2.78999996
   15.17555618  134.66700745    0.44000000    2.78999996
   15.17861176  127.52400208    0.44000000    2.78999996
   15.18194485  132.76699829    0.44000000    2.76999998
   15.18805599  132.76699829    0.46000001    2.78999996
   15.19222260  122.39299774    0.44000000    2.78999996
   15.19527817  134.35600281    0.44000000    2.78999996
   15.19861126  128.13499451    0.44000000    2.80999994
   15.20166683  122.69300079    0.44000000    2.80999994
   15.20499992  123.38700104    0.44000000    2.80999994
   15.20611095  125.03900146    0.44000000    2.80999994
   15.20888901  131.73599243    0.41999999    2.78999996
   15.21194458  131.66600037    0.41999999    2.78999996
   15.21527767  125.12200165    0.41999999    2.80999994
   15.21833324  130.87699890    0.44000000    2.78999996
   15.22166634  129.45500183    0.44000000    2.78999996
   15.22499943  123.39199829    0.44000000    2.78999996
   15.23083305  123.39199829    0.44000000    2.80999994
   15.23500061  128.92199707    0.44000000    2.78999996
   15.23805618  134.16700745    0.46000001    2.78999996
   15.23944473  133.87100220    0.46000001    2.78999996
   15.24194431  135.55700684    0.46000001    2.78999996
   15.24499989  131.72799683    0.44000000    2.78999996
   15.24833393  132.52099609    0.44000000    2.78999996
   15.25138855  127.05000305    0.44000000    2.78999996
   15.25472260  122.20899963    0.41999999    2.80999994
   15.25805569  130.47099304    0.41999999    2.78999996
   15.26111126  126.33399963    0.41999999    2.78999996
   15.26444435  129.06500244    0.41999999    2.78999996
   15.26777744  128.36399841    0.41999999    2.78999996
   15.27361107  128.36399841    0.41999999    2.78999996
   15.27777767  125.49199677    0.41999999    2.78999996
   15.28111076  126.38899994    0.41999999    2.78999996
   15.28416729  119.86499786    0.41999999    2.80999994
   15.28750038  130.32299805    0.41999999    2.78999996
   15.29083347  122.76100159    0.41999999    2.78999996
   15.29388905  127.26200104    0.41999999    2.78999996
   15.29722309  130.97599792    0.41999999    2.78999996
   15.30027771  135.98199463    0.41999999    2.78999996
   15.30361176  133.73500061    0.41999999    2.78999996
   15.30611134  130.51499939    0.41999999    2.80999994
   15.30749989  131.54899597    0.41999999    2.80999994
   15.31055546  129.98100281    0.41999999    2.80999994
   15.31638908  129.98100281    0.41999999    2.78999996
   15.32055569  134.90499878    0.40000001    2.80999994
   15.32388878  128.25900269    0.40000001    2.80999994
   15.32694435  128.54299927    0.40000001    2.78999996
   15.33027744  126.65000153    0.40000001    2.80999994
   15.33361053  126.05899811    0.40000001    2.80999994
   15.33666611  127.16999817    0.40000001    2.78999996
   15.33944416  125.50800323    0.40000001    2.80999994
   15.34055519  127.50099945    0.40000001    2.80999994
   15.34361076  123.93699646    0.40000001    2.78999996
   15.34694386  134.64500427    0.41999999    2.78999996
   15.35027790  128.64300537    0.41999999    2.80999994
   15.35333347  128.90299988    0.40000001    2.78999996
   15.35944462  128.90299988    0.41999999    2.78999996
   15.36333370  124.99099731    0.40000001    2.78999996
   15.36666679  116.42600250    0.40000001    2.78999996
   15.36999989  133.17100525    0.40000001    2.78999996
   15.37277794  124.66000366    0.40000001    2.80999994
   15.37361145  128.01800537    0.40000001    2.78999996
   15.37666702  134.83099365    0.40000001    2.80999994
   15.38000011  132.47399902    0.41999999    2.80999994
   15.38305569  136.23800659    0.40000001    2.80999994
   15.38638878  134.83900452    0.40000001    2.78999996
   15.38972187  132.69999695    0.40000001    2.80999994
   15.39277744  119.40000153    0.40000001    2.80999994
   15.39611053  124.87500000    0.40000001    2.78999996
   15.40222168  124.87500000    0.40000001    2.80999994
   15.40638828  127.47599792    0.41999999    2.78999996
   15.40944386  132.29699707    0.41999999    2.78999996
   15.41277695  126.55899811    0.41999999    2.80999994
   15.41611099  128.70399475    0.41999999    2.80999994
   15.41916656  128.29899597    0.41999999    2.80999994
   15.42250061  127.68599701    0.41999999    2.80999994
   15.42583370  123.11000061    0.41999999    2.78999996
   15.42888927  126.91699982    0.40000001    2.80999994
   15.43222237  129.23599243    0.41999999    2.80999994
   15.43555546  129.90199280    0.40000001    2.80999994
   15.43861103  122.12699890    0.40000001    2.80999994
   15.43944454  127.27300262    0.40000001    2.80999994
   15.44499969  127.27300262    0.40000001    2.80999994
   15.44916630  141.19900513    0.40000001    2.80999994
   15.45249939  121.80000305    0.40000001    2.80999994
   15.45555496  129.50700378    0.40000001    2.78999996
   15.45888901  127.74199677    0.40000001    2.80999994
   15.46194458  131.39500427    0.40000001    2.82999992
   15.46527767  127.80300140    0.40000001    2.80999994
   15.46861076  134.16099548    0.40000001    2.78999996
   15.47166634  131.43600464    0.40000001    2.80999994
   15.47277737  132.41400146    0.40000001    2.80999994
   15.47555542  126.94999695    0.40000001    2.80999994
   15.47861099  130.10699463    0.40000001    2.80999994
   15.48194408  129.52699280    0.40000001    2.80999994
   15.48777771  129.52699280    0.40000001    2.80999994
   15.49194431  126.92500305    0.40000001    2.80999994
   15.49527836  127.13200378    0.40000001    2.80999994
   15.49833393  125.26899719    0.40000001    2.80999994
   15.50166702  129.41099548    0.40000001    2.80999994
   15.50500011  125.70999908    0.40000001    2.80999994
   15.50611115  127.83599854    0.41999999    2.80999994
   15.50861073  125.05100250    0.41999999    2.80999994
   15.51166630  130.69200134    0.40000001    2.80999994
   15.51500034  124.66300201    0.40000001    2.80999994
   15.51833344  128.19099426    0.40000001    2.80999994
   15.52138901  124.71499634    0.40000001    2.80999994
   15.52472210  126.01200104    0.40000001    2.80999994
   15.53083324  126.01200104    0.40000001    2.80999994
   15.53472233  126.23600006    0.40000001    2.80999994
   15.53805637  129.40600586    0.40000001    2.80999994
   15.53944492  128.21400452    0.40000001    2.80999994
   15.54166698  127.25499725    0.40000001    2.80999994
   15.54472256  136.26499939    0.40000001    2.82999992
   15.54805565  132.37899780    0.40000001    2.80999994
   15.55138874  132.88299561    0.40000001    2.80999994
   15.55444431  127.06900024    0.40000001    2.82999992
   15.55777836  136.08900452    0.40000001    2.82999992
   15.56083393  131.95300293    0.40000001    2.80999994
   15.56416702  122.08000183    0.40000001    2.82999992
   15.56750011  136.94799805    0.40000001    2.80999994
   15.57361126  136.94799805    0.40000001    2.80999994
   15.57777786  133.96499634    0.40000001    2.80999994
   15.58083344  134.95500183    0.40000001    2.80999994
   15.58416653  135.08299255    0.40000001    2.80999994
   15.58749962  141.25799561    0.40000001    2.82999992
   15.59055519  143.64700317    0.40000001    2.82999992
   15.59388828  142.96699524    0.40000001    2.80999994
   15.59722233  145.54299927    0.40000001    2.82999992
   15.60027790  147.02999878    0.40000001    2.80999994
   15.60361195  136.62500000    0.40000001    2.80999994
   15.60611153  133.73399353    0.40000001    2.80999994
   15.60722256  132.93899536    0.40000001    2.80999994
   15.61027813  137.18699646    0.40000001    2.80999994
   15.61638927  137.18699646    0.40000001    2.82999992
   15.62055588  144.38299561    0.40000001    2.80999994
   15.62388897  147.89399719    0.40000001    2.80999994
   15.62694454  125.88600159    0.40000001    2.80999994
   15.63027763  138.88299561    0.40000001    2.80999994
   15.63361073  151.04400635    0.38000000    2.82999992
   15.63666630  131.45399475    0.40000001    2.82999992
   15.63944435  130.85400391    0.38000000    2.80999994
   15.64055538  137.66200256    0.38000000    2.80999994
   15.64361095  135.29299927    0.40000001    2.82999992
   15.64694405  136.64799500    0.40000001    2.80999994
   15.65027714  139.55700684    0.38000000    2.80999994
   15.65333271  132.95100403    0.38000000    2.82999992
   15.65916634  132.95100403    0.38000000    2.82999992
   15.66333294  135.80799866    0.38000000    2.80999994
   15.66666698  133.31900024    0.38000000    2.80999994
   15.67000008  138.37399292    0.38000000    2.82999992
   15.67277813  146.66499329    0.38000000    2.80999994
   15.67361164  129.24200439    0.40000001    2.80999994
   15.67666721  142.27900696    0.40000001    2.80999994
   15.68000031  131.66099548    0.40000001    2.80999994
   15.68333340  140.54400635    0.38000000    2.80999994
   15.68638897  143.29699707    0.40000001    2.80999994
   15.68972206  149.39500427    0.40000001    2.80999994
   15.69305515  137.91799927    0.40000001    2.82999992
   15.69611073  148.60499573    0.40000001    2.82999992
   15.70222187  148.60499573    0.38000000    2.80999994
   15.70611095  129.87199402    0.40000001    2.80999994
   15.70944405  134.07099915    0.40000001    2.80999994
   15.71277714  145.99299622    0.40000001    2.80999994
   15.71583271  144.82699585    0.40000001    2.80999994
   15.71916580  139.88299561    0.40000001    2.80999994
   15.72249985  141.09300232    0.40000001    2.82999992
   15.72555542  146.32099915    0.40000001    2.80999994
   15.72888851  148.29699707    0.40000001    2.80999994
   15.73222160  143.88099670    0.38000000    2.80999994
   15.73527813  138.65199280    0.38000000    2.80999994
   15.73861122  145.99000549    0.38000000    2.82999992
   15.73944473  141.51600647    0.38000000    2.80999994
   15.74499989  141.51600647    0.38000000    2.80999994
   15.74916649  131.70500183    0.40000001    2.80999994
   15.75222206  139.44700623    0.40000001    2.80999994
   15.75555515  129.17100525    0.40000001    2.80999994
   15.77305508  142.09300232    0.40000001    2.82999992
   15.77555561  139.20100403    0.40000001    2.80999994
   15.77888870  137.93800354    0.40000001    2.80999994
   15.78194427  124.90799713    0.40000001    2.80999994
   15.78805637  124.90799713    0.38000000    2.82999992
   15.79222298  129.72900391    0.38000000    2.80999994
   15.79527855  129.84500122    0.38000000    2.80999994
   15.79861164  127.89800262    0.38000000    2.80999994
   15.80194473  133.27999878    0.38000000    2.82999992
   15.80500031  124.91400146    0.38000000    2.82999992
   15.80638885  128.13999939    0.38000000    2.80999994
   15.80888939  126.73799896    0.38000000    2.82999992
   15.81194496  129.64199829    0.38000000    2.82999992
   15.81527805  120.41799927    0.38000000    2.80999994
   15.81861115  126.98200226    0.38000000    2.80999994
   15.82166672  120.58999634    0.38000000    2.82999992
   15.82499981  122.81600189    0.38000000    2.82999992
   15.83083344  122.81600189    0.38000000    2.80999994
   15.83500004  120.21700287    0.38000000    2.80999994
   15.83833313  129.72399902    0.38000000    2.82999992
   15.83972168  140.22799683    0.38000000    2.82999992
   15.84194374  144.77999878    0.38000000    2.80999994
   15.84499931  135.11700439    0.38000000    2.80999994
   15.84833336  123.38700104    0.38000000    2.80999994
   15.85166740  141.42500305    0.38000000    2.80999994
   15.85472298  138.28599548    0.38000000    2.80999994
   15.85805607  137.71800232    0.38000000    2.80999994
   15.86138916  136.46099854    0.38000000    2.82999992
   15.86444473  136.01800537    0.38000000    2.82999992
   15.86777782  137.06500244    0.38000000    2.80999994
   15.87361145  137.06500244    0.38000000    2.82999992
   15.87777805  132.22200012    0.38000000    2.82999992
   15.88111115  122.74900055    0.38000000    2.80999994
   15.88416672  130.98599243    0.40000001    2.80999994
   15.88749981  129.34700012    0.40000001    2.80999994
   15.89083290  130.41200256    0.40000001    2.82999992
   15.89388847  131.66400146    0.40000001    2.82999992
   15.89722252  126.88400269    0.40000001    2.82999992
   15.90055561  135.83999634    0.40000001    2.82999992
   15.90361118  129.15100098    0.40000001    2.80999994
   15.90638828  127.16899872    0.40000001    2.80999994
   15.90749931  127.73799896    0.40000001    2.80999994
   15.91055489  129.29299927    0.40000001    2.82999992
   15.91666698  129.29299927    0.40000001    2.82999992
   15.92055607  129.08200073    0.40000001    2.80999994
   15.92388916  125.29799652    0.40000001    2.80999994
   15.92722225  132.94700623    0.40000001    2.80999994
   15.93027782  134.38699341    0.40000001    2.82999992
   15.93361092  128.22099304    0.40000001    2.80999994
   15.93694496  134.41200256    0.40000001    2.80999994
   15.93972206  138.34399414    0.40000001    2.82999992
   15.94055557  128.99400330    0.40000001    2.82999992
   15.94388866  128.13400269    0.40000001    2.82999992
   15.94694424  132.80499268    0.38000000    2.82999992
   15.95027733  127.19400024    0.38000000    2.82999992
   15.95333290  123.24900055    0.40000001    2.82999992
   15.95944405  123.24900055    0.38000000    2.82999992
   15.96361065  121.52300262    0.38000000    2.82999992
   15.96666622  150.38600159    0.38000000    2.82999992
   15.96999931  123.30799866    0.38000000    2.80999994
   15.97305489  129.25999451    0.38000000    2.82999992
   15.97361088  121.95600128    0.38000000    2.82999992
   15.97666645  117.32900238    0.38000000    2.82999992
   15.97999954  134.29400635    0.38000000    2.82999992
   15.98333359  127.30899811    0.38000000    2.80999994
   15.98638916  129.68299866    0.38000000    2.82999992
   15.98972225  123.52200317    0.38000000    2.80999994
   15.99305534  125.70800018    0.38000000    2.80999994
   15.99611092  131.78799438    0.38000000    2.80999994
   16.00222206  131.78799438    0.38000000    2.80999994
   16.00638962  125.73400116    0.38000000    2.82999992
   16.00694466  129.88400269    0.38000000    2.82999992
   16.01000023  125.09999847    0.38000000    2.82999992
   16.01333427  122.04799652    0.38000000    2.82999992
   16.01666641  133.24099731    0.40000001    2.82999992
   16.01972198  133.88600159    0.38000000    2.82999992
   16.02305603  133.64700317    0.40000001    2.80999994
   16.02638817  119.86799622    0.40000001    2.82999992
   16.02944374  126.66699982    0.40000001    2.80999994
   16.03277779  129.57699585    0.40000001    2.82999992
   16.03583336  126.24099731    0.40000001    2.80999994
   16.03916550  130.39999390    0.40000001    2.80999994
   16.03972244  124.75700378    0.40000001    2.80999994
   16.04500008  124.75700378    0.40000001    2.82999992
   16.04916573  127.57599640    0.40000001    2.82999992
   16.05249977  126.65499878    0.40000001    2.82999992
   16.05555534  129.29899597    0.40000001    2.82999992
   16.05888748  137.02400208    0.41999999    2.82999992
   16.06222153  131.01899719    0.40000001    2.82999992
   16.06527710  119.73600006    0.40000001    2.82999992
   16.06861115  123.20899963    0.40000001    2.82999992
   16.07166672  123.60700226    0.40000001    2.80999994
   16.07305717  122.44100189    0.41999999    2.82999992
   16.07555580  131.13099670    0.41999999    2.82999992
   16.07888985  128.98300171    0.41999999    2.80999994
   16.08194542  123.36799622    0.41999999    2.82999992
   16.08777809  123.36799622    0.40000001    2.82999992
   16.09194565  131.47999573    0.38000000    2.82999992
   16.09527779  131.16400146    0.38000000    2.82999992
   16.09861183  130.07299805    0.38000000    2.82999992
   16.10166740  133.14599609    0.38000000    2.80999994
   16.10499954  129.17799377    0.36000001    2.82999992
   16.10639000  128.43299866    0.38000000    2.80999994
   16.10861206  129.93499756    0.38000000    2.80999994
   16.11166763  130.22799683    0.38000000    2.82999992
   16.11499977  124.22699738    0.36000001    2.82999992
   16.11833382  132.06900024    0.36000001    2.82999992
   16.12138939  130.78999329    0.36000001    2.80999994
   16.12472153  130.65400696    0.38000000    2.80999994
   16.13083267  130.65400696    0.36000001    2.82999992
   16.13500023  123.55899811    0.38000000    2.82999992
   16.13805580  128.43400574    0.38000000    2.82999992
   16.13972282  129.77600098    0.38000000    2.82999992
   16.14166641  131.52099609    0.36000001    2.80999994
   16.14472198  127.30200195    0.38000000    2.80999994
   16.14805603  136.04699707    0.38000000    2.82999992
   16.15138817  139.39999390    0.38000000    2.82999992
   16.15444374  134.75599670    0.38000000    2.82999992
   16.15777779  117.37899780    0.38000000    2.82999992
   16.16110992  129.08399963    0.38000000    2.82999992
   16.16416550  140.90899658    0.40000001    2.82999992
   16.16749954  129.61799622    0.40000001    2.80999994
   16.17361069  129.61799622    0.38000000    2.82999992
   16.17777634  133.73199463    0.38000000    2.80999994
   16.18083191  133.56799316    0.40000001    2.80999994
   16.18416595  132.96400452    0.40000001    2.80999994
   16.18750000  130.95599365    0.40000001    2.82999992
   16.19055557  131.30499268    0.40000001    2.82999992
   16.19388771  126.87200165    0.40000001    2.82999992
   16.19722176  124.30300140    0.40000001    2.82999992
   16.20027924  116.10299683    0.40000001    2.82999992
   16.20361137  138.82699585    0.40000001    2.82999992
   16.20639038  140.22200012    0.40000001    2.82999992
   16.20722389  130.25399780    0.40000001    2.82999992
   16.21055603 1028.98999023    0.40000001    2.82999992
   16.21250153  119.36900330    0.40000001    2.82999992
   16.21250153  126.87200165    0.40000001    2.82999992
   16.21277809  124.30300140    0.40000001    2.82999992
   16.21277809  116.10299683    0.40000001    2.82999992
   16.21277809  138.82699585    0.40000001    2.82999992
   16.21305656  130.25399780    0.40000001    2.82999992
   16.21305656 1028.98999023    0.40000001    2.82999992
   16.21305656  132.96400452    0.40000001    2.80999994
   16.21333504  130.95599365    0.40000001    2.82999992
   16.21333504  131.30499268    0.40000001    2.82999992
   16.21777916  131.30499268    0.40000001    2.82999992
   16.22194481  122.93299866    0.40000001    2.82999992
   16.22527885  128.11300659    0.40000001    2.82999992
   16.22833443  135.44900513    0.40000001    2.82999992
   16.23166656  128.74299622    0.40000001    2.82999992
   16.23500061  123.62799835    0.40000001    2.82999992
   16.23805618  128.90699768    0.40000001    2.82999992
   16.24138832  128.25300598    0.40000001    2.82999992
   16.24444389  120.86900330    0.40000001    2.82999992
   16.24638939  125.81300354    0.41999999    2.82999992
   16.24833298  127.10800171    0.41999999    2.82999992
   16.25166702  116.98500061    0.41999999    2.80999994
   16.25472260  126.12999725    0.40000001    2.82999992
   16.26027870  126.12999725    0.41999999    2.82999992
   16.26444435  116.73699951    0.40000001    2.82999992
   16.26777840  134.79800415    0.41999999    2.82999992
   16.27111053  139.10800171    0.40000001    2.82999992
   16.27416611  126.02899933    0.40000001    2.82999992
   16.27750015  135.22599792    0.40000001    2.82999992
   16.27972221  130.61799622    0.40000001    2.82999992
   16.28111076  124.94699860    0.40000001    2.82999992
   16.28416634  130.53199768    0.40000001    2.80999994
   16.28750038  131.93099976    0.40000001    2.82999992
   16.29083252  121.76499939    0.40000001    2.82999992
   16.29388809  134.88600159    0.40000001    2.82999992
   16.29722214  128.66999817    0.40000001    2.82999992
   16.30333328  128.66999817    0.40000001    2.82999992
   16.30749893  132.15699768    0.40000001    2.80999994
   16.31055450  127.85900116    0.40000001    2.80999994
   16.31305504  131.71699524    0.40000001    2.80999994
   16.31444359  131.59500122    0.40000001    2.80999994
   16.31750107  129.50100708    0.40000001    2.80999994
   16.32083511  135.09800720    0.40000001    2.82999992
   16.32416725  131.23899841    0.40000001    2.82999992
   16.32722282  125.35600281    0.40000001    2.82999992
   16.33055687  132.91200256    0.40000001    2.82999992
   16.33361244  128.20500183    0.40000001    2.82999992
   16.33694458  124.72200012    0.40000001    2.82999992
   16.34027863  125.07099915    0.40000001    2.82999992
   16.34611130  125.07099915    0.40000001    2.84999990
   16.35027885  128.27000427    0.40000001    2.82999992
   16.35333443  115.02899933    0.41999999    2.82999992
   16.35666656  125.76899719    0.41999999    2.82999992
   16.36000061  144.11900330    0.41999999    2.82999992
   16.36305618  128.85499573    0.41999999    2.82999992
   16.36638832  128.84100342    0.44000000    2.82999992
   16.36972237  122.62699890    0.44000000    2.82999992
   16.37277794  124.08799744    0.44000000    2.84999990
   16.37611198  133.58799744    0.44000000    2.84999990
   16.37944412  133.50300598    0.44000000    2.82999992
   16.38111115  133.53199768    0.41999999    2.82999992
   16.38305473  132.33200073    0.41999999    2.82999992
   16.38888931  132.33200073    0.44000000    2.82999992
   16.39305496  126.46099854    0.41999999    2.82999992
   16.39638901  134.59899902    0.41999999    2.82999992
   16.39944458  132.17100525    0.41999999    2.82999992
   16.40277672  133.44500732    0.40000001    2.82999992
   16.40611076  124.32900238    0.40000001    2.82999992
   16.40916634  134.01499939    0.40000001    2.82999992
   16.41250038  127.37500000    0.40000001    2.82999992
   16.41444397  128.14300537    0.41999999    2.82999992
   16.41611099  134.77600098    0.41999999    2.82999992
   16.41916656  134.51199341    0.41999999    2.82999992
   16.42249870  132.12300110    0.41999999    2.82999992
   16.42583275  130.54299927    0.41999999    2.82999992
   16.43166542  130.54299927    0.40000001    2.82999992
   16.43583298  131.87300110    0.41999999    2.82999992
   16.43916512  123.58699799    0.41999999    2.82999992
   16.44249916  129.17599487    0.41999999    2.82999992
   16.44555473  131.94200134    0.41999999    2.82999992
   16.44805527  125.46299744    0.41999999    2.82999992
   16.44916534  119.52700043    0.41999999    2.82999992
   16.45250130  125.95999908    0.41999999    2.84999990
   16.45583344  125.89600372    0.41999999    2.82999992
   16.45888901  124.49500275    0.41999999    2.82999992
   16.46222305  136.32499695    0.41999999    2.82999992
   16.46555710  129.73800659    0.41999999    2.82999992
   16.46861076  128.67100525    0.41999999    2.82999992
   16.47472191  128.67100525    0.41999999    2.82999992
   16.47888947  125.72100067    0.44000000    2.82999992
   16.48139000  129.77299500    0.44000000    2.82999992
   16.48250008  126.61900330    0.44000000    2.82999992
   16.48555565  125.20600128    0.44000000    2.82999992
   16.48888969  129.80200195    0.44000000    2.82999992
   16.49194527  124.48200226    0.44000000    2.82999992
   16.49527740  120.72499847    0.44000000    2.82999992
   16.49861145  123.02400208    0.44000000    2.82999992
   16.50166702  126.33399963    0.46000001    2.82999992
   16.50499916  123.92600250    0.46000001    2.82999992
   16.50833321  126.74800110    0.46000001    2.82999992
   16.51138878  121.71700287    0.46000001    2.82999992
   16.51749992  121.71700287    0.44000000    2.82999992
   16.52166557  126.29699707    0.44000000    2.82999992
   16.52472115  130.81599426    0.44000000    2.82999992
   16.52805519  128.08399963    0.44000000    2.82999992
   16.53138924  141.69999695    0.44000000    2.82999992
   16.53444481  128.83099365    0.44000000    2.82999992
   16.53777695  125.80599976    0.44000000    2.82999992
   16.54083252  125.21800232    0.44000000    2.82999992
   16.54416656  137.97700500    0.44000000    2.82999992
   16.54749870  130.13099670    0.44000000    2.82999992
   16.54833221  125.55500031    0.44000000    2.82999992
   16.55111122  121.20500183    0.41999999    2.84999990
   16.55416679  123.52100372    0.41999999    2.84999990
   16.56027794  123.52100372    0.41999999    2.82999992
   16.56444359  126.85199738    0.41999999    2.82999992
   16.56777954  129.62600708    0.41999999    2.82999992
   16.57083511  121.95099640    0.41999999    2.82999992
   16.57416725  117.13500214    0.41999999    2.82999992
   16.57750130  112.95200348    0.40000001    2.82999992
   16.58055687  124.29399872    0.40000001    2.84999990
   16.58166695  119.55400085    0.40000001    2.82999992
   16.58444595  121.79199982    0.40000001    2.82999992
   16.58750153  120.19999695    0.40000001    2.84999990
   16.59083366  126.91699982    0.40000001    2.82999992
   16.59416771  126.41300201    0.40000001    2.82999992
   16.59722328  128.27099609    0.40000001    2.82999992
   16.60305595  128.27099609    0.40000001    2.82999992
   16.60722351  135.27400208    0.40000001    2.82999992
   16.61055565  131.54800415    0.40000001    2.82999992
   16.61361122  122.45899963    0.40000001    2.82999992
   16.61527824  129.49000549    0.40000001    2.82999992
   16.61722183  134.08599854    0.40000001    2.82999992
   16.62055588  129.23100281    0.40000001    2.82999992
   16.62388992  134.54100037    0.40000001    2.82999992
   16.62694550  128.69000244    0.40000001    2.82999992
   16.63027763  124.60600281    0.40000001    2.82999992
   16.63361168  119.35099792    0.40000001    2.82999992
   16.63666725  121.76499939    0.41999999    2.82999992
   16.63999939  129.16499329    0.41999999    2.82999992
   16.64611053  129.16499329    0.41999999    2.82999992
   16.64999962  125.91500092    0.44000000    2.82999992
   16.65333366  132.19099426    0.44000000    2.84999990
   16.65666580  135.61099243    0.44000000    2.82999992
   16.65972137  134.50599670    0.44000000    2.82999992
   16.66305542  135.00199890    0.46000001    2.82999992
   16.66638756  136.43299866    0.46000001    2.82999992
   16.66944313  136.03399658    0.44000000    2.82999992
   16.67277718  136.55000305    0.46000001    2.82999992
   16.67583275  137.42700195    0.44000000    2.82999992
   16.67916679  146.25900269    0.44000000    2.82999992
   16.68194389  150.50900269    0.44000000    2.82999992
   16.68305397  149.94200134    0.44000000    2.82999992
   16.68888855  149.94200134    0.44000000    2.82999992
   16.69305420  133.68499756    0.44000000    2.82999992
   16.69610977  132.54899597    0.44000000    2.82999992
   16.69944382  132.67399597    0.44000000    2.82999992
   16.70277786  137.81799316    0.44000000    2.82999992
   16.70583344  138.64100647    0.44000000    2.82999992
   16.70916748  141.42599487    0.44000000    2.82999992
   16.71250153  140.29899597    0.44000000    2.82999992
   16.71527863  138.00999451    0.44000000    2.82999992
   16.71611214  132.37600708    0.44000000    2.82999992
   16.71916771  133.81900024    0.44000000    2.82999992
   16.72249985  128.78999329    0.41999999    2.82999992
   16.72583389  129.37100220    0.41999999    2.82999992
   16.73166656  129.37100220    0.44000000    2.82999992
   16.73583412  144.62800598    0.44000000    2.82999992
   16.73916626  144.51699829    0.41999999    2.82999992
   16.74222183  143.08599854    0.44000000    2.82999992
   16.74555588  143.61099243    0.41999999    2.82999992
   16.74861145  129.16900635    0.41999999    2.82999992
   16.74916649  141.49000549    0.44000000    2.84999990
   16.75222206  133.42999268    0.41999999    2.82999992
   16.75555611  132.13900757    0.44000000    2.84999990
   16.75861168  138.88000488    0.44000000    2.84999990
   16.76194382  134.17599487    0.44000000    2.82999992
   16.76527786  137.37800598    0.44000000    2.82999992
   16.76833344  137.16600037    0.44000000    2.82999992
   16.79055595  124.30999756    0.47999999    2.82999992
   16.79111099  127.52500153    0.47999999    2.82999992
   16.79416656  124.22499847    0.47999999    2.84999990
   16.79749870  129.72000122    0.47999999    2.84999990
   16.80083275  126.95500183    0.46000001    2.82999992
   16.80388832  136.30799866    0.44000000    2.82999992
   16.80722237  131.99899292    0.44000000    2.82999992
   16.81055450  133.84700012    0.44000000    2.82999992
   16.81361008  137.22399902    0.44000000    2.82999992
   16.81777954  137.22399902    0.44000000    2.82999992
   16.82194519  166.34399414    0.44000000    2.82999992
   16.82389069  158.39999390    0.46000001    2.82999992
   16.82555580  159.29800415    0.46000001    2.82999992
   16.82888985  182.58599854    0.44000000    2.82999992
   16.83222389  207.98699951    0.44000000    2.82999992
   16.83527756  204.55900574    0.44000000    2.82999992
   16.83861160  193.21899414    0.44000000    2.80999994
   16.84194565  149.29400635    0.44000000    2.80999994
   16.84500122  172.46299744    0.46000001    2.82999992
   16.84833336  193.00300598    0.44000000    2.82999992
   16.85138893  135.69400024    0.44000000    2.82999992
   16.85472298  184.42399597    0.46000001    2.82999992
   16.85694504  183.55999756    0.46000001    2.82999992
   16.86111069  183.55999756    0.44000000    2.82999992
   16.86527824  142.57899475    0.44000000    2.82999992
   16.86861038  134.22099304    0.44000000    2.82999992
   16.87166595  141.60400391    0.41999999    2.82999992
   16.87500000  141.92300415    0.41999999    2.82999992
   16.87833405  135.13000488    0.40000001    2.82999992
   16.88138962  132.23699951    0.40000001    2.82999992
   16.88472176  131.46299744    0.41999999    2.82999992
   16.88777733  129.74800110    0.41999999    2.82999992
   16.89027786  131.74699402    0.41999999    2.82999992
   16.89166641  136.35200500    0.41999999    2.82999992
   16.89500046  136.93499756    0.44000000    2.82999992
   16.89805603  128.92900085    0.41999999    2.82999992
   16.90388870  128.92900085    0.41999999    2.82999992
   16.90805435  130.02799988    0.41999999    2.84999990
   16.91138840  128.39700317    0.41999999    2.82999992
   16.91472244  132.80599976    0.41999999    2.82999992
   16.91777802  132.08599854    0.41999999    2.82999992
   16.92111015  135.72500610    0.41999999    2.82999992
   16.92361069  143.18699646    0.41999999    2.84999990
   16.92472076  136.90499878    0.41999999    2.82999992
   16.92805481  140.64300537    0.41999999    2.82999992
   16.93111038  139.57499695    0.41999999    2.82999992
   16.93444443  138.48699951    0.41999999    2.82999992
   16.93750000  136.92999268    0.41999999    2.82999992
   16.94083214  132.63299561    0.41999999    2.82999992
   16.94694328  132.63299561    0.44000000    2.82999992
   16.95111275  127.18800354    0.41999999    2.82999992
   16.95416832  128.89599609    0.41999999    2.82999992
   16.95694542  123.28600311    0.41999999    2.82999992
   16.95777893  123.49099731    0.41999999    2.82999992
   16.96111107  126.60099792    0.41999999    2.82999992
   16.96416664  131.50399780    0.41999999    2.82999992
   16.96750069  126.80400085    0.41999999    2.82999992
   16.97055626  126.59100342    0.41999999    2.82999992
   16.97389030  126.40799713    0.41999999    2.82999992
   16.97722244  128.27000427    0.41999999    2.82999992
   16.98027802  125.83000183    0.41999999    2.80999994
   16.98361206  126.43299866    0.41999999    2.80999994
   16.98972321  126.43299866    0.41999999    2.82999992
   16.99388885  126.34999847    0.44000000    2.82999992
   16.99694443  127.60399628    0.44000000    2.82999992
   17.00027847  141.02200317    0.44000000    2.82999992
   17.00361061  134.88499451    0.44000000    2.82999992
   17.00666618  133.85600281    0.46000001    2.82999992
   17.01000023  128.68299866    0.44000000    2.82999992
   17.01333427  135.30799866    0.46000001    2.82999992
   17.01638794  129.22900391    0.46000001    2.82999992
   17.01972198  127.64099884    0.46000001    2.82999992
   17.02277756  139.71899414    0.44000000    2.82999992
   17.02472115  124.62100220    0.44000000    2.82999992
   17.02666664  131.72500610    0.44000000    2.82999992
   17.03249931  131.72500610    0.46000001    2.82999992
   17.03666687  126.73400116    0.46000001    2.84999990
   17.03999901  135.63499451    0.46000001    2.80999994
   17.04305458  118.67299652    0.46000001    2.82999992
   17.04638863  127.64700317    0.44000000    2.82999992
   17.04972076  127.16699982    0.44000000    2.82999992
   17.05277634  124.22599792    0.44000000    2.82999992
   17.05611038  131.21000671    0.44000000    2.82999992
   17.05805397  134.74600220    0.44000000    2.82999992
   17.05972099  126.99099731    0.44000000    2.82999992
   17.06277657  128.49600220    0.44000000    2.82999992
   17.06611061  125.80599976    0.46000001    2.82999992
   17.06944466  127.85500336    0.46000001    2.82999992
   17.07527924  127.85500336    0.46000001    2.82999992
   17.07944489  125.90200043    0.46000001    2.82999992
   17.08277893  133.49800110    0.46000001    2.82999992
   17.08611107  128.32699585    0.46000001    2.82999992
   17.08916664  121.41400146    0.46000001    2.82999992
   17.09166718  127.85700226    0.44000000    2.82999992
   17.09277916  123.54100037    0.44000000    2.82999992
   17.09611130  123.11900330    0.44000000    2.82999992
   17.09944534  127.99500275    0.44000000    2.82999992
   17.10250092  131.63299561    0.44000000    2.82999992
   17.10583305  120.65699768    0.44000000    2.82999992
   17.10916710  129.65299988    0.44000000    2.82999992
   17.11222267  126.21499634    0.44000000    2.82999992
   17.11833382  126.21499634    0.44000000    2.82999992
   17.12249947  128.51199341    0.44000000    2.82999992
   17.12500000  127.03099823    0.44000000    2.82999992
   17.12583351  123.19400024    0.44000000    2.82999992
   17.12916756  125.28700256    0.44000000    2.82999992
   17.13249969  126.36499786    0.44000000    2.82999992
   17.13555527  124.31600189    0.44000000    2.82999992
   17.13888931  127.88300323    0.44000000    2.82999992
   17.14222145  122.78399658    0.44000000    2.82999992
   17.14527702  128.15400696    0.44000000    2.82999992
   17.14861107  128.00399780    0.44000000    2.82999992
   17.15194321  126.88899994    0.44000000    2.82999992
   17.15499878  118.26999664    0.44000000    2.82999992
   17.16110992  118.26999664    0.44000000    2.82999992
   17.16527748  127.70999908    0.44000000    2.82999992
   17.16833305  127.26499939    0.44000000    2.82999992
   17.17166519  124.34300232    0.44000000    2.82999992
   17.17499924  129.20300293    0.44000000    2.82999992
   17.17805481  130.48599243    0.46000001    2.82999992
   17.18138885  133.50100708    0.44000000    2.82999992
   17.18444443  128.47900391    0.46000001    2.82999992
   17.18777657  129.09199524    0.44000000    2.80999994
   17.19111061  122.50099945    0.44000000    2.82999992
   17.19194412  125.50900269    0.44000000    2.82999992
   17.19472122  124.13800049    0.46000001    2.82999992
   17.19777679  118.57700348    0.44000000    2.82999992
   17.20388985  118.57700348    0.46000001    2.82999992
   17.20805550  127.24099731    0.46000001    2.82999992
   17.21138954  122.80400085    0.46000001    2.84999990
   17.21444511  128.02699280    0.46000001    2.82999992
   17.21777916  131.31500244    0.46000001    2.82999992
   17.22083473  126.28700256    0.46000001    2.82999992
   17.22416687  121.19200134    0.46000001    2.82999992
   17.22527885  121.40699768    0.46000001    2.82999992
   17.22777748  120.65699768    0.44000000    2.82999992
   17.23083305  128.17199707    0.44000000    2.82999992
   17.23416710  120.38600159    0.46000001    2.82999992
   17.23750114  125.77300262    0.44000000    2.80999994
   17.24055672  120.57800293    0.44000000    2.82999992
   17.24666786  120.57800293    0.44000000    2.82999992
   17.25083351  118.56999969    0.44000000    2.82999992
   17.25416756  132.49800110    0.44000000    2.82999992
   17.25722313  117.59400177    0.44000000    2.82999992
   17.25888824  122.44000244    0.44000000    2.82999992
   17.26083374  126.12699890    0.44000000    2.82999992
   17.26416588  129.37800598    0.44000000    2.82999992
   17.26749992  127.22000122    0.44000000    2.82999992
   17.27055550  126.20700073    0.44000000    2.82999992
   17.27388954  130.97300720    0.44000000    2.82999992
   17.27722168  125.01300049    0.44000000    2.82999992
   17.28027725  130.15100098    0.44000000    2.82999992
   17.28361130  126.37300110    0.44000000    2.82999992
   17.28972244  126.37300110    0.44000000    2.82999992
   17.29361153  127.58100128    0.41999999    2.82999992
   17.29694366  136.37800598    0.44000000    2.82999992
   17.30027771  120.82599640    0.41999999    2.82999992
   17.30333328  129.92900085    0.41999999    2.82999992
   17.30666542  123.83000183    0.41999999    2.82999992
   17.30972099  122.63700104    0.41999999    2.82999992
   17.31305504  118.29599762    0.41999999    2.82999992
   17.31638718  125.63099670    0.41999999    2.82999992
   17.31944466  127.48799896    0.41999999    2.82999992
   17.32277870  121.15799713    0.44000000    2.82999992
   17.32555580  129.52499390    0.44000000    2.82999992
   17.32666779  131.42599487    0.44000000    2.82999992
   17.33250046  131.42599487    0.41999999    2.82999992
   17.33666801  124.87899780    0.41999999    2.82999992
   17.33972359  126.58799744    0.41999999    2.82999992
   17.34305573  129.02000427    0.41999999    2.82999992
   17.34611130  131.88299561    0.41999999    2.80999994
   17.34944534  128.21299744    0.41999999    2.82999992
   17.35277748  120.13800049    0.41999999    2.80999994
   17.35583305  130.41200256    0.44000000    2.82999992
   17.35888863  133.70799255    0.41999999    2.82999992
   17.35972214  120.32599640    0.41999999    2.82999992
   17.36277771  127.02700043    0.41999999    2.82999992
   17.36611176  130.05599976    0.41999999    2.82999992
   17.36916733  130.89199829    0.41999999    2.82999992
   17.37527847  130.89199829    0.41999999    2.82999992
   17.37944412  115.69100189    0.41999999    2.82999992
   17.38277817  130.46800232    0.41999999    2.82999992
   17.38583374  129.15899658    0.41999999    2.82999992
   17.38916588  134.84500122    0.41999999    2.82999992
   17.39222145  125.79000092    0.41999999    2.82999992
   17.39277840  127.36100006    0.41999999    2.82999992
   17.39583397  126.52899933    0.41999999    2.82999992
   17.39916611  136.91700745    0.41999999    2.82999992
   17.40222168  128.02799988    0.44000000    2.82999992
   17.40555573  130.32499695    0.44000000    2.80999994
   17.40888786  130.09500122    0.44000000    2.82999992
   17.41194344  133.00599670    0.44000000    2.82999992
   17.41805458  133.00599670    0.44000000    2.82999992
   17.42222214  129.17599487    0.44000000    2.82999992
   17.42555428  127.84899902    0.41999999    2.82999992
   17.42611122  123.44899750    0.41999999    2.82999992
   17.42916679  121.21399689    0.44000000    2.82999992
   17.43249893  117.93399811    0.44000000    2.82999992
   17.43555450  128.80900574    0.44000000    2.82999992
   17.43888855  133.07600403    0.44000000    2.82999992
   17.44222069  123.30100250    0.44000000    2.80999994
   17.44527626  125.98999786    0.44000000    2.80999994
   17.44861031  122.68199921    0.44000000    2.82999992
   17.45194435  120.56700134    0.44000000    2.82999992
   17.45499992  127.84400177    0.44000000    2.82999992
   17.46111107  127.84400177    0.44000000    2.82999992
   17.46500015  124.52899933    0.44000000    2.82999992
   17.46833420  126.32599640    0.46000001    2.80999994
   17.47166634  129.47900391    0.44000000    2.82999992
   17.47472191  128.62600708    0.44000000    2.82999992
   17.47805595  127.23100281    0.44000000    2.82999992
   17.48139000  128.72000122    0.44000000    2.82999992
   17.48444557  129.13900757    0.44000000    2.80999994
   17.48777771  138.00799561    0.44000000    2.80999994
   17.49083328  132.95100403    0.44000000    2.80999994
   17.49222183  131.72000122    0.44000000    2.82999992
   17.49472237  129.24499512    0.44000000    2.82999992
   17.49777794  141.61199951    0.44000000    2.82999992
   17.50388908  141.61199951    0.44000000    2.80999994
   17.50805473  131.05799866    0.44000000    2.82999992
   17.51111031  128.75500488    0.44000000    2.82999992
   17.51444435  122.05799866    0.44000000    2.82999992
   17.51749992  122.77400208    0.44000000    2.80999994
   17.52083397  129.73899841    0.44000000    2.82999992
   17.52416611  129.75799561    0.44000000    2.82999992
   17.52555466  124.24199677    0.44000000    2.82999992
   17.52777672  127.93000031    0.47999999    2.82999992
   17.53083229  124.98699951    0.50000000    2.82999992
   17.53416634  127.97000122    0.47999999    2.82999992
   17.53750038  132.40100098    0.50000000    2.80999994
   17.54055595  131.06700134    0.50000000    2.82999992
   17.54666710  131.06700134    0.51999998    2.82999992
   17.55083275  117.78700256    0.47999999    2.80999994
   17.55388832  124.35199738    0.47999999    2.80999994
   17.55722237  127.90000153    0.47999999    2.80999994
   17.55916595  122.72299957    0.47999999    2.82999992
   17.56083298  122.08999634    0.47999999    2.82999992
   17.56416512  132.97999573    0.47999999    2.82999992
   17.56750107  122.72799683    0.46000001    2.80999994
   17.57055664  128.58700562    0.46000001    2.82999992
   17.57389069  122.54900360    0.47999999    2.82999992
   17.57722282  123.17900085    0.47999999    2.82999992
   17.58027840  124.77600098    0.47999999    2.80999994
   17.58361244  126.53700256    0.46000001    2.80999994
   17.58944511  126.53700256    0.44000000    2.80999994
   17.59361267  116.91500092    0.44000000    2.80999994
   17.59694481  124.21900177    0.44000000    2.80999994
   17.60000038  127.47599792    0.46000001    2.82999992
   17.60333443  125.52300262    0.44000000    2.82999992
   17.60666656  121.91300201    0.44000000    2.82999992
   17.60972214  124.68900299    0.44000000    2.80999994
   17.61305618  120.05400085    0.44000000    2.80999994
   17.61638832  126.48200226    0.44000000    2.80999994
   17.61944389  119.26699829    0.44000000    2.82999992
   17.62277794  126.54900360    0.44000000    2.82999992
   17.62583351  124.39700317    0.44000000    2.82999992
   17.62638855  129.28599548    0.44000000    2.82999992
   17.63222313  129.28599548    0.44000000    2.80999994
   17.63638878  125.91999817    0.46000001    2.80999994
   17.63972282  121.31900024    0.46000001    2.80999994
   17.64305496  119.00499725    0.44000000    2.82999992
   17.64611053  121.31800079    0.47999999    2.82999992
   17.64944458  129.26199341    0.46000001    2.82999992
   17.65277672  130.34500122    0.44000000    2.80999994
   17.65583229  123.02500153    0.46000001    2.82999992
   17.65916634  127.09200287    0.44000000    2.82999992
   17.65944481  132.26100159    0.44000000    2.80999994
   17.66277695  129.94200134    0.46000001    2.82999992
   17.66611099  126.61599731    0.44000000    2.80999994
   17.66916656  132.17799377    0.44000000    2.82999992
   17.67527771  132.17799377    0.44000000    2.82999992
   17.67944336  120.92299652    0.44000000    2.82999992
   17.68249893  129.21800232    0.44000000    2.80999994
   17.68583298  127.32599640    0.44000000    2.80999994
   17.68916512  131.19799805    0.44000000    2.82999992
   17.69222069  130.65499878    0.44000000    2.82999992
   17.69277763  127.69499969    0.44000000    2.82999992
   17.69610977  124.97699738    0.44000000    2.80999994
   17.69916534  135.74600220    0.44000000    2.82999992
   17.70250130  135.10800171    0.41999999    2.82999992
   17.70583344  145.59700012    0.44000000    2.80999994
   17.70888901  152.51600647    0.41999999    2.80999994
   17.71222305  157.79600525    0.41999999    2.82999992
   17.71805573  157.79600525    0.41999999    2.82999992
   17.72222328  184.89500427    0.41999999    2.82999992
   17.72555542  199.70100403    0.41999999    2.82999992
   17.72611237  210.09199524    0.41999999    2.82999992
   17.72916794  201.50300598    0.41999999    2.80999994
   17.73222351  215.01199341    0.41999999    2.80999994
   17.73555565  212.52799988    0.41999999    2.82999992
   17.73888969  219.33099365    0.41999999    2.82999992
   17.74194527  233.81700134    0.41999999    2.82999992
   17.74527740  224.15400696    0.41999999    2.82999992
   17.74861145  203.17999268    0.41999999    2.80999994
   17.75166702  205.79100037    0.41999999    2.80999994
   17.75499916  212.63800049    0.40000001    2.82999992
   17.76083374  212.63800049    0.40000001    2.80999994
   17.76499939  214.41999817    0.41999999    2.80999994
   17.76833344  204.28500366    0.41999999    2.80999994
   17.77138901  205.24600220    0.41999999    2.82999992
   17.77472115  195.81799316    0.41999999    2.80999994
   17.77805519  193.64900208    0.41999999    2.82999992
   17.78111076  198.60200500    0.41999999    2.82999992
   17.78444481  214.95100403    0.41999999    2.82999992
   17.78750038  191.08000183    0.41999999    2.82999992
   17.79083252  187.54200745    0.41999999    2.82999992
   17.80777740  168.28999329    0.41999999    2.80999994
   17.81194305  168.28999329    0.41999999    2.80999994
   17.81611061  192.07200623    0.44000000    2.80999994
   17.81944466  180.54400635    0.41999999    2.80999994
   17.82277870  173.52099609    0.41999999    2.80999994
   17.82583427  174.37100220    0.41999999    2.80999994
   17.82916832  173.37600708    0.41999999    2.82999992
   17.83222389  164.26199341    0.41999999    2.78999996
   17.83555603  181.57600403    0.41999999    2.80999994
   17.83889008  173.47300720    0.41999999    2.80999994
   17.84111214  167.75999451    0.41999999    2.80999994
   17.84250069  162.94200134    0.41999999    2.80999994
   17.84555626  166.18400574    0.41999999    2.80999994
   17.84889030  170.83599854    0.41999999    2.82999992
   17.85499954  170.83599854    0.41999999    2.82999992
   17.85888863  179.86999512    0.41999999    2.80999994
   17.86222267  177.06300354    0.41999999    2.80999994
   17.86555672  168.25300598    0.41999999    2.80999994
   17.86861038  161.86799622    0.44000000    2.82999992
   17.87194443  154.95599365    0.44000000    2.80999994
   17.87444496  151.94999695    0.41999999    2.78999996
   17.87555504  160.98500061    0.41999999    2.78999996
   17.87861061  175.89999390    0.41999999    2.80999994
   17.88194466  173.76600647    0.41999999    2.80999994
   17.88527679  180.16600037    0.41999999    2.80999994
   17.88833237  187.01199341    0.41999999    2.82999992
   17.89166641  202.15699768    0.41999999    2.82999992
   17.89777756  202.15699768    0.41999999    2.80999994
   17.90194321  263.86499023    0.41999999    2.80999994
   17.90499878  261.20700073    0.41999999    2.80999994
   17.90777779  302.56698608    0.41999999    2.80999994
   17.90888786  288.91198730    0.41999999    2.80999994
   17.91194344  263.92498779    0.44000000    2.80999994
   17.91527748  260.76098633    0.46000001    2.80999994
   17.91860962  271.87298584    0.46000001    2.80999994
   17.92166519  293.55599976    0.46000001    2.80999994
   17.92499924  289.86999512    0.46000001    2.80999994
   17.92805481  263.37600708    0.47999999    2.80999994
   17.93138885  252.74400330    0.47999999    2.80999994
   17.93472099  270.72198486    0.46000001    2.80999994
   17.94055557  270.72198486    0.46000001    2.80999994
   17.94472122  239.39999390    0.46000001    2.80999994
   17.94805527  239.38400269    0.46000001    2.80999994
   17.95111275  276.16000366    0.46000001    2.80999994
   17.95444489  267.01800537    0.46000001    2.80999994
   17.95777893  259.83300781    0.46000001    2.80999994
   17.96083450  267.91799927    0.46000001    2.80999994
   17.96416664  263.46200562    0.44000000    2.80999994
   17.96722221  253.21899414    0.44000000    2.80999994
   17.97055626  280.53201294    0.44000000    2.80999994
   17.97389030  269.78799438    0.44000000    2.80999994
   17.97555542  229.72700500    0.44000000    2.80999994
   17.97750092  264.68798828    0.44000000    2.80999994
   17.98333359  264.68798828    0.44000000    2.80999994
   17.98750114  223.81199646    0.44000000    2.80999994
   17.99083328  240.68099976    0.46000001    2.80999994
   17.99388885  279.32000732    0.47999999    2.80999994
   17.99722290  240.52999878    0.47999999    2.80999994
   18.00055504  270.60501099    0.47999999    2.80999994
   18.00361061  267.41000366    0.47999999    2.80999994
   18.00694466  274.93701172    0.47999999    2.80999994
   18.00888824  272.13900757    0.47999999    2.80999994
   18.01055527  258.19400024    0.47999999    2.78999996
   18.01388931  241.16499329    0.47999999    2.78999996
   18.01694489  274.00399780    0.50000000    2.80999994
   18.02027702  249.24299622    0.50000000    2.80999994
   18.02638817  249.24299622    0.50000000    2.80999994
   18.03055573  239.91400146    0.50000000    2.82999992
   18.03361130  240.40199280    0.47999999    2.80999994
   18.03694344  229.32699585    0.47999999    2.80999994
   18.03999901  225.67199707    0.47999999    2.80999994
   18.04249954  219.57600403    0.47999999    2.80999994
   18.04388809  239.32600403    0.47999999    2.80999994
   18.04694366  245.60899353    0.47999999    2.80999994
   18.05027771  252.17599487    0.47999999    2.80999994
   18.05360985  231.43800354    0.50000000    2.80999994
   18.05666542  220.36700439    0.50000000    2.80999994
   18.05999947  241.75500488    0.47999999    2.80999994
   18.06333351  213.60400391    0.51999998    2.80999994
   18.06916809  213.60400391    0.52999997    2.80999994
   18.07333374  248.76699829    0.50000000    2.80999994
   18.07583427  228.43600464    0.50000000    2.80999994
   18.07694626  235.72799683    0.50000000    2.80999994
   18.08000183  236.02299500    0.50000000    2.80999994
   18.08333397  227.58500671    0.50000000    2.82999992
   18.08666801  227.20399475    0.50000000    2.82999992
   18.08972359  232.36199951    0.46000001    2.80999994
   18.09305573  220.66200256    0.44000000    2.80999994
   18.09638977  242.14300537    0.44000000    2.78999996
   18.09944534  224.21600342    0.44000000    2.80999994
   18.10277748  241.53900146    0.44000000    2.80999994
   18.10583305  236.49099731    0.46000001    2.80999994
   18.11194420  236.49099731    0.47999999    2.80999994
   18.11611176  191.79400635    0.47999999    2.80999994
   18.11944389  218.51199341    0.47999999    2.80999994
   18.12249947  208.99200439    0.50000000    2.80999994
   18.12583351  214.12199402    0.50000000    2.80999994
   18.12888908  212.93499756    0.50000000    2.80999994
   18.13222313  202.84899902    0.50000000    2.80999994
   18.13555527  225.07499695    0.51999998    2.80999994
   18.13861084  189.47099304    0.51999998    2.80999994
   18.14194489  212.70500183    0.47999999    2.80999994
   18.14277840  213.71200562    0.47999999    2.80999994
   18.14555550  177.72900391    0.50000000    2.80999994
   18.14888954  190.98399353    0.58999997    2.80999994
   18.15472221  190.98399353    0.63000000    2.78999996
   18.15888786  200.18699646    0.64999998    2.78999996
   18.16222191  193.23199463    0.69000000    2.80999994
   18.16555595  194.26800537    0.73000002    2.78999996
   18.16860962  204.54699707    0.63000000    2.80999994
   18.17194366  165.06199646    0.58999997    2.78999996
   18.17499924  173.30799866    0.61000001    2.78999996
   18.17611122  190.86199951    0.58999997    2.78999996
   18.17888832  195.47799683    0.56999999    2.78999996
   18.18222237  190.57600403    0.61000001    2.80999994
   18.18527603  189.82899475    0.61000001    2.80999994
   18.18861008  166.97900391    0.58999997    2.80999994
   18.19194412  184.10400391    0.58999997    2.78999996
   18.19777679  184.10400391    0.58999997    2.78999996
   18.20166779  172.34800720    0.58999997    2.78999996
   18.20499992  174.65299988    0.56999999    2.78999996
   18.20833397  187.20700073    0.52999997    2.78999996
   18.20972252  188.69099426    0.52999997    2.78999996
   18.21194458  188.67500305    0.51999998    2.78999996
   18.21500015  149.37600708    0.52999997    2.78999996
   18.21833420  173.28199768    0.52999997    2.78999996
   18.22166634  188.84899902    0.51999998    2.80999994
   18.22472191  176.72700500    0.51999998    2.80999994
   18.22805595  172.73300171    0.50000000    2.78999996
   18.23139000  167.84399414    0.50000000    2.78999996
   18.23444557  173.69799805    0.51999998    2.80999994
   18.24055672  173.69799805    0.52999997    2.78999996
   18.24472237  154.77200317    0.51999998    2.78999996
   18.24777794  176.59199524    0.51999998    2.80999994
   18.25111198  160.24000549    0.51999998    2.78999996
   18.25444412  163.02799988    0.50000000    2.78999996
   18.25749969  166.52999878    0.50000000    2.80999994
   18.26083374  169.08500671    0.50000000    2.80999994
   18.26388931  171.14700317    0.47999999    2.78999996
   18.26722145  175.96099854    0.47999999    2.78999996
   18.27055550  164.87300110    0.47999999    2.78999996
   18.27361107  175.95500183    0.47999999    2.78999996
   18.27638817  156.90499878    0.47999999    2.78999996
   18.27750015  165.77900696    0.47999999    2.78999996
   18.28333282  165.77900696    0.47999999    2.78999996
   18.28750038  169.69799805    0.50000000    2.80999994
   18.29083252  159.11599731    0.51999998    2.78999996
   18.29388809  158.31900024    0.51999998    2.78999996
   18.29722214  165.89300537    0.55000001    2.78999996
   18.30027771  164.24499512    0.55000001    2.80999994
   18.30360985  160.36700439    0.52999997    2.78999996
   18.30694389  151.40100098    0.51999998    2.78999996
   18.30972099  155.61099243    0.51999998    2.78999996
   18.31055450 1027.53002930    0.51999998    2.78999996
   18.31250000  142.87699890    0.51999998    2.78999996
   18.31277657  165.77900696    0.47999999    2.78999996
   18.31277657  169.69799805    0.50000000    2.80999994
   18.31277657  159.11599731    0.51999998    2.78999996
   18.31305504  158.31900024    0.51999998    2.78999996
   18.31305504  165.89300537    0.55000001    2.78999996
   18.31305504  164.24499512    0.55000001    2.80999994
   18.31333351  160.36700439    0.52999997    2.78999996
   18.31333351  151.40100098    0.51999998    2.78999996
   18.31333351 1027.53002930    0.51999998    2.78999996
   18.31555557  157.93899536    0.51999998    2.78999996
   18.31861115  147.39599609    0.51999998    2.78999996
   18.32194519  150.29800415    0.51999998    2.78999996
   18.32527924  170.97900391    0.51999998    2.78999996
   18.32833481  163.82499695    0.50000000    2.78999996
   18.33333397  163.82499695    0.50000000    2.78999996
   18.33750153  148.61199951    0.47999999    2.80999994
   18.34083366  162.58000183    0.47999999    2.78999996
   18.34388924  163.43200684    0.46000001    2.78999996
   18.34638977  160.56799316    0.46000001    2.80999994
   18.34777832  164.69299316    0.47999999    2.80999994
   18.35111237  157.33599854    0.46000001    2.78999996
   18.35416794  143.85299683    0.47999999    2.78999996
   18.35750008  143.46499634    0.47999999    2.78999996
   18.36055565  146.65100098    0.47999999    2.78999996
   18.36388969  147.47099304    0.46000001    2.78999996
   18.36722183  151.26199341    0.47999999    2.78999996
   18.37027740  129.41600037    0.47999999    2.78999996
   18.37638855  129.41600037    0.50000000    2.78999996
   18.38055611  143.50399780    0.50000000    2.78999996
   18.38361168  150.44400024    0.51999998    2.78999996
   18.38694382  139.52799988    0.51999998    2.78999996
   18.39027786  139.54299927    0.50000000    2.78999996
   18.39333344  150.22300720    0.51999998    2.78999996
   18.39666748  148.21800232    0.50000000    2.78999996
   18.39972115  142.23899841    0.50000000    2.78999996
   18.40305519  134.91999817    0.50000000    2.78999996
   18.40638924  132.39500427    0.50000000    2.78999996
   18.40944481  140.06199646    0.50000000    2.78999996
   18.41277695  144.33099365    0.50000000    2.78999996
   18.41333389  143.25000000    0.50000000    2.78999996
   18.41916656  143.25000000    0.55000001    2.80999994
   18.42333221  133.44400024    0.55000001    2.78999996
   18.42638779  129.57299805    0.55000001    2.78999996
   18.42972183  143.74699402    0.56999999    2.78999996
   18.43277740  138.79600525    0.56999999    2.76999998
   18.43610954  140.38000488    0.56999999    2.78999996
   18.43944359  131.64100647    0.56999999    2.78999996
   18.44249916  138.15899658    0.58999997    2.78999996
   18.44583321  134.38800049    0.58999997    2.78999996
   18.44666672  136.68600464    0.56999999    2.78999996
   18.44944382  138.26400757    0.56999999    2.78999996
   18.45250130  143.76600647    0.56999999    2.78999996
   18.45583344  128.67999268    0.56999999    2.78999996
   18.46194458  128.67999268    0.56999999    2.78999996
   18.46611214  131.72300720    0.56999999    2.78999996
   18.46944427  129.95799255    0.56999999    2.78999996
   18.47249985  132.42599487    0.56999999    2.78999996
   18.47583389  130.25500488    0.55000001    2.78999996
   18.47888947  134.30299377    0.52999997    2.78999996
   18.48000145  129.59100342    0.52999997    2.78999996
   18.48277855  128.56900024    0.51999998    2.78999996
   18.48583412  140.36900330    0.51999998    2.78999996
   18.48916626  136.50100708    0.51999998    2.78999996
   18.49222183  133.27999878    0.52999997    2.78999996
   18.49555588  130.63299561    0.52999997    2.78999996
   18.49888992  133.83200073    0.51999998    2.78999996
   18.50472260  133.83200073    0.51999998    2.78999996
   18.50888824  130.81700134    0.52999997    2.78999996
   18.51222229  125.05999756    0.52999997    2.78999996
   18.51333427  133.80499268    0.52999997    2.78999996
   18.51583290  129.23100281    0.52999997    2.78999996
   18.51888847  128.62699890    0.52999997    2.76999998
   18.52222252  133.66200256    0.55000001    2.76999998
   18.52555466  132.72500610    0.52999997    2.76999998
   18.52861023  127.22699738    0.52999997    2.78999996
   18.53194427  126.80599976    0.52999997    2.78999996
   18.53499985  134.34700012    0.51999998    2.78999996
   18.53833199  137.77999878    0.51999998    2.78999996
   18.54166603  124.23999786    0.52999997    2.78999996
   18.54777718  124.23999786    0.51999998    2.76999998
   18.55166626  127.90299988    0.51999998    2.76999998
   18.55499840  127.50599670    0.51999998    2.78999996
   18.55833244  129.60600281    0.51999998    2.76999998
   18.56138802  130.48100281    0.51999998    2.76999998
   18.56472206  130.97300720    0.50000000    2.78999996
   18.56805611  129.72599792    0.50000000    2.76999998
   18.57111168  125.41400146    0.50000000    2.76999998
   18.57444572  130.15400696    0.50000000    2.78999996
   18.57777786  137.83799744    0.51999998    2.78999996
   18.58000183  126.10800171    0.50000000    2.76999998
   18.58139038  123.07199860    0.50000000    2.76999998
   18.58444595  123.87599945    0.50000000    2.78999996
   18.59055710  123.87599945    0.51999998    2.78999996
   18.59472275  131.58399963    0.52999997    2.76999998
   18.59777832  127.01799774    0.51999998    2.78999996
   18.60111237  126.94499969    0.51999998    2.78999996
   18.60444450  124.66699982    0.52999997    2.76999998
   18.60750008  131.46699524    0.52999997    2.76999998
   18.61083412  123.45200348    0.51999998    2.76999998
   18.61333466  123.94699860    0.52999997    2.78999996
   18.61444473  122.73500061    0.51999998    2.78999996
   18.61750031  127.41999817    0.52999997    2.78999996
   18.62083435  121.12100220    0.52999997    2.76999998
   18.62416649  122.32700348    0.52999997    2.76999998
   18.62722206  122.81400299    0.52999997    2.76999998
   18.63333321  122.81400299    0.52999997    2.76999998
   18.63750076  123.82199860    0.52999997    2.76999998
   18.64055634  127.85199738    0.51999998    2.78999996
   18.64388847  127.55999756    0.51999998    2.76999998
   18.64666748  125.02600098    0.51999998    2.76999998
   18.64777756  126.64499664    0.51999998    2.76999998
   18.65111160  126.26699829    0.51999998    2.76999998
   18.65416718  127.30000305    0.52999997    2.76999998
   18.65749931  134.36700439    0.52999997    2.78999996
   18.66083336  129.28799438    0.52999997    2.78999996
   18.66388893  125.34899902    0.52999997    2.76999998
   18.66722107  131.27499390    0.52999997    2.78999996
   18.67055511  130.86500549    0.52999997    2.76999998
   18.67611122  130.86500549    0.55000001    2.76999998
   18.68027687  124.26599884    0.55000001    2.76999998
   18.68361092  128.71699524    0.55000001    2.76999998
   18.68666649  125.88400269    0.55000001    2.76999998
   18.68999863  131.25199890    0.55000001    2.76999998
   18.69333267  132.67100525    0.55000001    2.76999998
   18.69638824  127.03399658    0.55000001    2.76999998
   18.69972038  124.44999695    0.55000001    2.76999998
   18.70277786  125.51599884    0.56999999    2.76999998
   18.70611191  119.55599976    0.55000001    2.78999996
   18.70944595  127.13999939    0.56999999    2.76999998
   18.71250153  124.41000366    0.56999999    2.76999998
   18.71333504  123.64399719    0.56999999    2.76999998
   18.71888924  123.64399719    0.56999999    2.76999998
   18.72305679  123.00800323    0.55000001    2.76999998
   18.72638893  126.19300079    0.56999999    2.76999998
   18.72972298  128.15600586    0.55000001    2.76999998
   18.73277855  124.22699738    0.55000001    2.76999998
   18.73611069  121.44899750    0.55000001    2.76999998
   18.73944473  127.46700287    0.55000001    2.76999998
   18.74250031  122.34799957    0.52999997    2.76999998
   18.74583435  121.88899994    0.55000001    2.76999998
   18.74666786  119.85399628    0.55000001    2.76999998
   18.74944496  125.86900330    0.55000001    2.76999998
   18.75250053  127.52799988    0.55000001    2.76999998
   18.75583267  121.54900360    0.55000001    2.76999998
   18.76194382  121.54900360    0.55000001    2.76999998
   18.76611137  130.25100708    0.56999999    2.76999998
   18.76916695  128.69799805    0.56999999    2.76999998
   18.77249908  129.41299438    0.58999997    2.76999998
   18.77555466  131.43200684    0.56999999    2.75000000
   18.77888870  131.79600525    0.58999997    2.78999996
   18.78000069  129.83999634    0.56999999    2.75000000
   18.78249931  128.06399536    0.56999999    2.76999998
   18.78555489  126.43699646    0.58999997    2.76999998
   18.78888893  123.47200012    0.56999999    2.76999998
   18.79222107  133.89599609    0.56999999    2.76999998
   18.79527664  125.00000000    0.56999999    2.76999998
   18.79861069  122.08100128    0.56999999    2.75000000
   18.80472183  122.08100128    0.56999999    2.76999998
   18.82472229  128.28799438    0.58999997    2.76999998
   18.82805634  127.16699982    0.58999997    2.75000000
   18.83139038  124.31800079    0.61000001    2.76999998
   18.83444595  124.59100342    0.58999997    2.76999998
   18.83777809  127.30000305    0.58999997    2.76999998
   18.84111214  126.00599670    0.61000001    2.75000000
   18.84749985  126.00599670    0.61000001    2.75000000
   18.85166740  122.75399780    0.58999997    2.75000000
   18.85499954  126.11699677    0.58999997    2.75000000
   18.85777855  126.19799805    0.58999997    2.76999998
   18.85861206  125.98799896    0.61000001    2.76999998
   18.86194420  124.49900055    0.61000001    2.76999998
   18.86499977  121.26999664    0.61000001    2.75000000
   18.86833382  123.09799957    0.61000001    2.76999998
   18.87166595  124.09500122    0.61000001    2.76999998
   18.87472153  124.58899689    0.61000001    2.75000000
   18.87805557  124.79900360    0.61000001    2.75000000
   18.88111115  130.73500061    0.61000001    2.75000000
   18.88444519  127.32599640    0.61000001    2.75000000
   18.89055634  127.32599640    0.61000001    2.75000000
   18.89444351  130.11700439    0.61000001    2.75000000
   18.89777756  120.21900177    0.63000000    2.75000000
   18.90111160  144.59700012    0.63000000    2.75000000
   18.90416718  127.51799774    0.63000000    2.76999998
   18.90749931  128.29699707    0.61000001    2.75000000
   18.91083336  136.26400757    0.64999998    2.75000000
   18.91388893  126.93099976    0.64999998    2.75000000
   18.91722107  135.31500244    0.64999998    2.75000000
   18.92055511  131.92500305    0.67000002    2.75000000
   18.92361069  130.37100220    0.64999998    2.75000000
   18.92555428  133.93499756    0.64999998    2.75000000
   18.92722130  131.95500183    0.64999998    2.75000000
   18.93333244  131.95500183    0.75000000    2.75000000
   18.93750000  125.56999969    0.73000002    2.75000000
   18.94055557  142.09700012    0.70999998    2.75000000
   18.94388771  131.44500732    0.70999998    2.75000000
   18.94722176  125.59300232    0.73000002    2.75000000
   18.95027924  132.17599487    0.70999998    2.75000000
   18.95361137  127.13999939    0.69000000    2.75000000
   18.95666695  136.07400513    0.69000000    2.75000000
   18.95888901  133.88900757    0.69000000    2.75000000
   18.96027946  132.91499329    0.67000002    2.75000000
   18.96361160  139.62100220    0.67000002    2.75000000
   18.96694565  133.75700378    0.67000002    2.75000000
   18.97000122  133.36300659    0.67000002    2.75000000
   18.97611237  133.36300659    0.63000000    2.75000000
   18.98027802  134.27999878    0.63000000    2.75000000
   18.98361206  129.76300049    0.63000000    2.75000000
   18.98666763  129.70199585    0.63000000    2.75000000
   18.98999977  159.19099426    0.64999998    2.75000000
   18.99250031  148.26600647    0.67000002    2.75000000
   18.99361229  143.84500122    0.67000002    2.75000000
   18.99694443  144.75599670    0.69000000    2.75000000
   19.00027847  146.36999512    0.69000000    2.75000000
   19.00333405  140.04299927    0.67000002    2.73000002
   19.00666618  134.66000366    0.69000000    2.75000000
   19.01000023  133.08299255    0.70999998    2.75000000
   19.01305580  132.25000000    0.69000000    2.75000000
   19.01888847  132.25000000    0.69000000    2.75000000
   19.02305603  142.47200012    0.67000002    2.75000000
   19.02583313  139.21800232    0.67000002    2.75000000
   19.02666664  148.32600403    0.67000002    2.75000000
   19.03000069  134.19900513    0.67000002    2.75000000
   19.03305435  109.62899780    0.67000002    2.73000002
   19.03638840  133.27200317    0.67000002    2.75000000
   19.03972244  137.06599426    0.64999998    2.73000002
   19.04277802  141.71800232    0.64999998    2.73000002
   19.04611015  138.28300476    0.64999998    2.73000002
   19.04944420  142.75700378    0.64999998    2.73000002
   19.05249977  136.74000549    0.63000000    2.73000002
   19.05583191  138.32400513    0.63000000    2.75000000
   19.06194305  138.32400513    0.63000000    2.75000000
   19.06583214  138.24899292    0.63000000    2.75000000
   19.06916809  136.91200256    0.63000000    2.73000002
   19.07250023  151.67199707    0.63000000    2.75000000
   19.07555580  127.85500336    0.64999998    2.75000000
   19.07888985  141.03999329    0.64999998    2.73000002
   19.08222389  134.98100281    0.64999998    2.73000002
   19.08527756  137.10600281    0.67000002    2.73000002
   19.08861160  141.25599670    0.64999998    2.75000000
   19.09166718  137.22399902    0.64999998    2.75000000
   19.09277916  142.53199768    0.67000002    2.75000000
   19.09555626  137.68200684    0.67000002    2.75000000
   19.09861183  135.44099426    0.67000002    2.75000000
   19.10472298  135.44099426    0.67000002    2.73000002
   19.10888863  145.93499756    0.69000000    2.73000002
