    HOUR (UT)   FLARE FACTOR    SKY TESTER    SUN TESTER
   11.45944405   -1.00000000   -1.00000000   -1.00000000
   11.50138855  225.47500610    4.90999985    1.75000000
   11.50944424  299.85299683    4.90999985    1.76999998
   11.51305580  272.71200562    4.90999985    1.76999998
   11.51638889  267.13299561    4.90999985    1.76999998
   11.51944447  264.80599976    4.90999985    1.76999998
   11.52277756  322.93899536    4.90999985    1.76999998
   11.52611065  279.61499023    4.90999985    1.78999996
   11.52916622  311.08099365    4.90999985    1.76999998
   11.53249931  277.01300049    4.90999985    1.78999996
   11.53444481  340.13400269    4.90999985    1.78999996
   11.53611183  465.97399902    4.90999985    1.78999996
   11.53805637  368.42498779    4.90999985    1.80999994
   11.53944492  388.13400269    4.90999985    1.80999994
   11.54083347  347.91101074    4.90999985    1.80999994
   11.54222298  381.08401489    4.90999985    1.80999994
   11.54361153  301.55200195    4.90999985    1.80999994
   11.54500008  424.68399048    4.90999985    1.80999994
   11.54638958  278.84799194    4.90999985    1.80999994
   11.54638958  299.85299683    4.90999985    1.76999998
   11.54666710  272.71200562    4.90999985    1.76999998
   11.54666710  267.13299561    4.90999985    1.76999998
   11.54666710  264.80599976    4.90999985    1.76999998
   11.54694462  322.93899536    4.90999985    1.76999998
   11.54694462  279.61499023    4.90999985    1.78999996
   11.54722309  311.08099365    4.90999985    1.76999998
   11.54722309  277.01300049    4.90999985    1.78999996
   11.54722309  465.97399902    4.90999985    1.78999996
   11.54777813  283.57400513    4.90999985    1.83000004
   11.55111122  361.08898926    4.90999985    1.83000004
   11.55305576  303.70300293    4.90999985    1.80999994
   11.55444431  302.89898682    4.90999985    1.80999994
   11.55583382  330.48098755    4.90999985    1.80999994
   11.55722237  291.42498779    4.90999985    1.83000004
   11.55722237  283.57400513    4.90999985    1.83000004
   11.55749989  361.08898926    4.90999985    1.83000004
   11.55805588  281.48599243    4.90999985    1.83000004
   11.56111145  290.63800049    4.90999985    1.85000002
   11.56444454  314.44100952    4.90999985    1.85000002
   11.56777763  336.52700806    4.90999985    1.85000002
   11.57083321  373.22399902    4.90999985    1.85000002
   11.57277775  360.54501343    4.90999985    1.85000002
   11.57416630  390.80999756    4.90999985    1.85000002
   11.57555580  314.92898560    4.90999985    1.86000001
   11.57694435  335.03601074    4.90999985    1.86000001
   11.57833290  350.38500977    4.90999985    1.86000001
   11.57972240  345.60400391    4.90999985    1.86000001
   11.58138847  310.47299194    4.90999985    1.86000001
   11.58249950  312.96798706    4.90999985    1.86000001
   11.58388901  257.58401489    4.90999985    1.86000001
   11.58416653  281.48599243    4.90999985    1.83000004
   11.58416653  290.63800049    4.90999985    1.85000002
   11.58416653  314.44100952    4.90999985    1.85000002
   11.58444405  336.52700806    4.90999985    1.85000002
   11.58444405  373.22399902    4.90999985    1.85000002
   11.58500004  279.86700439    4.90999985    1.86000001
   11.58833313  296.73901367    4.90999985    1.86000001
   11.59138870  332.67599487    4.90999985    1.86000001
   11.59472179  312.51501465    4.90999985    1.88000000
   11.59805489  292.08200073    4.90999985    1.89999998
   11.60472298  292.08200073    4.90999985    1.88000000
   11.60888958  272.79199219    4.90999985    1.89999998
   11.61222267  306.33300781    4.90999985    1.89999998
   11.61527824  303.92199707    4.90999985    1.89999998
   11.61777782  281.66799927    4.90999985    1.91999996
   11.61916637  267.19299316    4.90999985    1.89999998
   11.62222195  247.30299377    4.90999985    1.91999996
   11.62555599  253.49400330    4.90999985    1.89999998
   11.62888908  289.90399170    4.90999985    1.91999996
   11.63194466  290.28500366    4.90999985    1.91999996
   11.63527775  251.13299561    4.90999985    1.91999996
   11.63861084  234.31100464    4.90999985    1.94000006
   11.64166641  252.85600281    4.90999985    1.94000006
   11.64750004  252.85600281    4.90999985    1.94000006
   11.65166664  260.43701172    4.90999985    1.94000006
   11.65499973  262.19500732    4.90999985    1.96000004
   11.65805531  235.44599915    4.90999985    1.94000006
   11.66138840  252.75100708    4.90999985    1.96000004
   11.66472149  257.42001343    4.90999985    1.96000004
   11.66777802  229.16099548    4.90999985    1.96000004
   11.67111111  263.34100342    4.90999985    1.96000004
   11.67444515  263.74200439    4.90999985    1.98000002
   11.67750072  236.56100464    4.90999985    1.98000002
   11.68083382  259.69198608    4.90999985    1.98000002
   11.68388939  219.03100586    4.90999985    2.00000000
   11.68444443  235.68600464    4.90999985    2.00000000
   11.69055557  235.68600464    4.90999985    2.00000000
   11.69444466  235.21600342    4.90999985    2.00000000
   11.69777775  207.45599365    4.90999985    2.00000000
   11.70111084  226.08599854    4.90999985    2.01999998
   11.70416641  201.93600464    4.90999985    2.00000000
   11.70749950  204.98500061    4.90999985    2.01999998
   11.71083355  217.59800720    4.90999985    2.01999998
   11.71388912  230.04699707    4.90999985    2.01999998
   11.71722221  216.03199768    4.90999985    2.01999998
   11.71777725  223.66099548    4.90999985    2.01999998
   11.72083282  227.12800598    4.90999985    2.01999998
   11.72416592  220.35200500    4.90999985    2.03999996
   11.72722149  238.74000549    4.90999985    2.03999996
   11.73333359  238.74000549    4.90999985    2.03999996
   11.73750019  222.21699524    4.90999985    2.05999994
   11.74055576  213.36700439    4.90999985    2.05999994
   11.74388885  208.85499573    4.90999985    2.05999994
   11.74722290  216.93899536    4.90999985    2.05999994
   11.75027752  214.88200378    4.90999985    2.05999994
   11.75111103  193.52600098    4.90999985    2.05999994
   11.75388908  229.62699890    4.90999985    2.07999992
   11.75722218  206.81199646    4.90999985    2.07999992
   11.76027775  190.95700073    4.90999985    2.07999992
   11.76361084  215.61700439    4.90999985    2.07999992
   11.76694393  191.50900269    4.90999985    2.07999992
   11.76999950  190.07000732    4.90999985    2.07999992
   11.77611065  190.07000732    4.90999985    2.09999990
   11.78027725  210.62600708    4.90999985    2.09999990
   11.78361130  192.01600647    4.90999985    2.09999990
   11.78444481  197.03300476    4.90999985    2.09999990
   11.78722286  188.64100647    4.90999985    2.09999990
   11.79055595  210.87800598    4.90999985    2.09999990
   11.79361153  189.74899292    4.90999985    2.11999989
   11.79694462  193.95199585    4.90999985    2.11999989
   11.80027771  190.75900269    4.90999985    2.11999989
   11.80333328  187.47000122    4.90999985    2.11999989
   11.80666733  189.76899719    4.90999985    2.11999989
   11.80972195  205.11399841    4.90999985    2.11999989
   11.81305599  213.58099365    4.90999985    2.13000011
   11.81888866  213.58099365    4.90999985    2.13000011
   11.82305527  197.87899780    4.90999985    2.13000011
   11.82638836  209.40800476    4.90999985    2.13000011
   11.82944393  193.52400208    4.90999985    2.15000010
   11.83277798  206.38499451    4.90999985    2.15000010
   11.83611107  207.22999573    4.90999985    2.15000010
   11.83944416  188.39399719    4.90999985    2.15000010
   11.84249973  182.55200195    4.90999985    2.15000010
   11.84583282  184.22799683    4.90999985    2.15000010
   11.84888840  184.39799500    4.90999985    2.15000010
   11.85111141  206.02499390    4.90999985    2.15000010
   11.85249996  183.18400574    4.90999985    2.15000010
   11.85583401  196.54499817    4.90999985    2.17000008
   11.86194515  196.54499817    4.90999985    2.17000008
   11.86611176  179.10099792    4.90999985    2.15000010
   11.86916637  183.98300171    4.90999985    2.17000008
   11.87250042  207.80299377    4.90999985    2.17000008
   11.87555599  194.19099426    4.90999985    2.17000008
   11.87888908  216.71200562    4.90999985    2.17000008
   11.88222218  194.99000549    4.90999985    2.17000008
   11.88444424  200.30000305    4.90999985    2.17000008
   11.88583279  206.42999268    4.90999985    2.17000008
   11.88916683  200.45599365    4.90999985    2.17000008
   11.89222240  211.10600281    4.90999985    2.19000006
   11.89555550  190.45500183    4.90999985    2.19000006
   11.89888859  182.48800659    4.90999985    2.19000006
   11.90472221  182.48800659    4.90999985    2.19000006
   11.90888882  208.21099854    4.90999985    2.19000006
   11.91194439  171.60499573    4.90999985    2.19000006
   11.91527748  182.17100525    4.90999985    2.19000006
   11.91777802  194.05700684    4.90999985    2.19000006
   11.91888905  185.03799438    4.90999985    2.21000004
   11.92222214  193.57299805    4.90999985    2.21000004
   11.92527771  199.95599365    4.90999985    2.21000004
   11.92861176  185.98500061    4.90999985    2.21000004
   11.93194485  190.74400330    4.90999985    2.21000004
   11.93500042  190.95399475    4.90999985    2.21000004
   11.93833351  189.72500610    4.90999985    2.23000002
   11.94138908  163.32899475    4.90999985    2.23000002
   11.94750023  163.32899475    4.90999985    2.23000002
   11.95166683  174.06300354    4.90999985    2.23000002
   11.95499992  187.08000183    4.90999985    2.23000002
   11.95805550  168.84100342    4.90999985    2.23000002
   11.96138859  191.53399658    4.90999985    2.25000000
   11.96444416  209.88299561    4.90999985    2.23000002
   11.96777725  201.06700134    4.90999985    2.25000000
   11.97111034  189.87500000    4.90999985    2.25000000
   11.97416592  185.77099609    4.90999985    2.25000000
   11.97749996  177.83599854    4.90999985    2.25000000
   11.98083305  185.39199829    4.90999985    2.25000000
   11.98388958  159.52200317    4.90999985    2.25000000
   11.98444462  180.37699890    4.90999985    2.25000000
   11.99027824  180.37699890    4.90999985    2.26999998
   11.99444485  175.45899963    4.90999985    2.26999998
   11.99777794  183.02099609    4.90999985    2.26999998
   12.00083351  183.07099915    4.90999985    2.26999998
   12.00416660  180.38499451    4.90999985    2.26999998
   12.00749969  171.16700745    4.90999985    2.26999998
   12.01055527  177.94200134    4.90999985    2.26999998
   12.01388931  161.22200012    4.90999985    2.26999998
   12.01722240  170.59399414    4.90999985    2.26999998
   12.01805496  159.36300659    4.90999985    2.26999998
   12.02055550  169.47099304    4.90999985    2.26999998
   12.02388859  189.06199646    4.90999985    2.26999998
   12.02694416  169.59800720    4.90999985    2.28999996
   12.03333378  169.59800720    4.90999985    2.26999998
   12.03750038  166.28199768    4.90999985    2.28999996
   12.04055595  175.48500061    4.90999985    2.28999996
   12.04388905  178.69599915    4.90999985    2.30999994
   12.04694462  174.66499329    4.90999985    2.28999996
   12.05027771  193.90800476    4.90999985    2.30999994
   12.05138874  175.57800293    4.90999985    2.28999996
   12.05388927  181.82400513    4.90999985    2.28999996
   12.05722237  178.86799622    4.90999985    2.30999994
   12.06027794  158.12600708    4.90999985    2.30999994
   12.06361103  165.11199951    4.90999985    2.30999994
   12.06694412  175.26800537    4.90999985    2.30999994
   12.06999969  185.80400085    4.90999985    2.30999994
   12.07611084  185.80400085    4.90999985    2.30999994
   12.08027744  183.20300293    4.90999985    2.30999994
   12.08333302  183.01800537    4.90999985    2.30999994
   12.08472157  165.70899963    4.90999985    2.30999994
   12.08694458  188.30099487    4.90999985    2.32999992
   12.09027767  177.48199463    4.90999985    2.30999994
   12.09361076  179.69500732    4.90999985    2.30999994
   12.09666634  180.02099609    4.90999985    2.30999994
   12.10000038  180.34199524    4.90999985    2.32999992
   12.10333347  192.73899841    4.90999985    2.32999992
   12.10638905  175.05900574    4.90999985    2.32999992
   12.10972214  193.12800598    4.90999985    2.32999992
   12.11277771  189.31199646    4.90999985    2.32999992
   12.11888885  189.31199646    4.90999985    2.32999992
   12.12305546  195.47300720    4.90999985    2.32999992
   12.12638855  225.74000549    4.90999985    2.32999992
   12.12944412  205.45799255    4.90999985    2.32999992
   12.13277817  182.51899719    4.90999985    2.32999992
   12.13583279  233.55499268    4.90999985    2.32999992
   12.13916683  199.28799438    4.90999985    2.34999990
   12.14249992  236.52999878    4.90999985    2.34999990
   12.14555550  203.99200439    4.90999985    2.34999990
   12.14888859  189.05999756    4.90999985    2.34999990
   12.15138817  199.35299683    4.90999985    2.34999990
   12.15249920  201.27400208    4.90999985    2.34999990
   12.15583324  182.49099731    4.90999985    2.34999990
   12.16166592  182.49099731    4.90999985    2.34999990
   12.16583252  196.17799377    4.90999985    2.34999990
   12.16916656  182.68800354    4.90999985    2.36999989
   12.17222214  203.28100586    4.90999985    2.36999989
   12.17555618  200.79299927    4.90999985    2.36999989
   12.17888927  173.07099915    4.90999985    2.36999989
   12.18194485  205.01699829    4.90999985    2.36999989
   12.18472195  172.06100464    4.90999985    2.36999989
   12.18555546  171.24000549    4.90999985    2.36999989
   12.18888855  174.65800476    4.90999985    2.36999989
   12.19194412  213.19900513    4.90999985    2.36999989
   12.19527817  170.69900513    4.90999985    2.39000010
   12.19861126  167.92999268    4.90999985    2.36999989
   12.20472240  167.92999268    4.90999985    2.36999989
   12.20861053  186.36199951    4.90999985    2.36999989
   12.21194458  176.17700195    4.90999985    2.39000010
   12.21527767  171.81199646    4.90999985    2.39000010
   12.21805477  172.77499390    4.90999985    2.40000010
   12.21888828  183.55700684    4.90999985    2.39000010
   12.22222137  195.95500183    4.90999985    2.39000010
   12.22527695  169.49899292    4.90999985    2.39000010
   12.22861099  184.29100037    4.90999985    2.39000010
   12.23194408  184.51899719    4.90999985    2.39000010
   12.23500061  174.65800476    4.90999985    2.39000010
   12.23833370  165.03900146    4.90999985    2.39000010
   12.24166679  177.11399841    4.90999985    2.40000010
   12.24750042  177.11399841    4.90999985    2.40000010
   12.25166702  171.68699646    4.90999985    2.40000010
   12.25472260  161.79200745    4.90999985    2.40000010
   12.25805569  164.38499451    4.90999985    2.40000010
   12.26138878  163.22799683    4.90999985    2.40000010
   12.26444435  182.60800171    4.90999985    2.40000010
   12.26777744  157.59300232    4.90999985    2.40000010
   12.27083302  177.90699768    4.90999985    2.40000010
   12.27416611  162.38099670    4.90999985    2.40000010
   12.27750015  177.15699768    4.90999985    2.40000010
   12.28055573  160.27999878    4.90999985    2.40000010
   12.28388977  174.87899780    4.90999985    2.40000010
   12.28472233  175.42799377    4.90999985    2.42000008
   12.29027843  175.42799377    4.90999985    2.42000008
   12.29444504  169.54899597    4.90999985    2.42000008
   12.29777813  162.45300293    4.90999985    2.42000008
   12.30083370  172.65600586    4.90999985    2.42000008
   12.30416679  170.38600159    4.90999985    2.42000008
   12.30722237  188.94299316    4.90999985    2.42000008
   12.31055546  175.51199341    4.90999985    2.42000008
   12.31388950  171.45399475    4.90999985    2.42000008
   12.31694412  162.75500488    4.90999985    2.44000006
   12.31805515  154.91799927    4.90999985    2.44000006
   12.32055569  170.46600342    4.90999985    2.44000006
   12.32388878  170.53999329    4.90999985    2.42000008
   12.32722187  185.02400208    4.90999985    2.44000006
   12.33305550  185.02400208    4.90999985    2.44000006
   12.33722210  173.47200012    4.90999985    2.44000006
   12.34055519  178.61000061    4.90999985    2.44000006
   12.34361076  165.29699707    4.90999985    2.44000006
   12.34694386  165.86000061    4.90999985    2.44000006
   12.35027790  170.82899475    4.90999985    2.44000006
   12.35138893  169.47900391    4.90999985    2.44000006
   12.35361195  171.82000732    4.90999985    2.44000006
   12.35694504  163.48599243    4.90999985    2.44000006
   12.36055565  173.61599731    4.90999985    2.44000006
   12.36416721  161.12600708    4.90999985    2.46000004
   12.36722279  171.16200256    4.90999985    2.46000004
   12.37055588  167.97300720    4.90999985    2.44000006
   12.37611103  167.97300720    4.90999985    2.46000004
   12.38000011  209.06300354    4.90999985    2.46000004
   12.38333321  191.63600159    4.90999985    2.46000004
   12.38472176  183.58099365    4.90999985    2.46000004
   12.38694477  203.88499451    4.90999985    2.46000004
   12.39027786  211.36999512    4.90999985    2.48000002
   12.39361095  170.00700378    4.90999985    2.46000004
   12.39666653  167.49400330    4.90999985    2.48000002
   12.39999962  167.87600708    4.90999985    2.48000002
   12.40305519  163.65199280    4.90999985    2.46000004
   12.40638828  159.67399597    4.90999985    2.46000004
   12.40972137  166.90299988    4.90999985    2.46000004
   12.41277695  169.92199707    4.90999985    2.48000002
   12.41888905  169.92199707    4.90999985    2.48000002
   12.42305565  171.66700745    4.90999985    2.48000002
   12.42611122  169.80599976    4.90999985    2.48000002
   12.42944431  170.17900085    4.90999985    2.48000002
   12.43277836  192.30000305    4.90999985    2.48000002
   12.43583298  190.98399353    4.90999985    2.48000002
   12.43916702  187.18899536    4.90999985    2.48000002
   12.44222260  207.04200745    4.90999985    2.48000002
   12.44555569  217.27600098    4.90999985    2.48000002
   12.44888878  201.08000183    4.90999985    2.50000000
   12.45138836  203.73500061    4.90999985    2.48000002
   12.45222187  205.58500671    4.90999985    2.50000000
   12.45555496  186.79200745    4.90999985    2.50000000
   12.46166611  186.79200745    4.90999985    2.48000002
   12.46583271  208.01199341    4.90999985    2.48000002
   12.46916580  161.32200623    4.90999985    2.50000000
   12.47222137  164.60200500    4.90999985    2.50000000
   12.47555542  179.91499329    4.90999985    2.50000000
   12.47861099  165.72300720    4.90999985    2.50000000
   12.48194408  146.92999268    4.90999985    2.50000000
   12.48472214  166.03199768    4.90999985    2.50000000
   12.48555565  153.22900391    4.90999985    2.50000000
   12.48888874  173.25399780    4.90999985    2.50000000
   12.49222279  171.98699951    4.90999985    2.50000000
   12.49527836  174.61700439    4.90999985    2.51999998
   12.49861145  171.64399719    4.90999985    2.50000000
   12.51888847   75.53980255    4.90999985    2.51999998
   12.51944447  101.92199707    4.90999985    2.51999998
   12.52277756  175.33200073    4.90999985    2.51999998
   12.52583313  160.44200134    4.90999985    2.51999998
   12.52916622  164.86599731    4.90999985    2.51999998
   12.53249931  161.10800171    4.90999985    2.51999998
   12.53555584  160.69200134    4.90999985    2.53999996
   12.53888893  162.01699829    4.90999985    2.50000000
   12.54222298  172.58299255    4.90999985    2.51999998
   12.54750061  172.58299255    4.90999985    2.51999998
   12.55138874  163.28100586    4.90999985    2.51999998
   12.55194473  175.47300720    4.90999985    2.51999998
   12.55527782  165.69599915    4.90999985    2.53999996
   12.55861092  168.68099976    4.90999985    2.53999996
   12.56166649  169.89799500    4.90999985    2.51999998
   12.56500053  179.49200439    4.90999985    2.53999996
   12.56833363  175.49800110    4.90999985    2.53999996
   12.57138920  167.43200684    4.90999985    2.51999998
   12.57472229  184.79400635    4.90999985    2.53999996
   12.57777786  158.74800110    4.90999985    2.53999996
   12.58111095  189.32400513    4.90999985    2.53999996
   12.58444405  178.09100342    4.90999985    2.53999996
   12.58527756  186.65699768    4.90999985    2.53999996
   12.59027767  186.65699768    4.90999985    2.53999996
   12.59444427  175.30799866    4.90999985    2.55999994
   12.59749985  171.33200073    4.90999985    2.53999996
   12.60083389  153.89100647    4.90999985    2.55999994
   12.60416698  165.59100342    4.90999985    2.53999996
   12.60722256  168.93400574    4.90999985    2.55999994
   12.61055565  156.76300049    4.90999985    2.55999994
   12.61361122  161.19200134    4.90999985    2.55999994
   12.61694431  151.93699646    4.90999985    2.53999996
   12.61861134  165.74499512    4.90999985    2.53999996
   12.62055588  157.69599915    4.90999985    2.55999994
   12.62388897  158.63999939    4.90999985    2.55999994
   12.62694454  157.37800598    4.90999985    2.55999994
   12.63305569  157.37800598    4.90999985    2.55999994
   12.63722229  157.90899658    4.90999985    2.55999994
   12.64055538  148.69599915    4.90999985    2.55999994
   12.64361095  158.58799744    4.90999985    2.55999994
   12.64694405  157.41200256    4.90999985    2.55999994
   12.64999962  170.05700684    4.90999985    2.55999994
   12.65194416  151.25799561    4.90999985    2.55999994
   12.65361118  154.62199402    4.90999985    2.55999994
   12.65694427  149.99499512    4.90999985    2.57999992
   12.65999985  154.82299805    4.90999985    2.57999992
   12.66333294  158.85200500    4.90999985    2.55999994
   12.66666698  168.94599915    4.90999985    2.57999992
   12.66972256  152.36599731    4.90999985    2.55999994
   12.67583370  152.36599731    4.90999985    2.57999992
   12.68000031  158.34700012    4.90999985    2.57999992
   12.68333340  146.98199463    4.90999985    2.57999992
   12.68555546  150.98399353    4.90999985    2.57999992
   12.68694496  154.96299744    4.90999985    2.55999994
   12.69027805  166.05099487    4.90999985    2.57999992
   12.69333363  138.03700256    4.90999985    2.57999992
   12.69666672  149.92599487    4.90999985    2.57999992
   12.69999981  148.39900208    4.90999985    2.57999992
   12.70305538  159.43600464    4.90999985    2.59999990
   12.70638847  148.90299988    4.90999985    2.57999992
   12.70972157  158.37300110    4.90999985    2.59999990
   12.71277714  153.62300110    4.90999985    2.57999992
   12.71861076  153.62300110    4.90999985    2.57999992
   12.72277737  155.14300537    4.90999985    2.57999992
   12.72611046  150.69799805    4.90999985    2.57999992
   12.72944355  146.15100098    4.90999985    2.57999992
   12.73249912  135.48100281    4.90999985    2.57999992
   12.73583317  142.93499756    4.90999985    2.57999992
   12.73916721  150.81199646    4.90999985    2.59999990
   12.74222279  153.25599670    4.90999985    2.59999990
   12.74555588  141.85200500    4.90999985    2.59999990
   12.74861145  145.68600464    4.90999985    2.59999990
   12.75194454  152.28999329    4.90999985    2.59999990
   12.75388908  135.14500427    4.90999985    2.59999990
   12.75555515  156.01499939    4.90999985    2.59999990
   12.76166630  156.01499939    4.90999985    2.59999990
   12.76583290  143.34199524    4.90999985    2.59999990
   12.76888847  153.89500427    4.90999985    2.59999990
   12.77222157  156.45700073    4.90999985    2.59999990
   12.77527714  146.03799438    4.90999985    2.61999989
   12.77861118  147.64300537    4.90999985    2.59999990
   12.78194427  150.33999634    4.90999985    2.61999989
   12.78500080  151.75000000    4.90999985    2.59999990
   12.78722286  123.92099762    4.90999985    2.61999989
   12.78861141  139.29499817    4.90999985    2.59999990
   12.79194450  133.14199829    4.90999985    2.59999990
   12.79527855  149.98300171    4.90999985    2.61999989
   12.79833412  143.32499695    4.90999985    2.61999989
   12.80444431  143.32499695    4.90999985    2.61999989
   12.80861092  142.16400146    4.90999985    2.61999989
   12.81166649  143.83200073    4.90999985    2.59999990
   12.81500053  147.09100342    4.90999985    2.59999990
   12.81833363  157.38299561    4.90999985    2.59999990
   12.82055569  144.49899292    4.90999985    2.61999989
   12.82194424  143.80299377    4.90999985    2.61999989
   12.82527733  142.95599365    4.90999985    2.61999989
   12.82833290  132.24299622    4.90999985    2.61999989
   12.83166695  135.77000427    4.90999985    2.61999989
   12.83500004  137.47399902    4.90999985    2.61999989
   12.83805561  132.85400391    4.90999985    2.61999989
   12.84138870  139.29899597    4.90999985    2.64000010
   12.84722233  139.29899597    4.90999985    2.64000010
   12.85138893  146.39399719    4.90999985    2.64000010
   12.85388947  142.24800110    4.90999985    2.61999989
   12.85500050  145.02699280    4.90999985    2.61999989
   12.85833359  141.47300720    4.90999985    2.64000010
   12.86138916  132.15800476    4.90999985    2.64000010
   12.86472225  132.30200195    4.90999985    2.64000010
   12.86805534  140.24499512    4.90999985    2.61999989
   12.87111092  144.64799500    4.90999985    2.64000010
   12.87444496  128.76600647    4.90999985    2.64000010
   12.87750053  139.67399597    4.90999985    2.61999989
   12.88083363  135.78300476    4.90999985    2.64000010
   12.88416672  134.83399963    4.90999985    2.64000010
   12.89000034  134.83399963    4.90999985    2.64000010
   12.89416695  140.86799622    4.90999985    2.64000010
   12.89750004  134.82699585    4.90999985    2.64000010
   12.90083313  135.80299377    4.90999985    2.64000010
   12.90388870  143.76699829    4.90999985    2.64000010
   12.90722179  137.99899292    4.90999985    2.64000010
   12.91027737  133.67900085    4.90999985    2.64000010
   12.91361046  136.75799561    4.90999985    2.64000010
   12.91694450  144.81300354    4.90999985    2.64000010
   12.92000008  149.33299255    4.90999985    2.64000010
   12.92111111  190.96200562    4.90999985    2.66000009
   12.92361164  174.50999451    4.90999985    2.64000010
   12.92694473  163.05799866    4.90999985    2.64000010
   12.93305588  163.05799866    4.90999985    2.66000009
   12.93722248  152.80200195    4.90999985    2.64000010
   12.94027805  161.96200562    4.90999985    2.64000010
   12.94361115  143.11399841    4.90999985    2.66000009
   12.94666672  144.29299927    4.90999985    2.64000010
   12.94999981  149.47399902    4.90999985    2.66000009
   12.95333290  147.43499756    4.90999985    2.66000009
   12.95444393  138.30200195    4.90999985    2.66000009
   12.95666695  136.02000427    4.90999985    2.64000010
   12.96000004  130.51600647    4.90999985    2.67000008
   12.96333313  144.44500732    4.90999985    2.64000010
   12.96638870  137.27900696    4.90999985    2.66000009
   12.96972179  135.26499939    4.90999985    2.66000009
   12.97583294  135.26499939    4.90999985    2.66000009
   12.97999954  139.36000061    4.90999985    2.66000009
   12.98305511  149.10600281    4.90999985    2.66000009
   12.98638916  128.45500183    4.90999985    2.66000009
   12.98777771  142.12699890    4.90999985    2.66000009
   12.99000072  141.02400208    4.90999985    2.66000009
   12.99333382  132.05900574    4.90999985    2.66000009
   12.99638939  147.91999817    4.90999985    2.66000009
   12.99972248  131.56399536    4.90999985    2.66000009
   13.00305557  140.45199585    4.90999985    2.66000009
   13.00611115  147.69500732    4.90999985    2.66000009
   13.00944424  153.20100403    4.90999985    2.67000008
   13.01249981  136.11799622    4.90999985    2.66000009
   13.01861095  136.11799622    4.90999985    2.67000008
   13.02277756  134.02200317    4.90999985    2.66000009
   13.02611065  134.10499573    4.90999985    2.67000008
   13.02916622  144.52600098    4.90999985    2.66000009
   13.03249931  141.20300293    4.90999985    2.66000009
   13.03583336  136.45100403    4.90999985    2.67000008
   13.03888893  130.38400269    4.90999985    2.66000009
   13.04222298  127.99299622    4.90999985    2.66000009
   13.04527855  120.22599792    4.90999985    2.67000008
   13.04861164  136.43499756    4.90999985    2.67000008
   13.05194473  125.86499786    4.90999985    2.67000008
   13.05472279  131.25199890    4.90999985    2.67000008
   13.05555534  122.39600372    4.90999985    2.67000008
   13.06138897  122.39600372    4.90999985    2.67000008
   13.06555557  121.31900024    4.90999985    2.67000008
   13.06888866  128.98699951    4.90999985    2.66000009
   13.07222176  132.56199646    4.90999985    2.67000008
   13.07527733  134.12199402    4.90999985    2.67000008
   13.07861137  122.94899750    4.90999985    2.67000008
   13.08166695  125.33799744    4.90999985    2.67000008
   13.08500004  136.27400208    4.90999985    2.67000008
   13.08805561  127.58799744    4.90999985    2.66000009
   13.08861065  138.25500488    4.90999985    2.69000006
   13.09194374  125.09999847    4.90999985    2.67000008
   13.09499931  121.23699951    4.90999985    2.69000006
   13.09833336  122.52400208    4.90999985    2.67000008
   13.10444450  122.52400208    4.90999985    2.67000008
   13.10861111  131.16600037    4.90999985    2.67000008
   13.11166668  123.72699738    4.90999985    2.69000006
   13.11500072  126.46900177    4.90999985    2.69000006
   13.11805534  118.27700043    4.90999985    2.69000006
   13.12138939  131.06399536    4.90999985    2.69000006
   13.12166691  127.78099823    4.90999985    2.69000006
   13.12500000  128.89100647    4.90999985    2.69000006
   13.12805557  134.19500732    4.90999985    2.69000006
   13.13138866  137.80499268    4.90999985    2.69000006
   13.13472176  129.47000122    4.90999985    2.69000006
   13.13777733  129.35600281    4.90999985    2.69000006
   13.14111137  118.39800262    4.90999985    2.69000006
   13.14722252  118.39800262    4.90999985    2.69000006
   13.15138817  121.53500366    4.90999985    2.69000006
   13.15472221  126.13200378    4.90999985    2.69000006
   13.15499973  134.12300110    4.90999985    2.69000006
   13.15833282  128.77200317    4.90999985    2.71000004
   13.16138840  118.89600372    4.90999985    2.69000006
   13.16472149  127.08999634    4.90999985    2.69000006
   13.16805553  118.91200256    4.90999985    2.69000006
   13.17111111  116.27600098    4.90999985    2.69000006
   13.17444515  129.45799255    4.90999985    2.69000006
   13.17777824  128.92300415    4.90999985    2.69000006
   13.18083382  118.31400299    4.90999985    2.69000006
   13.18416691  126.15699768    4.90999985    2.69000006
   13.19000053  126.15699768    4.90999985    2.69000006
   13.19416714  126.03399658    4.90999985    2.69000006
   13.19750023  127.79799652    4.90999985    2.69000006
   13.20055580  130.58399963    4.90999985    2.71000004
   13.20388889  128.95199585    4.90999985    2.69000006
   13.20722198  121.26200104    4.90999985    2.69000006
   13.21027756  121.83899689    4.90999985    2.71000004
   13.21361065  119.93399811    4.90999985    2.69000006
   13.21694374  122.47599792    4.90999985    2.71000004
   13.21999931  126.62699890    4.90999985    2.69000006
   13.22138882  121.69000244    4.90999985    2.71000004
   13.22361088  130.83099365    4.90999985    2.69000006
   13.22694397  133.42199707    4.90999985    2.71000004
   13.23277760  133.42199707    4.90999985    2.71000004
   13.23694515  120.99299622    4.90999985    2.71000004
   13.24027824  125.82199860    4.90999985    2.69000006
   13.24361134  123.76599884    4.90999985    2.71000004
   13.24666691  127.89499664    4.90999985    2.71000004
   13.25000000  118.48400116    4.90999985    2.69000006
   13.25305557  122.76000214    4.90999985    2.71000004
   13.25472260  129.93400574    4.90999985    2.71000004
   13.25666714  127.85500336    4.90999985    2.69000006
   13.26000023  122.81900024    4.90999985    2.71000004
   13.26333332  123.70200348    4.90999985    2.71000004
   13.26638889  129.39300537    4.90999985    2.71000004
   13.26972198  133.17399597    4.90999985    2.71000004
   13.27583313  133.17399597    4.90999985    2.71000004
   13.40111065   -1.00000000   -1.00000000   -1.00000000
   13.49833393   -1.00000000   -1.00000000   -1.00000000
   13.59944439   -1.00000000   -1.00000000   -1.00000000
   13.65499973   80.04810333    4.90999985    2.76999998
   13.65805531  132.20500183    4.90999985    2.76999998
   13.66138840  128.11000061    4.90999985    2.76999998
   13.66472149  137.71200562    4.90999985    2.76999998
   13.66777802  132.50000000    4.90999985    2.76999998
   13.67111111  139.75199890    4.90999985    2.76999998
   13.67527771  139.75199890    4.90999985    2.76999998
   13.67944431  147.98199463    4.90999985    2.76999998
   13.68249989  129.47999573    4.90999985    2.76999998
   13.68583298  134.34199524    4.90999985    2.76999998
   13.68833351  149.43800354    4.90999985    2.76999998
   13.68944454  137.64799500    4.90999985    2.76999998
   13.69277763  133.65600586    4.90999985    2.76999998
   13.69611073  129.53599548    4.90999985    2.76999998
   13.69916630  148.28199768    4.90999985    2.76999998
   13.70249939  133.20599365    4.90999985    2.76999998
   13.70555496  130.34599304    4.90999985    2.76999998
   13.70888901  130.53700256    4.90999985    2.78999996
   13.71222210  115.46199799    4.90999985    2.78999996
   13.71805477  115.46199799    4.90999985    2.76999998
   13.72222137  131.69099426    4.90999985    2.76999998
   13.72555542  140.53599548    4.90999985    2.76999998
   13.72861099  140.45700073    4.90999985    2.76999998
   13.73194408  125.48699951    4.90999985    2.76999998
   13.73500061  120.47200012    4.90999985    2.76999998
   13.73833370  120.37699890    4.90999985    2.76999998
   13.74166679  121.56800079    4.90999985    2.78999996
   13.74472237  133.88900757    4.90999985    2.76999998
   13.74805546  132.22599792    4.90999985    2.76999998
   13.75138855  128.34899902    4.90999985    2.76999998
   13.75444412  119.47200012    4.90999985    2.76999998
   13.75500011  115.62100220    4.90999985    2.76999998
   13.76083374  115.62100220    4.90999985    2.76999998
   13.76500034  117.92400360    4.90999985    2.76999998
   13.76833344  134.48699951    4.90999985    2.76999998
   13.77138901  120.09899902    4.90999985    2.76999998
   13.77472210  130.55499268    4.90999985    2.76999998
   13.77805519  121.26799774    4.90999985    2.78999996
   13.78111076  126.82599640    4.90999985    2.76999998
   13.78444481  124.25900269    4.90999985    2.78999996
   13.78777790  132.27499390    4.90999985    2.78999996
   13.78833389  129.20599365    4.90999985    2.76999998
   13.79138947  127.93399811    4.90999985    2.78999996
   13.79444504  121.34600067    4.90999985    2.76999998
   13.79777813  124.48300171    4.90999985    2.76999998
   13.80388927  124.48300171    4.90999985    2.76999998
   13.80777836  123.15100098    4.90999985    2.76999998
   13.81111145  135.97099304    4.90999985    2.76999998
   13.81444454  123.75599670    4.90999985    2.76999998
   13.81750011  134.88499451    4.90999985    2.78999996
   13.82083321  127.67800140    4.90999985    2.78999996
   13.82166672  145.54299927    4.90999985    2.78999996
   13.82444477  120.22200012    4.90999985    2.76999998
   13.82750034  134.49099731    4.90999985    2.78999996
   13.83083344  120.38400269    4.90999985    2.80999994
   13.83416653  120.01699829    4.90999985    2.78999996
   13.83722210  118.91999817    4.90999985    2.78999996
   13.84055519  125.75900269    4.90999985    2.76999998
   13.84666634  125.75900269    4.90999985    2.76999998
   13.85083389  121.07599640    4.90999985    2.78999996
   13.85388947  123.32900238    4.90999985    2.78999996
   13.85500050  128.95500183    4.90999985    2.78999996
   13.85777855  116.88200378    4.90999985    2.76999998
   13.86083412  118.84500122    4.90999985    2.78999996
   13.86416721  123.33599854    4.90999985    2.76999998
   13.86750031  133.74600220    4.90999985    2.78999996
   13.87055588  121.98500061    4.90999985    2.78999996
   13.87388897  116.95099640    4.90999985    2.78999996
   13.87722206  114.72100067    4.90999985    2.76999998
   13.88027763  126.32299805    4.90999985    2.78999996
   13.88361073  124.15699768    4.90999985    2.78999996
   13.88944435  124.15699768    4.90999985    2.78999996
   13.89361095  115.56999969    4.90999985    2.76999998
   13.89694405  125.26799774    4.90999985    2.78999996
   13.89999962  117.35199738    4.90999985    2.78999996
   13.90333271  126.57299805    4.90999985    2.78999996
   13.90638828  119.27300262    4.90999985    2.78999996
   13.90972137  122.01999664    4.90999985    2.76999998
   13.91305542  128.33500671    4.90999985    2.78999996
   13.91611099  127.65899658    4.90999985    2.76999998
   13.91944504  122.09500122    4.90999985    2.78999996
   13.92166710  110.73200226    4.90999985    2.76999998
   13.92305565  116.22100067    4.90999985    2.78999996
   13.92611122  118.75900269    4.90999985    2.78999996
   13.93222237  118.75900269    4.90999985    2.78999996
   13.93638897  116.60099792    4.90999985    2.78999996
   13.93972206  116.49900055    4.90999985    2.78999996
   13.94277763  124.49500275    4.90999985    2.78999996
   13.94611073  121.05300140    4.90999985    2.78999996
   13.94944477  125.30500031    4.90999985    2.78999996
   13.95249939  127.38099670    4.90999985    2.78999996
   13.95499992  119.33599854    4.90999985    2.76999998
   13.95638847  120.67400360    4.90999985    2.78999996
   13.95972157  130.40800476    4.90999985    2.78999996
   13.96277714  129.63600159    4.90999985    2.78999996
   13.96611118  125.15200043    4.90999985    2.78999996
   13.96916580  124.11799622    4.90999985    2.78999996
   13.97527695  124.11799622    4.90999985    2.80999994
   13.97916603  132.49099731    4.90999985    2.76999998
   13.98249912  116.16000366    4.90999985    2.78999996
   13.98583317  133.37399292    4.90999985    2.78999996
   13.98833370  123.41200256    4.90999985    2.78999996
   13.98944473  121.80300140    4.90999985    2.78999996
   13.99250031  125.86499786    4.90999985    2.78999996
   13.99583340  132.79600525    4.90999985    2.78999996
   13.99916649  119.78199768    4.90999985    2.78999996
   14.00222206  118.99600220    4.90999985    2.78999996
   14.00555515  120.08000183    4.90999985    2.78999996
   14.00888920  117.28099823    4.90999985    2.78999996
   14.01194477  126.84100342    4.90999985    2.78999996
   14.01805496  126.84100342    4.90999985    2.78999996
   14.02222157  122.61399841    4.90999985    2.78999996
   14.02527714  133.51199341    4.90999985    2.78999996
   14.02861118  121.24700165    4.90999985    2.80999994
   14.03194427  123.42500305    4.90999985    2.78999996
   14.03500080  118.53700256    4.90999985    2.80999994
   14.03833389  119.32499695    4.90999985    2.78999996
   14.04138947  116.30899811    4.90999985    2.80999994
   14.04472256  112.46800232    4.90999985    2.80999994
   14.04805565  119.04299927    4.90999985    2.78999996
   14.05111122  117.28299713    4.90999985    2.80999994
   14.05444431  121.02300262    4.90999985    2.78999996
   14.05500031  119.93399811    4.90999985    2.78999996
   14.06083393  119.93399811    4.90999985    2.78999996
   14.06500053  125.98600006    4.90999985    2.80999994
   14.06833363  127.63099670    4.90999985    2.80999994
   14.07138920  122.63200378    4.90999985    2.80999994
   14.07472229  115.20099640    4.90999985    2.82999992
   14.07805538  123.21199799    4.90999985    2.78999996
   14.08111095  123.37999725    4.90999985    2.80999994
   14.08444405  122.26499939    4.90999985    2.82999992
   14.08777714  120.84799957    4.90999985    2.82999992
   14.08833313  126.52500153    4.90999985    2.80999994
   14.09138870  120.00900269    4.90999985    2.80999994
   14.09472179  132.12600708    4.90999985    2.80999994
   14.09777737  114.96399689    4.90999985    2.80999994
   14.10361195  114.96399689    4.90999985    2.80999994
   14.10777855  125.42700195    4.90999985    2.80999994
   14.11111164  129.13099670    4.90999985    2.78999996
   14.11416721  125.30699921    4.90999985    2.80999994
   14.11750031  117.30500031    4.90999985    2.78999996
   14.12083340  124.51799774    4.90999985    2.78999996
   14.12166691  120.59400177    4.90999985    2.78999996
   14.12444496  121.43299866    4.90999985    2.80999994
   14.12777805  120.42700195    4.90999985    2.78999996
   14.13083363  116.43800354    4.90999985    2.80999994
   14.13416672  122.73799896    4.90999985    2.80999994
   14.13722229  125.95400238    4.90999985    2.80999994
   14.14055538  133.39300537    4.90999985    2.80999994
   14.14666653  133.39300537    4.90999985    2.82999992
   14.15055561  120.00299835    4.90999985    2.82999992
   14.15388870  117.53099823    4.90999985    2.80999994
   14.15499973  124.87899780    4.90999985    2.80999994
   14.15749931  121.18599701    4.90999985    2.80999994
   14.16083336  123.33999634    4.90999985    2.78999996
   14.16388893  122.40899658    4.90999985    2.82999992
   14.16722298  131.68400574    4.90999985    2.80999994
   14.17027855  118.45300293    4.90999985    2.80999994
   14.17361164  123.65299988    4.90999985    2.80999994
   14.17694473  120.38300323    4.90999985    2.80999994
   14.18000031  119.27700043    4.90999985    2.82999992
   14.18333340  128.06700134    4.90999985    2.82999992
   14.18944454  128.06700134    4.90999985    2.82999992
   14.19361115  126.24800110    4.90999985    2.82999992
   14.19666672  116.21099854    4.90999985    2.82999992
   14.19999981  120.83200073    4.90999985    2.80999994
   14.20333290  116.44499969    4.90999985    2.80999994
   14.20638847  125.60600281    4.90999985    2.80999994
   14.20972157  128.20799255    4.90999985    2.80999994
   14.21277714  121.00000000    4.90999985    2.82999992
   14.21611118  128.19900513    4.90999985    2.82999992
   14.21944427  128.68099976    4.90999985    2.80999994
   14.22166634  115.46199799    4.90999985    2.80999994
   14.22305489  119.65299988    4.90999985    2.80999994
   14.22638798  119.84200287    4.90999985    2.80999994
   14.23222160  119.84200287    4.90999985    2.82999992
   14.23638916  119.84600067    4.90999985    2.82999992
   14.23944473  122.73100281    4.90999985    2.80999994
   14.24277782  119.94799805    4.90999985    2.80999994
   14.24611092  126.08100128    4.90999985    2.80999994
   14.24916649  129.69599915    4.90999985    2.80999994
   14.25249958  135.47599792    4.90999985    2.80999994
   14.25500011  143.10899353    4.90999985    2.80999994
   14.25611115  136.60899353    4.90999985    2.82999992
   14.25944424  129.29699707    4.90999985    2.82999992
   14.26249981  129.50799561    4.90999985    2.80999994
   14.26583290  119.94999695    4.90999985    2.80999994
   14.26888847  128.38099670    4.90999985    2.82999992
   14.27499962  128.38099670    4.90999985    2.80999994
   14.27916622  129.91400146    4.90999985    2.80999994
   14.28249931  123.84500122    4.90999985    2.80999994
   14.28555584  132.11799622    4.90999985    2.82999992
   14.28833389  124.09700012    4.90999985    2.82999992
   14.28916740  140.56599426    4.90999985    2.82999992
   14.29250050  121.11900330    4.90999985    2.80999994
   14.29555607  133.35099792    4.90999985    2.80999994
   14.29888916  118.65200043    4.90999985    2.80999994
   14.30194473  128.00799561    4.90999985    2.80999994
   14.30527782  116.68499756    4.90999985    2.80999994
   14.30861092  126.39199829    4.90999985    2.80999994
   14.31166649  124.92199707    4.90999985    2.82999992
   14.31805515  124.92199707    4.90999985    2.82999992
   14.32194424  137.93200684    4.90999985    2.82999992
   14.32527733  145.20700073    4.90999985    2.82999992
   14.32861137  130.38200378    4.90999985    2.82999992
   14.33166695  124.86299896    4.90999985    2.80999994
   14.33500004  138.48500061    4.90999985    2.82999992
   14.33833313  128.83000183    4.90999985    2.82999992
   14.34138870  143.50700378    4.90999985    2.80999994
   14.34472179   75.83260345    4.90999985    2.82999992
   14.34777737  109.18299866    4.90999985    2.80999994
   14.35111141  123.48699951    4.90999985    2.82999992
   14.35444450  125.20700073    4.90999985    2.82999992
   14.35500050  120.42099762    4.90999985    2.82999992
   14.36083412  120.42099762    4.90999985    2.80999994
   14.36500072  125.34799957    4.90999985    2.82999992
   14.36805534  129.28999329    4.90999985    2.80999994
   14.37138939  116.26000214    4.90999985    2.82999992
   14.37472248  121.39199829    4.90999985    2.82999992
   14.37777805  130.96400452    4.90999985    2.82999992
   14.38111115  130.55799866    4.90999985    2.80999994
   14.38416672  118.44000244    4.90999985    2.82999992
   14.38749981  122.03900146    4.90999985    2.82999992
   14.38833332  118.76300049    4.90999985    2.82999992
   14.39111137  123.68599701    4.90999985    2.80999994
   14.39444447  131.94900513    4.90999985    2.82999992
   14.39750004  123.51999664    4.90999985    2.82999992
   14.40361118  123.51999664    4.90999985    2.82999992
   14.40777779  114.99400330    4.90999985    2.82999992
   14.41111088  120.52600098    4.90999985    2.82999992
   14.41416645  123.95099640    4.90999985    2.82999992
   14.41750050  134.04600525    4.90999985    2.82999992
   14.42055607  134.94099426    4.90999985    2.82999992
   14.42166710  136.35699463    4.90999985    2.82999992
   14.42416668  127.32199860    4.90999985    2.82999992
   14.42750072  117.44499969    4.90999985    2.82999992
   14.43055630  143.16299438    4.90999985    2.82999992
   14.43388939  131.33999634    4.90999985    2.82999992
   14.43722248  128.42300415    4.90999985    2.82999992
   14.44027805  134.97399902    4.90999985    2.82999992
   14.44638920  134.97399902    4.90999985    2.82999992
   14.45055580  129.32800293    4.90999985    2.82999992
   14.45388889  122.98799896    4.90999985    2.80999994
   14.45499992  115.55599976    4.90999985    2.82999992
   14.45749950  131.45199585    4.90999985    2.80999994
   14.46083355  119.30999756    4.90999985    2.82999992
   14.46388912  118.92800140    4.90999985    2.82999992
   14.46722221  123.02300262    4.90999985    2.82999992
   14.47055531  119.88400269    4.90999985    2.82999992
   14.47361088  123.80400085    4.90999985    2.82999992
   14.47694397  128.55299377    4.90999985    2.82999992
   14.47999954  130.99400330    4.90999985    2.82999992
   14.48333359  123.06500244    4.90999985    2.84999990
   14.48944473  123.06500244    4.90999985    2.82999992
   14.49333382  132.21699524    4.90999985    2.82999992
   14.49666691  120.73000336    4.90999985    2.82999992
   14.50000000  133.83099365    4.90999985    2.82999992
   14.50305557  125.28700256    4.90999985    2.82999992
   14.50638866  127.98500061    4.90999985    2.82999992
   14.50972176  122.90499878    4.90999985    2.82999992
   14.51277733  126.08799744    4.90999985    2.82999992
   14.51611137  132.90899658    4.90999985    2.82999992
   14.51916599  120.13300323    4.90999985    2.84999990
   14.52166653  135.29699707    4.90999985    2.84999990
   14.52277756  126.66100311    4.90999985    2.82999992
   14.52611065  131.30999756    4.90999985    2.82999992
   14.53222179  131.30999756    4.90999985    2.84999990
   14.53638935  142.28100586    4.90999985    2.84999990
   14.53944492  133.19299316    4.90999985    2.84999990
   14.54277802  136.59500122    4.90999985    2.82999992
   14.54583359  126.71800232    4.90999985    2.84999990
   14.54916668  129.89700317    4.90999985    2.84999990
   14.55249977  125.28099823    4.90999985    2.84999990
   14.55527782  136.32099915    4.90999985    2.82999992
   14.55611134  153.75999451    4.90999985    2.82999992
   14.55944443  141.45700073    4.90999985    2.84999990
   14.56250000  121.22299957    4.90999985    2.82999992
   14.56583309  121.71399689    4.90999985    2.84999990
   14.56916618  127.38700104    4.90999985    2.84999990
   14.57499981  127.38700104    4.90999985    2.82999992
   14.57916641  133.35299683    4.90999985    2.84999990
   14.58222198  140.29800415    4.90999985    2.82999992
   14.58555508  137.05200195    4.90999985    2.82999992
   14.58861065  136.54800415    4.90999985    2.84999990
   14.58916664  134.81100464    4.90999985    2.84999990
   14.59249973  130.70700073    4.90999985    2.84999990
   14.59555531  128.16000366    4.90999985    2.84999990
   14.59888840  125.77700043    4.90999985    2.82999992
   14.60222244  133.43699646    4.90999985    2.84999990
   14.60527802  125.54199982    4.90999985    2.84999990
   14.60861111  128.81900024    4.90999985    2.84999990
   14.61194515  129.97999573    4.90999985    2.84999990
   14.61777782  129.97999573    4.90999985    2.82999992
   14.62194443  127.93900299    4.90999985    2.84999990
   14.62527752  131.64799500    4.90999985    2.84999990
   14.62833309  134.44400024    4.90999985    2.84999990
   14.63166714  133.18499756    4.90999985    2.82999992
   14.63500023  128.59800720    4.90999985    2.84999990
   14.63805580  127.21600342    4.90999985    2.84999990
   14.64138889  120.52600098    4.90999985    2.84999990
   14.64444447  122.48699951    4.90999985    2.84999990
   14.64777756  129.20399475    4.90999985    2.82999992
   14.65111065  135.36099243    4.90999985    2.84999990
   14.65416622  125.24400330    4.90999985    2.84999990
   14.65527725  124.42700195    4.90999985    2.84999990
   14.67583370  124.42700195    4.90999985    2.84999990
   14.68000031  134.11099243    4.90999985    2.84999990
   14.68333340  126.03099823    4.90999985    2.84999990
   14.68638897  130.71699524    4.90999985    2.84999990
   14.68861103  136.74099731    4.90999985    2.82999992
   14.69000053  129.64300537    4.90999985    2.84999990
   14.69333363  134.93899536    4.90999985    2.84999990
   14.69666672  126.28900146    4.90999985    2.84999990
   14.69972229  132.05599976    4.90999985    2.84999990
   14.70305538  138.50599670    4.90999985    2.84999990
   14.70611095  130.76899719    4.90999985    2.84999990
   14.70944405  132.71400452    4.90999985    2.84999990
   14.71277714  130.94999695    4.90999985    2.84999990
   14.71861076  130.94999695    4.90999985    2.84999990
   14.72277737  125.29199982    4.90999985    2.84999990
   14.72611046  121.05999756    4.90999985    2.84999990
   14.72916603  129.96299744    4.90999985    2.82999992
   14.73249912  130.61300659    4.90999985    2.86999989
   14.73555565  129.26699829    4.90999985    2.84999990
   14.73888874  117.04199982    4.90999985    2.84999990
   14.74222279  116.30400085    4.90999985    2.84999990
   14.74527836  127.52200317    4.90999985    2.84999990
   14.74861145  127.76799774    4.90999985    2.84999990
   14.75194454  126.87799835    4.90999985    2.86999989
   14.75500011  125.52899933    4.90999985    2.84999990
   14.75555515  126.47899628    4.90999985    2.84999990
   14.76138878  126.47899628    4.90999985    2.84999990
   14.76555538  126.73200226    4.90999985    2.84999990
   14.76888847  126.49900055    4.90999985    2.84999990
   14.77194405  122.21800232    4.90999985    2.84999990
   14.77527714  134.28799438    4.90999985    2.84999990
   14.77861118  136.56599426    4.90999985    2.84999990
   14.78166676  138.33900452    4.90999985    2.84999990
   14.78500080  130.54100037    4.90999985    2.86999989
   14.78833389  131.85699463    4.90999985    2.86999989
   14.78888893  123.31400299    4.90999985    2.86999989
   14.79194450  120.38899994    4.90999985    2.84999990
   14.79500008  133.62199402    4.90999985    2.84999990
   14.79833412  132.04100037    4.90999985    2.84999990
   14.80444431  132.04100037    4.90999985    2.84999990
   14.80833340  125.73000336    4.90999985    2.84999990
   14.81166649  128.75100708    4.90999985    2.84999990
   14.81500053  122.33499908    4.90999985    2.84999990
   14.81805515  131.76499939    4.90999985    2.84999990
   14.82138920  127.74199677    4.90999985    2.86999989
   14.82222176  121.80400085    4.90999985    2.86999989
   14.82499981  127.85700226    4.90999985    2.84999990
   14.82805538  134.34599304    4.90999985    2.84999990
   14.83138847  128.18099976    4.90999985    2.84999990
   14.83472157  130.98500061    4.90999985    2.84999990
   14.83777714  135.66299438    4.90999985    2.84999990
   14.84111118  121.09700012    4.90999985    2.84999990
   14.84722233  121.09700012    4.90999985    2.84999990
   14.85138893  117.62000275    4.90999985    2.84999990
   14.85444450  130.50100708    4.90999985    2.86999989
   14.85555553  114.59700012    4.90999985    2.86999989
   14.85833359  121.06400299    4.90999985    2.84999990
   14.86138916  120.05999756    4.90999985    2.86999989
   14.86472225  122.42199707    4.90999985    2.84999990
   14.86805534  119.76599884    4.90999985    2.84999990
   14.87111092  127.45300293    4.90999985    2.84999990
   14.87444496  121.68099976    4.90999985    2.84999990
   14.87777805  128.29400635    4.90999985    2.86999989
   14.88083363  121.30300140    4.90999985    2.86999989
   14.88416672  132.19500732    4.90999985    2.84999990
   14.89000034  132.19500732    4.90999985    2.84999990
   14.89416695  130.29600525    4.90999985    2.84999990
   14.89750004  121.84500122    4.90999985    2.84999990
   14.90055561  125.81999969    4.90999985    2.84999990
   14.90388870  137.77099609    4.90999985    2.84999990
   14.90694427  132.74400330    4.90999985    2.84999990
   14.91027737  135.52799988    4.90999985    2.84999990
   14.91361046  138.47900391    4.90999985    2.84999990
   14.91666698  136.01100159    4.90999985    2.86999989
   14.92000008  127.61699677    4.90999985    2.86999989
   14.92222214  135.20700073    4.90999985    2.86999989
   14.92361164  134.08099365    4.90999985    2.86999989
   14.92666721  140.16000366    4.90999985    2.86999989
   14.93277836  140.16000366    4.90999985    2.84999990
   14.93694496  138.14599609    4.90999985    2.84999990
   14.94027805  127.57499695    4.90999985    2.86999989
   14.94333363  137.26400757    4.90999985    2.84999990
   14.94666672  125.97599792    4.90999985    2.84999990
   14.94999981  134.00000000    4.90999985    2.84999990
   14.95305538  136.59300232    4.90999985    2.86999989
   14.95555496  135.49200439    4.90999985    2.86999989
   14.95694447  131.06199646    4.90999985    2.84999990
   14.96000004  128.20300293    4.90999985    2.84999990
   14.96333313  131.21000671    4.90999985    2.84999990
   14.96666622  128.53100586    4.90999985    2.84999990
   14.96972179  131.11500549    4.90999985    2.86999989
   14.97583294  131.11500549    4.90999985    2.86999989
   14.97972202  120.46099854    4.90999985    2.86999989
   14.98305511  127.73000336    4.90999985    2.86999989
   14.98638916  137.26400757    4.90999985    2.86999989
   14.98888874  126.06700134    4.90999985    2.86999989
   14.99000072  124.70400238    4.90999985    2.86999989
   14.99305534  137.17700195    4.90999985    2.84999990
   14.99638939  131.18099976    4.90999985    2.86999989
   14.99972248  131.59800720    4.90999985    2.86999989
   15.00277805  120.09300232    4.90999985    2.84999990
   15.00611115  119.81800079    4.90999985    2.86999989
   15.00944424  126.78600311    4.90999985    2.84999990
   15.01249981  135.00199890    4.90999985    2.84999990
   15.01861095  135.00199890    4.90999985    2.86999989
   15.02277756  133.21600342    4.90999985    2.86999989
   15.02583313  145.61500549    4.90999985    2.86999989
   15.02916622  138.95799255    4.90999985    2.86999989
   15.03222179  125.80500031    4.90999985    2.86999989
   15.03555584  127.91799927    4.90999985    2.86999989
   15.03888893  133.08500671    4.90999985    2.84999990
   15.04194450  139.16499329    4.90999985    2.86999989
   15.04527855  121.02300262    4.90999985    2.86999989
   15.04861164  134.44900513    4.90999985    2.86999989
   15.05166721  131.32099915    4.90999985    2.86999989
   15.05500031  144.94700623    4.90999985    2.86999989
   15.05555534  138.89199829    4.90999985    2.86999989
   15.06138897  138.89199829    4.90999985    2.86999989
   15.06555557  133.21600342    4.90999985    2.86999989
   15.06861115  149.38400269    4.90999985    2.86999989
   15.07194424  144.09100342    4.90999985    2.86999989
   15.07527733  128.27200317    4.90999985    2.86999989
   15.07833290  149.42900085    4.90999985    2.86999989
   15.08166695  134.85499573    4.90999985    2.86999989
   15.08500004  135.94099426    4.90999985    2.86999989
   15.08805561  141.93400574    4.90999985    2.86999989
   15.08888817  141.35099792    4.90999985    2.86999989
   15.09166622  122.73999786    4.90999985    2.86999989
   15.09499931  145.75500488    4.90999985    2.86999989
   15.09805489  148.38299561    4.90999985    2.86999989
   15.10416698  148.38299561    4.90999985    2.86999989
   15.10833359  152.62699890    4.90999985    2.86999989
   15.11166668  159.64399719    4.90999985    2.86999989
   15.11472225  138.20100403    4.90999985    2.86999989
   15.11805534  153.67300415    4.90999985    2.86999989
   15.12138939  149.84300232    4.90999985    2.86999989
   15.12222195  148.67500305    4.90999985    2.86999989
   15.12500000  151.30900574    4.90999985    2.86999989
   15.12833309  127.94100189    4.90999985    2.86999989
   15.13138866  138.58599854    4.90999985    2.86999989
   15.13472176  133.78300476    4.90999985    2.89000010
   15.13777733  132.83099365    4.90999985    2.86999989
   15.14111137  144.01899719    4.90999985    2.86999989
   15.14722252  144.01899719    4.90999985    2.86999989
   15.15111065  132.35899353    4.90999985    2.86999989
   15.15444374  139.00500488    4.90999985    2.89000010
   15.15555477  135.40299988    4.90999985    2.86999989
   15.15805531  142.51899719    4.90999985    2.86999989
   15.16138840  117.70800018    4.90999985    2.86999989
   15.16444397  141.87500000    4.90999985    2.89000010
   15.16777802  132.78599548    4.90999985    2.86999989
   15.17083359  142.88800049    4.90999985    2.89000010
   15.17416668  149.37100220    4.90999985    2.86999989
   15.17750072  117.39800262    4.90999985    2.86999989
   15.18083382  136.15100098    4.90999985    2.86999989
   15.18388939  142.82699585    4.90999985    2.86999989
   15.19000053  142.82699585    4.90999985    2.86999989
   15.19416714  155.67900085    4.90999985    2.89000010
   15.19722271  142.78300476    4.90999985    2.86999989
   15.20055580  129.76600647    4.90999985    2.86999989
   15.20361137  150.73199463    4.90999985    2.86999989
   15.20694447  145.05999756    4.90999985    2.86999989
   15.21027756  167.93299866    4.90999985    2.89000010
   15.21333313  155.25599670    4.90999985    2.89000010
   15.21666622  154.91900635    4.90999985    2.89000010
   15.21999931  140.25999451    4.90999985    2.86999989
   15.22222137  144.42599487    4.90999985    2.89000010
   15.22361088  132.77999878    4.90999985    2.86999989
   15.22694397  146.21699524    4.90999985    2.89000010
   15.23277760  146.21699524    4.90999985    2.86999989
   15.23694515  135.47300720    4.90999985    2.89000010
   15.24000072  138.44799805    4.90999985    2.89000010
   15.24333382  146.79499817    4.90999985    2.89000010
   15.24666691  143.64999390    4.90999985    2.89000010
   15.24972248  138.20799255    4.90999985    2.89000010
   15.25305557  150.50100708    4.90999985    2.86999989
   15.25555515  152.64900208    4.90999985    2.86999989
   15.25666714  138.12399292    4.90999985    2.86999989
   15.26000023  135.36099243    4.90999985    2.86999989
   15.26305580  146.52200317    4.90999985    2.89000010
   15.26638889  145.95500183    4.90999985    2.89000010
   15.26972198  138.97099304    4.90999985    2.86999989
   15.27555561  138.97099304    4.90999985    2.86999989
   15.27972221  156.05400085    4.90999985    2.89000010
   15.28305531  155.17300415    4.90999985    2.89000010
   15.28611183  147.82800293    4.90999985    2.89000010
   15.28888893  148.68699646    4.90999985    2.89000010
   15.28972244  136.88499451    4.90999985    2.89000010
   15.29305553  143.69400024    4.90999985    2.86999989
   15.29611111  142.15600586    4.90999985    2.86999989
   15.29944515  145.52099609    4.90999985    2.89000010
   15.30249977  147.81599426    4.90999985    2.86999989
   15.30583382  144.41299438    4.90999985    2.86999989
   15.30916691  151.89300537    4.90999985    2.89000010
   15.31222248  148.04699707    4.90999985    2.89000010
   15.31861115  148.04699707    4.90999985    2.89000010
   15.32250023  159.02299500    4.90999985    2.86999989
   15.32583332  179.88699341    4.90999985    2.86999989
   15.32916641  197.39100647    4.90999985    2.86999989
   15.33222198  183.31799316    4.90999985    2.86999989
   15.33555508  183.91700745    4.90999985    2.89000010
   15.33888817  209.65199280    4.90999985    2.89000010
   15.34194374  160.54499817    4.90999985    2.89000010
   15.34527779  195.50799561    4.90999985    2.86999989
   15.34833336  161.06399536    4.90999985    2.89000010
   15.35166740  166.57499695    4.90999985    2.89000010
   15.35500050  183.89399719    4.90999985    2.89000010
   15.35555553  173.33999634    4.90999985    2.89000010
   15.36138916  173.33999634    4.90999985    2.89000010
   15.36555576  158.84500122    4.90999985    2.89000010
   15.36861134  134.23899841    4.90999985    2.89000010
   15.37194443  148.78399658    4.90999985    2.91000009
   15.37500000  166.49200439    4.90999985    2.89000010
   15.37833309  169.77299500    4.90999985    2.91000009
   15.38166714  188.31700134    4.90999985    2.89000010
   15.38472176  141.82299805    4.90999985    2.89000010
   15.38805580  151.05900574    4.90999985    2.89000010
   15.38888836  156.83000183    4.90999985    2.89000010
   15.39166641  159.29299927    4.90999985    2.89000010
   15.39499950  154.55099487    4.90999985    2.91000009
   15.39805508  168.34300232    4.90999985    2.89000010
   15.40416622  168.34300232    4.90999985    2.89000010
   15.40833282  155.42900085    4.90999985    2.86999989
   15.41138840  153.19500732    4.90999985    2.89000010
   15.41472149  156.74099731    4.90999985    2.89000010
   15.41805553  143.40800476    4.90999985    2.89000010
   15.42111111  158.55799866    4.90999985    2.89000010
   15.42222214  161.67599487    4.90999985    2.86999989
   15.42472267  147.68400574    4.90999985    2.86999989
   15.42805576  157.99699402    4.90999985    2.89000010
   15.43111134  145.82899475    4.90999985    2.89000010
   15.43444443  153.69900513    4.90999985    2.86999989
   15.43777752  156.29800415    4.90999985    2.89000010
   15.44083309  156.17900085    4.90999985    2.89000010
   15.44694424  156.17900085    4.90999985    2.91000009
   15.45111084  154.24699402    4.90999985    2.89000010
   15.45444393  153.75000000    4.90999985    2.91000009
   15.45555496  129.82699585    4.90999985    2.89000010
   15.45805550  158.25999451    4.90999985    2.89000010
   15.46138859  131.69200134    4.90999985    2.89000010
   15.46444416  147.75399780    4.90999985    2.89000010
   15.46777725  160.81100464    4.90999985    2.89000010
   15.47111034  143.60800171    4.90999985    2.91000009
   15.47416592  137.83500671    4.90999985    2.89000010
   15.47749996  143.16000366    4.90999985    2.89000010
   15.48055553  143.38200378    4.90999985    2.91000009
   15.48388958  142.02999878    4.90999985    2.89000010
   15.49000072  142.02999878    4.90999985    2.89000010
   15.49388885  142.78399658    4.90999985    2.89000010
   15.49722290  158.33200073    4.90999985    2.89000010
   15.50055599  168.04200745    4.90999985    2.91000009
   15.50361156  140.96099854    4.90999985    2.89000010
   15.50694466  126.03299713    4.90999985    2.91000009
   15.51027775  150.27999878    4.90999985    2.89000010
   15.51333332  160.76400757    4.90999985    2.89000010
   15.51666641  140.60499573    4.90999985    2.89000010
   15.51972198  147.74400330    4.90999985    2.91000009
   15.52250004  164.78799438    4.90999985    2.91000009
   15.52333355  149.86599731    4.90999985    2.91000009
   15.52666664  138.65400696    4.90999985    2.91000009
   15.53277779  138.65400696    4.90999985    2.89000010
   15.53694534  131.29100037    4.90999985    2.89000010
   15.54000092  134.52299500    4.90999985    2.89000010
   15.54333401  140.00399780    4.90999985    2.91000009
   15.54638958  148.79400635    4.90999985    2.91000009
   15.54972267  155.90800476    4.90999985    2.91000009
   15.55305576  171.72900391    4.90999985    2.89000010
   15.55583382  154.30200195    4.90999985    2.89000010
   15.55666733  169.46899414    4.90999985    2.89000010
   15.56000042  136.51100159    4.90999985    2.91000009
   15.56305599  138.14700317    4.90999985    2.91000009
   15.56638908  169.60800171    4.90999985    2.89000010
   15.56972218  148.74699402    4.90999985    2.89000010
   15.57555580  148.74699402    4.90999985    2.91000009
   15.57972240  182.36199951    4.90999985    2.89000010
   15.58277798  190.21099854    4.90999985    2.89000010
   15.58611107  202.15699768    4.90999985    2.89000010
   15.58916664  137.41400146    4.90999985    2.91000009
   15.58972168  160.11300659    4.90999985    2.91000009
   15.59305477  174.27000427    4.90999985    2.91000009
   15.59611034  161.71099854    4.90999985    2.89000010
   15.59944439  141.18899536    4.90999985    2.89000010
   15.60277843  178.64599609    4.90999985    2.91000009
   15.60583401  154.77200317    4.90999985    2.91000009
   15.60916710  177.18800354    4.90999985    2.89000010
   15.61250019  198.24899292    4.90999985    2.89000010
   15.61833382  198.24899292    4.90999985    2.89000010
   15.62250042  175.78199768    4.90999985    2.89000010
   15.62583351  169.51199341    4.90999985    2.89000010
   15.62888908  164.28199768    4.90999985    2.91000009
   15.63222218  144.52299500    4.90999985    2.91000009
   15.63555527  208.31799316    4.90999985    2.89000010
   15.63861084  193.99200439    4.90999985    2.91000009
   15.64194393  158.17100525    4.90999985    2.91000009
   15.64499950  210.98500061    4.90999985    2.89000010
   15.64833355  151.62500000    4.90999985    2.91000009
   15.65166664  191.98500061    4.90999985    2.91000009
   15.65472221  169.05700684    4.90999985    2.91000009
   15.65583324  213.84100342    4.90999985    2.89000010
   15.66111088  213.84100342    4.90999985    2.91000009
   15.66527748  175.83200073    4.90999985    2.89000010
   15.66861153  178.18299866    4.90999985    2.91000009
   15.67194462  200.71499634    4.90999985    2.91000009
   15.68944454  144.29100037    4.90999985    2.89000010
   15.69194412  172.19000244    4.90999985    2.93000007
   15.69499969  174.52099609    4.90999985    2.91000009
   15.69833374  157.77499390    4.90999985    2.91000009
   15.70416641  157.77499390    4.90999985    2.91000009
   15.70833302  139.08500671    4.90999985    2.91000009
   15.71166611  159.50999451    4.90999985    2.91000009
   15.71472168  151.75300598    4.90999985    2.89000010
   15.71805477  144.81100464    4.90999985    2.91000009
   15.72138882  150.53199768    4.90999985    2.91000009
   15.72277737  153.70700073    4.90999985    2.91000009
   15.72499943  151.11399841    4.90999985    2.93000007
   15.72833252  136.76199341    4.90999985    2.91000009
   15.73166656  156.92799377    4.90999985    2.91000009
   15.73472214  146.95899963    4.90999985    2.91000009
   15.73805618  136.12100220    4.90999985    2.93000007
   15.74111176  155.74800110    4.90999985    2.91000009
   15.74722290  155.74800110    4.90999985    2.93000007
   15.75111103  155.32200623    4.90999985    2.93000007
   15.75444412  164.35800171    4.90999985    2.91000009
   15.75611115  158.39999390    4.90999985    2.91000009
   15.75805569  150.21299744    4.90999985    2.91000009
   15.76138878  142.78399658    4.90999985    2.93000007
   15.76472187  163.75500488    4.90999985    2.91000009
   15.76777744  171.07699585    4.90999985    2.93000007
   15.77111053  148.30000305    4.90999985    2.91000009
   15.77444458  160.88900757    4.90999985    2.91000009
   15.77750015  167.02400208    4.90999985    2.91000009
   15.78083324  151.40199280    4.90999985    2.93000007
   15.78388977  152.22300720    4.90999985    2.91000009
   15.79000092  152.22300720    4.90999985    2.93000007
   15.79416752  149.00300598    4.90999985    2.91000009
   15.79722309  153.07499695    4.90999985    2.91000009
   15.80055618  171.11999512    4.90999985    2.89000010
   15.80388927  148.81799316    4.90999985    2.93000007
   15.80694485  171.62399292    4.90999985    2.91000009
   15.81027794  164.34300232    4.90999985    2.91000009
   15.81333351  137.39999390    4.90999985    2.91000009
   15.81666660  142.39500427    4.90999985    2.91000009
   15.81999969  155.96699524    4.90999985    2.91000009
   15.82277775  168.69700623    4.90999985    2.91000009
   15.82333374  160.21400452    4.90999985    2.91000009
   15.82666683  145.84100342    4.90999985    2.89000010
   15.83277798  145.84100342    4.90999985    2.91000009
   15.83694458  139.32800293    4.90999985    2.91000009
   15.84027767  143.44299316    4.90999985    2.91000009
   15.84333324  152.66400146    4.90999985    2.91000009
   15.84666634  149.77400208    4.90999985    2.91000009
   15.85000038  150.38299561    4.90999985    2.89000010
   15.85305595  152.82699585    4.90999985    2.93000007
   15.85611153  146.77699280    4.90999985    2.91000009
   15.85694504  133.16299438    4.90999985    2.91000009
   15.86000061  148.79800415    4.90999985    2.91000009
   15.86333370  144.06199646    4.90999985    2.91000009
   15.86638927  140.43499756    4.90999985    2.93000007
   15.86972237  161.72000122    4.90999985    2.91000009
   15.87555599  161.72000122    4.90999985    2.91000009
   15.87972260  167.78199768    4.90999985    2.91000009
   15.88305569  135.67399597    4.90999985    2.91000009
   15.88638878  145.89799500    4.90999985    2.91000009
   15.88944435  145.71600342    4.90999985    2.91000009
   15.88972187  154.68200684    4.90999985    2.93000007
   15.89305496  128.75100708    4.90999985    2.91000009
   15.89638901  118.79199982    4.90999985    2.91000009
   15.89944458  135.13999939    4.90999985    2.93000007
   15.90277767  146.41299438    4.90999985    2.91000009
   15.90583324  144.30799866    4.90999985    2.91000009
   15.90916634  146.75100708    4.90999985    2.91000009
   15.91249943  161.18099976    4.90999985    2.93000007
   15.91861153  161.18099976    4.90999985    2.91000009
   15.92277813  139.42700195    4.90999985    2.93000007
   15.92305565  122.72299957    4.90999985    2.93000007
   15.92638874  125.54199982    4.90999985    2.89000010
   15.92972279  159.52699280    4.90999985    2.91000009
   15.93277836  159.19200134    4.90999985    2.91000009
   15.93611145  172.14399719    4.90999985    2.91000009
   15.93916702  144.31900024    4.90999985    2.91000009
   15.94250011  159.30099487    4.90999985    2.91000009
   15.94583321  153.94099426    4.90999985    2.91000009
   15.94888878  161.76100159    4.90999985    2.91000009
   15.95222187  148.28199768    4.90999985    2.91000009
   15.95555496  170.46400452    4.90999985    2.91000009
   15.95611095  173.49099731    4.90999985    2.91000009
   15.96138859  173.49099731    4.90999985    2.91000009
   15.96555519  168.02699280    4.90999985    2.91000009
   15.96861076  163.48199463    4.90999985    2.91000009
   15.97194386  179.44799805    4.90999985    2.93000007
   15.97527695  179.38099670    4.90999985    2.91000009
   15.97833252  166.38400269    4.90999985    2.91000009
   15.98166656  193.31199646    4.90999985    2.93000007
   15.98472214  203.65400696    4.90999985    2.91000009
   15.98805618  178.52999878    4.90999985    2.93000007
   15.98944473  206.15400696    4.90999985    2.93000007
   15.99166679  189.29600525    4.90999985    2.91000009
   15.99499989  231.46899414    4.90999985    2.91000009
   15.99833393  237.06500244    4.90999985    2.91000009
   16.00416756  237.06500244    4.90999985    2.91000009
   16.00833321  202.05000305    4.90999985    2.94000006
   16.01166725  237.65299988    4.90999985    2.93000007
   16.01472282  259.51699829    4.90999985    2.93000007
   16.01805496  232.40499878    4.90999985    2.91000009
   16.02111053  238.43200684    4.90999985    2.91000009
   16.02277756  252.22599792    4.90999985    2.91000009
   16.02472115  188.04800415    4.90999985    2.91000009
   16.02805519  205.05700684    4.90999985    2.91000009
   16.03138924  199.12699890    4.90999985    2.91000009
   16.03444481  214.66200256    4.90999985    2.91000009
   16.03777695  214.04899597    4.90999985    2.91000009
   16.04111099  254.81399536    4.90999985    2.91000009
   16.04694366  254.81399536    4.90999985    2.93000007
   16.05111122  284.85101318    4.90999985    2.93000007
   16.05444336  283.00698853    4.90999985    2.93000007
   16.05611038  253.33700562    4.90999985    2.93000007
   16.05777740  209.02400208    4.90999985    2.93000007
   16.06110954  272.46899414    4.90999985    2.91000009
   16.06444359  264.22299194    4.90999985    2.91000009
   16.06750107  235.68099976    4.90999985    2.91000009
   16.07083511  253.62100220    4.90999985    2.93000007
   16.07416725  236.88099670    4.90999985    2.93000007
   16.07722282  167.01199341    4.90999985    2.93000007
   16.08055687  215.00000000    4.90999985    2.91000009
   16.08361244  234.46099854    4.90999985    2.93000007
   16.09000015  234.46099854    4.90999985    2.91000009
   16.09416771  178.21499634    4.90999985    2.93000007
   16.09722328  186.57600403    4.90999985    2.91000009
   16.10055542  184.95599365    4.90999985    2.91000009
   16.10361099  201.21299744    4.90999985    2.91000009
   16.10694504  209.03100586    4.90999985    2.91000009
   16.11027908  220.00399780    4.90999985    2.93000007
   16.11333466  183.79499817    4.90999985    2.93000007
   16.11666679  191.08999634    4.90999985    2.93000007
   16.12000084  192.95300293    4.90999985    2.91000009
   16.12277794  178.75199890    4.90999985    2.91000009
   16.12333298  182.40199280    4.90999985    2.91000009
   16.12666702  170.56599426    4.90999985    2.93000007
   16.13277817  170.56599426    4.90999985    2.93000007
   16.13694382  158.08299255    4.90999985    2.93000007
   16.13999939  171.02699280    4.90999985    2.93000007
   16.14333344  159.28999329    4.90999985    2.91000009
   16.14666748  164.04499817    4.90999985    2.91000009
   16.14972115  174.77699280    4.90999985    2.91000009
   16.15305519  169.86599731    4.90999985    2.93000007
   16.15611076  167.04100037    4.90999985    2.93000007
   16.15638924  168.01699829    4.90999985    2.93000007
   16.15972137  166.03500366    4.90999985    2.94000006
   16.16305542  160.03300476    4.90999985    2.93000007
   16.16611099  169.78799438    4.90999985    2.93000007
   16.16944313  163.85699463    4.90999985    2.93000007
   16.17555428  163.85699463    4.90999985    2.94000006
   16.17972183  212.73199463    4.90999985    2.91000009
   16.18305397  199.57800293    4.90999985    2.93000007
   16.18610954  198.44999695    4.90999985    2.93000007
   16.18944359  189.13299561    4.90999985    2.93000007
   16.18972206  176.11399841    4.90999985    2.93000007
   16.19305420  174.86999512    4.90999985    2.93000007
   16.19638824  157.23300171    4.90999985    2.93000007
   16.19944382  179.58599854    4.90999985    2.93000007
   16.20277786  172.66499329    4.90999985    2.91000009
   16.20611191  177.27200317    4.90999985    2.93000007
   16.20916748  168.88200378    4.90999985    2.93000007
   16.21250153  202.70599365    4.90999985    2.93000007
   16.21833420  202.70599365    4.90999985    2.93000007
   16.22249985  171.69000244    4.90999985    2.91000009
   16.22305679  189.23899841    4.90999985    2.91000009
   16.22638893  217.65600586    4.90999985    2.93000007
   16.22944450  209.27099609    4.90999985    2.93000007
   16.23277855  212.99400330    4.90999985    2.91000009
   16.23611069  183.78100586    4.90999985    2.91000009
   16.23916626  171.87600708    4.90999985    2.91000009
   16.24250031  195.94700623    4.90999985    2.91000009
   16.24583435  184.24400330    4.90999985    2.93000007
   16.24888992  149.51100159    4.90999985    2.91000009
   16.25222206  160.62899780    4.90999985    2.91000009
   16.25527763  133.55700684    4.90999985    2.91000009
   16.25638962  137.60299683    4.90999985    2.91000009
   16.26138878  137.60299683    4.90999985    2.93000007
   16.26555634  140.44200134    4.90999985    2.93000007
   16.26861000  185.73100281    4.90999985    2.91000009
   16.27194405  158.86000061    4.90999985    2.93000007
   16.27499962  167.73800659    4.90999985    2.91000009
   16.27833366  133.70399475    4.90999985    2.93000007
   16.28166580  183.90499878    4.90999985    2.91000009
   16.28499985  164.70100403    4.90999985    2.93000007
   16.28805542  145.72900391    4.90999985    2.93000007
   16.28972244  148.39999390    4.90999985    2.93000007
   16.29194450  163.89300537    4.90999985    2.93000007
   16.29500008  150.14199829    4.90999985    2.94000006
   16.29833221  158.83599854    4.90999985    2.93000007
   16.30416679  158.83599854    4.90999985    2.93000007
   16.30833244  142.37500000    4.90999985    2.93000007
   16.31138802  152.04299927    4.90999985    2.93000007
   16.31472206  137.56500244    4.90999985    2.91000009
   16.31805611  158.02900696    4.90999985    2.93000007
   16.32111168  161.81300354    4.90999985    2.91000009
   16.32305717  133.97799683    4.90999985    2.93000007
   16.32500076  138.17700195    4.90999985    2.93000007
   16.32805634  139.56399536    4.90999985    2.93000007
   16.33139038  126.91400146    4.90999985    2.94000006
   16.33472252  141.79800415    4.90999985    2.94000006
   16.33777809  146.74600220    4.90999985    2.93000007
   16.34111214  149.93899536    4.90999985    2.94000006
   16.34694481  149.93899536    4.90999985    2.91000009
   16.35111237  149.80599976    4.90999985    2.93000007
   16.35444450  136.64199829    4.90999985    2.91000009
   16.35639000  146.07800293    4.90999985    2.91000009
   16.35805511  148.93099976    4.90999985    2.93000007
   16.36111069  144.60899353    4.90999985    2.93000007
   16.36444473  159.39300537    4.90999985    2.93000007
   16.36777878  125.19799805    4.90999985    2.93000007
   16.37083435  156.35400391    4.90999985    2.93000007
   16.37416649  160.09800720    4.90999985    2.93000007
   16.37750053  148.84599304    4.90999985    2.91000009
   16.38055611  169.40600586    4.90999985    2.93000007
   16.38388824  140.59899902    4.90999985    2.91000009
   16.38972282  140.59899902    4.90999985    2.93000007
   16.39388847  184.35699463    4.90999985    2.91000009
   16.39722252  162.78999329    4.90999985    2.91000009
   16.40027809  163.33000183    4.90999985    2.93000007
   16.40361023  151.71499634    4.90999985    2.93000007
   16.40694427  157.56500244    4.90999985    2.93000007
   16.40999985  167.30200195    4.90999985    2.93000007
   16.41333389  179.24899292    4.90999985    2.93000007
   16.41666603  216.47700500    4.90999985    2.93000007
   16.41972160  187.77499390    4.90999985    2.93000007
   16.42305565  185.80299377    4.90999985    2.93000007
   16.42361069  176.87399292    4.90999985    2.93000007
   16.42666626  142.56100464    4.90999985    2.93000007
   16.43277740  142.56100464    4.90999985    2.91000009
   16.43666649  149.91900635    4.90999985    2.93000007
   16.43999863  153.09899902    4.90999985    2.93000007
   16.44333267  144.69900513    4.90999985    2.93000007
   16.44666672  140.10499573    4.90999985    2.93000007
   16.44972038  183.43200684    4.90999985    2.93000007
   16.45305634  189.23399353    4.90999985    2.91000009
   16.45611191  172.60000610    4.90999985    2.91000009
   16.45694542  196.97200012    4.90999985    2.91000009
   16.45972252  159.74200439    4.90999985    2.93000007
   16.46305656  150.81100464    4.90999985    2.91000009
   16.46638870  163.72500610    4.90999985    2.93000007
   16.46944427  166.52200317    4.90999985    2.91000009
   16.47555542  166.52200317    4.90999985    2.91000009
   16.47972298  136.09700012    4.90999985    2.93000007
   16.48277855  135.25900269    4.90999985    2.93000007
   16.48611069  123.92199707    4.90999985    2.91000009
   16.48944473  154.10200500    4.90999985    2.91000009
   16.49027824  145.34700012    4.90999985    2.91000009
   16.49277878  145.65499878    4.90999985    2.93000007
   16.49611092  164.74899292    4.90999985    2.93000007
   16.49944496  161.01400757    4.90999985    2.91000009
   16.50250053  136.46400452    4.90999985    2.93000007
   16.50583267  146.14900208    4.90999985    2.93000007
   16.50916672  148.69299316    4.90999985    2.91000009
   16.51222229  159.04299927    4.90999985    2.93000007
   16.51833344  159.04299927    4.90999985    2.93000007
   16.52249908  141.80299377    4.90999985    2.91000009
   16.52361107  134.95500183    4.90999985    2.93000007
   16.52611160  141.50300598    4.90999985    2.91000009
   16.52944374  156.67500305    4.90999985    2.91000009
   16.53277779  157.87600708    4.90999985    2.91000009
   16.53583336  146.22799683    4.90999985    2.91000009
   16.53916550  160.36099243    4.90999985    2.93000007
   16.54249954  152.56700134    4.90999985    2.91000009
   16.54555511  130.04299927    4.90999985    2.93000007
   16.54888916  122.62100220    4.90999985    2.93000007
   16.55194283  152.68499756    4.90999985    2.93000007
   16.55527687  167.28700256    4.90999985    2.93000007
   16.55694389  137.39500427    4.90999985    2.91000009
   16.56110954  137.39500427    4.90999985    2.93000007
   16.56527710  149.11199951    4.90999985    2.91000009
   16.56861115  155.99200439    4.90999985    2.91000009
   16.57166672  165.61500549    4.90999985    2.93000007
   16.57500076  140.55099487    4.90999985    2.93000007
   16.57833481  137.61500549    4.90999985    2.94000006
   16.58139038  148.85600281    4.90999985    2.93000007
   16.58472252  120.82199860    4.90999985    2.91000009
   16.58805656  121.30500031    4.90999985    2.93000007
   16.59027863  128.45700073    4.90999985    2.91000009
   16.59138870  152.26800537    4.90999985    2.93000007
   16.59472275  149.46400452    4.90999985    2.93000007
   16.59805679  129.51199341    4.90999985    2.93000007
   16.60416794  129.51199341    4.90999985    2.93000007
   16.60805511  147.83900452    4.90999985    2.93000007
   16.61138916  136.50599670    4.90999985    2.93000007
   16.61472321  145.45599365    4.90999985    2.93000007
   16.61777878  140.88299561    4.90999985    2.93000007
   16.62111092  132.25799561    4.90999985    2.93000007
   16.62361145  139.54699707    4.90999985    2.89000010
   16.62472153  134.25500488    4.90999985    2.93000007
   16.62805557  142.99299622    4.90999985    2.94000006
   16.63138962  128.22799683    4.90999985    2.93000007
   16.63444519  133.61599731    4.90999985    2.93000007
   16.63777733  156.29800415    4.90999985    2.93000007
   16.64111137  151.35000610    4.90999985    2.91000009
   16.64694405  151.35000610    4.90999985    2.93000007
   16.65111160  151.41400146    4.90999985    2.94000006
   16.65416718  143.92199707    4.90999985    2.93000007
   16.65694427  143.28799438    4.90999985    2.93000007
   16.65777779  143.61199951    4.90999985    2.91000009
   16.66110992  152.63400269    4.90999985    2.93000007
   16.66444397  148.80400085    4.90999985    2.93000007
   16.66749954  133.75000000    4.90999985    2.93000007
   16.67083359  159.66499329    4.90999985    2.93000007
   16.67416573  159.05599976    4.90999985    2.93000007
   16.67722130  157.00100708    4.90999985    2.93000007
   16.68055534  162.40299988    4.90999985    2.91000009
   16.68361092  150.60299683    4.90999985    2.93000007
   16.68972206  150.60299683    4.90999985    2.93000007
   16.70805550  140.23100281    4.90999985    2.93000007
   16.71138954  141.33599854    4.90999985    2.93000007
   16.71472359  135.58299255    4.90999985    2.93000007
   16.71777916  123.62599945    4.90999985    2.93000007
   16.72111130  133.42500305    4.90999985    2.91000009
   16.72416687  157.03599548    4.90999985    2.91000009
   16.72750092  128.17700195    4.90999985    2.93000007
   16.73277855  128.17700195    4.90999985    2.91000009
   16.73694420  131.42700195    4.90999985    2.91000009
   16.74027824  141.67700195    4.90999985    2.91000009
   16.74111176  125.93699646    4.90999985    2.91000009
   16.74388885  146.83099365    4.90999985    2.91000009
   16.74722290  155.03999329    4.90999985    2.93000007
   16.75027847  139.36099243    4.90999985    2.93000007
   16.75361061  131.54499817    4.90999985    2.91000009
   16.75666618  144.02799988    4.90999985    2.91000009
   16.76000023  132.24400330    4.90999985    2.93000007
   16.76333427  147.34500122    4.90999985    2.91000009
   16.76638794  119.52100372    4.90999985    2.91000009
   16.76972198  135.41499329    4.90999985    2.93000007
   16.77555466  135.41499329    4.90999985    2.93000007
   16.77972221  146.11999512    4.90999985    2.93000007
   16.78305435  150.21800232    4.90999985    2.91000009
   16.78638840  153.00100708    4.90999985    2.91000009
   16.78944397  147.63200378    4.90999985    2.93000007
   16.79277802  154.33799744    4.90999985    2.93000007
   16.79583359  160.49499512    4.90999985    2.93000007
   16.79916573  164.71699524    4.90999985    2.94000006
   16.80249977  146.98399353    4.90999985    2.91000009
   16.80555534  169.94200134    4.90999985    2.91000009
   16.80777740  160.05599976    4.90999985    2.91000009
   16.80944443  173.85899353    4.90999985    2.91000009
   16.81277657  147.57800293    4.90999985    2.91000009
   16.81861115  147.57800293    4.90999985    2.93000007
   16.82277870  155.62699890    4.90999985    2.93000007
   16.82583427  149.03500366    4.90999985    2.91000009
   16.82916832  149.48300171    4.90999985    2.93000007
   16.83222389  144.45899963    4.90999985    2.93000007
   16.83555603  131.96800232    4.90999985    2.91000009
   16.83889008  134.01499939    4.90999985    2.91000009
   16.84111214  160.75399780    4.90999985    2.93000007
   16.84250069  122.23699951    4.90999985    2.91000009
   16.84583473  139.71400452    4.90999985    2.91000009
   16.84889030  143.21000671    4.90999985    2.93000007
   16.85222244  158.68499756    4.90999985    2.93000007
   16.85527802  138.54400635    4.90999985    2.93000007
   16.86138916  138.54400635    4.90999985    2.94000006
   16.86555672  127.05300140    4.90999985    2.93000007
   16.86861038  134.17799377    4.90999985    2.91000009
   16.87194443  149.58799744    4.90999985    2.91000009
   16.87444496  151.52400208    4.90999985    2.91000009
   16.87555504  142.61700439    4.90999985    2.93000007
   16.87888908  166.74800110    4.90999985    2.91000009
   16.88194466  137.46299744    4.90999985    2.91000009
   16.88527679  156.37600708    4.90999985    2.91000009
   16.88861084  157.11599731    4.90999985    2.91000009
   16.89166641  157.31599426    4.90999985    2.94000006
   16.89500046  137.34800720    4.90999985    2.93000007
   16.89805603  143.87199402    4.90999985    2.91000009
   16.90416718  143.87199402    4.90999985    2.93000007
   16.90833282  141.71600342    4.90999985    2.91000009
   16.91166687  179.39799500    4.90999985    2.93000007
   16.91472244  146.65499878    4.90999985    2.93000007
   16.91805458  150.65499878    4.90999985    2.91000009
   16.92138863  143.90800476    4.90999985    2.91000009
   16.92444420  163.45399475    4.90999985    2.91000009
   16.92777634  151.60200500    4.90999985    2.93000007
   16.93083191  152.66200256    4.90999985    2.93000007
   16.93416595  130.01600647    4.90999985    2.93000007
   16.93750000  116.33399963    4.90999985    2.93000007
   16.94055557  140.18200684    4.90999985    2.93000007
   16.94111061  144.03599548    4.90999985    2.93000007
   16.94694328  144.03599548    4.90999985    2.93000007
   16.95111275  127.33599854    4.90999985    2.93000007
   16.95444489  138.59599304    4.90999985    2.93000007
   16.95777893  131.53900146    4.90999985    2.93000007
   16.96083450  146.87699890    4.90999985    2.93000007
   16.96416664  124.88999939    4.90999985    2.94000006
   16.96750069  121.68099976    4.90999985    2.93000007
   16.97055626  136.41200256    4.90999985    2.91000009
   16.97389030  124.26499939    4.90999985    2.94000006
   16.97444534  118.96700287    4.90999985    2.93000007
   16.97750092  128.25300598    4.90999985    2.93000007
   16.98083305  129.26499939    4.90999985    2.93000007
   16.98388863  127.94100189    4.90999985    2.91000009
   16.98999977  127.94100189    4.90999985    2.91000009
   16.99416733  139.44099426    4.90999985    2.93000007
   16.99722290  120.02300262    4.90999985    2.91000009
   17.00055504  127.36000061    4.90999985    2.93000007
   17.00361061  124.80100250    4.90999985    2.93000007
   17.00694466  127.58699799    4.90999985    2.93000007
   17.00777817  126.53299713    4.90999985    2.93000007
   17.01055527  129.54400635    4.90999985    2.93000007
   17.01388931  124.98100281    4.90999985    2.91000009
   17.01694489  125.91000366    4.90999985    2.93000007
   17.02027702  132.09599304    4.90999985    2.91000009
   17.02361107  142.27699280    4.90999985    2.91000009
   17.02666664  129.63000488    4.90999985    2.91000009
   17.03277779  129.63000488    4.90999985    2.93000007
   17.03694344  129.96600342    4.90999985    2.91000009
   17.03999901  114.08699799    4.90999985    2.91000009
   17.04111099  124.34100342    4.90999985    2.91000009
   17.04388809  136.59800720    4.90999985    2.91000009
   17.04722214  122.16200256    4.90999985    2.91000009
   17.05027771  125.13200378    4.90999985    2.91000009
   17.05360985  129.21400452    4.90999985    2.93000007
   17.05694389  122.74099731    4.90999985    2.91000009
   17.05999947  127.48899841    4.90999985    2.93000007
   17.06333351  129.90899658    4.90999985    2.91000009
   17.06666756  128.61900330    4.90999985    2.93000007
   17.06972313  126.57499695    4.90999985    2.93000007
   17.07555580  126.57499695    4.90999985    2.93000007
   17.07972336  127.78600311    4.90999985    2.94000006
   17.08305550  121.84200287    4.90999985    2.93000007
   17.08611107  118.50800323    4.90999985    2.91000009
   17.08944511  113.99199677    4.90999985    2.91000009
   17.09277916  129.77400208    4.90999985    2.91000009
   17.09583473  120.41500092    4.90999985    2.91000009
   17.09916687  118.23699951    4.90999985    2.91000009
   17.10222244  122.01300049    4.90999985    2.93000007
   17.10555649  123.72200012    4.90999985    2.93000007
   17.10777855  121.41500092    4.90999985    2.91000009
   17.10916710  131.15499878    4.90999985    2.91000009
   17.11250114  124.92600250    4.90999985    2.93000007
   17.11833382  124.92600250    4.90999985    2.91000009
   17.12249947  140.41999817    4.90999985    2.93000007
   17.12583351  135.76600647    4.90999985    2.91000009
   17.12916756  126.28500366    4.90999985    2.91000009
   17.13222313  132.28399658    4.90999985    2.93000007
   17.13555527  138.01600647    4.90999985    2.91000009
   17.13861084  134.28300476    4.90999985    2.93000007
   17.14111137  148.55299377    4.90999985    2.91000009
   17.14222145  148.49000549    4.90999985    2.93000007
   17.14555550  149.47500610    4.90999985    2.91000009
   17.14861107  141.68899536    4.90999985    2.93000007
   17.15194321  124.72200012    4.90999985    2.91000009
   17.15527725  138.30900574    4.90999985    2.91000009
   17.16138840  138.30900574    4.90999985    2.93000007
   17.16555595  133.70500183    4.90999985    2.91000009
   17.16860962  131.05099487    4.90999985    2.93000007
   17.17194366  142.48899841    4.90999985    2.91000009
   17.17444420  140.62100220    4.90999985    2.93000007
   17.17555428  144.16900635    4.90999985    2.93000007
   17.17888832  183.82499695    4.90999985    2.91000009
   17.18194389  145.45399475    4.90999985    2.93000007
   17.18527603  160.49699402    4.90999985    2.93000007
   17.18861008  134.89900208    4.90999985    2.93000007
   17.19166565  150.04400635    4.90999985    2.93000007
   17.19499969  146.10099792    4.90999985    2.91000009
   17.19833183  142.47599792    4.90999985    2.91000009
   17.20416832  142.47599792    4.90999985    2.91000009
   17.20833397  152.03300476    4.90999985    2.91000009
   17.21166801  136.75799561    4.90999985    2.91000009
   17.21472359  147.34500122    4.90999985    2.93000007
   17.21805573  141.22099304    4.90999985    2.91000009
   17.22111130  151.70300293    4.90999985    2.93000007
   17.22444534  153.06100464    4.90999985    2.91000009
   17.22777748  157.25799561    4.90999985    2.93000007
   17.23083305  170.47300720    4.90999985    2.93000007
   17.23416710  167.46299744    4.90999985    2.91000009
   17.23750114  195.14500427    4.90999985    2.89000010
   17.24055672  156.11500549    0.15000001    0.86000001
   17.24138832  157.88499451    0.09000000    0.61000001
   17.24694443  157.88499451    0.03000000    0.19000000
   17.25111198  160.48199463    0.03000000    0.07000000
   17.25444412  118.17199707    0.03000000    0.07000000
   17.25749969  183.35099792    0.03000000    0.07000000
   17.26083374  187.44099426    0.03000000    0.07000000
   17.26388931  177.24200439    0.03000000    0.07000000
   17.26722145  175.59199524    0.03000000    0.07000000
   17.27055550  169.12100220    0.03000000    0.07000000
   17.27361107  136.72099304    0.03000000    0.07000000
   17.27472115  143.72900391    0.03000000    0.07000000
   17.27722168  154.55799866    0.03000000    0.07000000
   17.28055573  179.46699524    0.03000000    0.07000000
   17.28361130  189.83999634    0.03000000    0.07000000
   17.28972244  189.83999634    0.03000000    0.07000000
   17.29388809  174.73899841    0.03000000    0.07000000
   17.29722214  161.11500549    0.03000000    0.07000000
   17.30027771  176.47200012    0.03000000    0.07000000
   17.30360985  151.35299683    0.03000000    0.07000000
   17.30694389  150.47399902    0.03000000    0.07000000
   17.30805397  158.60000610    0.03000000    0.07000000
   17.31055450  171.76400757    0.03000000    0.07000000
   17.31388855  157.54699707    0.03000000    0.07000000
   17.31694603  152.00399780    0.03000000    0.07000000
   17.32027817  167.82899475    0.03000000    0.07000000
   17.32361221  159.53300476    0.03000000    0.07000000
   17.32666779  160.87600708    0.03000000    0.07000000
   17.33277893  160.87600708    0.03000000    0.07000000
   17.33666801  156.05700684    0.03000000    0.07000000
   17.34000015  151.08900452    0.03000000    0.07000000
   17.34138870  143.52999878    0.03000000    0.07000000
   17.34361267  142.49400330    0.03000000    0.07000000
   17.34694481  131.72700500    0.03000000    0.07000000
   17.35000038  158.00700378    0.03000000    0.07000000
   17.35333443  143.96600342    0.03000000    0.07000000
   17.35666656  131.11199951    0.03000000    0.07000000
   17.35972214  161.24299622    0.03000000    0.07000000
   17.36305618  155.74699402    0.03000000    0.07000000
   17.36638832  156.74400330    0.03000000    0.07000000
   17.36944389  127.50299835    0.03000000    0.07000000
   17.37555504  127.50299835    0.03000000    0.07000000
   17.37972260  124.06099701    0.03000000    0.07000000
   17.38277817  147.90899658    0.03000000    0.07000000
   17.38611031  129.20899963    0.03000000    0.07000000
   17.38944435  144.13000488    0.03000000    0.07000000
   17.39249992  137.34399414    0.03000000    0.07000000
   17.39583397  168.58099365    0.03000000    0.07000000
   17.39888954  176.01699829    0.03000000    0.07000000
   17.40222168  152.22799683    0.03000000    0.07000000
   17.40555573  155.63299561    0.03000000    0.07000000
   17.40805435  147.86099243    0.03000000    0.07000000
   17.40916634  153.13000488    0.03000000    0.07000000
   17.41250038  158.46099854    0.03000000    0.07000000
   17.41833305  158.46099854    0.03000000    0.07000000
   17.42249870  155.97700500    0.03000000    0.07000000
   17.42583275  173.68800354    0.03000000    0.07000000
   17.42888832  132.17799377    0.03000000    0.07000000
   17.43222237  125.83100128    0.03000000    0.07000000
   17.43527603  169.23199463    0.03000000    0.07000000
   17.43861008  153.80599976    0.03000000    0.07000000
   17.44138718  130.98599243    0.03000000    0.07000000
   17.44222069  136.79499817    0.03000000    0.07000000
   17.44555473  137.93899536    0.03000000    0.07000000
   17.44888878  137.68299866    0.03000000    0.07000000
   17.45194435  149.78300476    0.03000000    0.07000000
   17.45527840  158.86799622    0.03000000    0.07000000
   17.46111107  158.86799622    0.03000000    0.07000000
   17.46527863  137.23399353    0.03000000    0.07000000
   17.46861076  130.49200439    0.03000000    0.07000000
   17.47166634  170.95300293    0.03000000    0.07000000
   17.47472191  143.94900513    0.03000000    0.07000000
   17.47527885  131.53700256    0.03000000    0.07000000
   17.47861099  155.31700134    0.03000000    0.07000000
   17.48194504  132.69000244    0.03000000    0.07000000
   17.48500061  141.83799744    0.03000000    0.07000000
   17.48833275  131.47399902    0.03000000    0.07000000
   17.49138832  113.49500275    0.03000000    0.07000000
   17.49472237  143.96600342    0.03000000    0.07000000
   17.49805641  148.04699707    0.03000000    0.07000000
   17.50416756  148.04699707    0.03000000    0.07000000
   17.50805473  117.96600342    0.03000000    0.07000000
   17.51138878  134.51499939    0.03000000    0.07000000
   17.51472282  114.26200104    0.03000000    0.07000000
   17.51777840  130.70599365    0.03000000    0.07000000
   17.52111053  155.14100647    0.03000000    0.07000000
   17.52444458  157.04100037    0.03000000    0.07000000
   17.52750015  127.47499847    0.03000000    0.07000000
   17.53083229  134.90100098    0.03000000    0.07000000
   17.53388786  121.83499908    0.03000000    0.07000000
   17.53722191  138.86300659    0.03000000    0.07000000
   17.54055595  132.32499695    0.03000000    0.07000000
   17.54138756  115.73400116    0.03000000    0.07000000
   17.54694366  115.73400116    0.03000000    0.07000000
   17.55111122  130.06700134    0.03000000    0.07000000
   17.55416679  126.20400238    0.03000000    0.07000000
   17.55749893  134.93600464    0.03000000    0.07000000
   17.56083298  123.31999969    0.03000000    0.07000000
   17.56388855  142.51100159    0.03000000    0.07000000
   17.56722260  142.11900330    0.03000000    0.07000000
   17.57055664  146.61599731    0.03000000    0.07000000
   17.57361221  119.63999939    0.03000000    0.07000000
   17.57472229  140.73100281    0.03000000    0.07000000
   17.57722282  121.00900269    0.03000000    0.07000000
   17.58055687  142.08000183    0.03000000    0.07000000
   17.58388901  136.21499634    0.03000000    0.07000000
   17.58972359  136.21499634    0.03000000    0.07000000
   17.59388924  114.69200134    0.03000000    0.07000000
   17.59722328  116.57299805    0.03000000    0.07000000
   17.60027885  111.44400024    0.03000000    0.07000000
   17.60361099  125.87899780    0.03000000    0.07000000
   17.60666656  126.80200195    0.03000000    0.07000000
   17.60805511  124.98300171    0.03000000    0.07000000
   17.61027908  112.69799805    0.03000000    0.07000000
   17.61361122  115.16999817    0.03000000    0.07000000
   17.61694527  131.04899597    0.03000000    0.07000000
   17.62000084  122.17800140    0.03000000    0.07000000
   17.62333298  126.51599884    0.03000000    0.07000000
   17.62638855  143.82400513    0.03000000    0.07000000
   17.63249969  143.82400513    0.03000000    0.07000000
   17.63666725  122.27500153    0.03000000    0.07000000
   17.63999939  116.25700378    0.03000000    0.07000000
   17.64138794  121.25199890    0.03000000    0.07000000
   17.64361191  112.68299866    0.03000000    0.07000000
   17.64694405  131.51800537    0.03000000    0.07000000
   17.65027809  130.43499756    0.03000000    0.07000000
   17.65333366  131.36000061    0.03000000    0.07000000
   17.65666580  131.55900574    0.03000000    0.07000000
   17.65972137  137.42599487    0.03000000    0.07000000
   17.66305542  144.49800110    0.03000000    0.07000000
   17.66638756  120.73799896    0.03000000    0.07000000
   17.66944313  137.58500671    0.03000000    0.07000000
   17.67527771  137.58500671    0.03000000    0.07000000
   17.67944336  114.47799683    0.03000000    0.07000000
   17.68277740  122.73799896    0.03000000    0.07000000
   17.68610954  131.05099487    0.03000000    0.07000000
   17.68916512  129.33500671    0.03000000    0.07000000
   17.69249916  124.80599976    0.03000000    0.07000000
   17.69583321  118.88800049    0.03000000    0.07000000
   17.69888878  124.72100067    0.03000000    0.07000000
   17.70222282  125.27500153    0.03000000    0.07000000
   17.70527840  141.59399414    0.03000000    0.07000000
   17.70805550  127.59400177    0.03000000    0.07000000
   17.72861099  127.59400177    0.03000000    0.07000000
   17.73277855  130.45100403    0.03000000    0.07000000
   17.73611069  133.47200012    0.03000000    0.07000000
   17.73916626  130.06599426    0.03000000    0.07000000
   17.74138832  134.50599670    0.03000000    0.07000000
   17.74305534  130.44500732    0.03000000    0.07000000
   17.74611092  136.85499573    0.03000000    0.07000000
   17.74944496  131.00000000    0.03000000    0.07000000
   17.75277710  137.75500488    0.03000000    0.07000000
   17.75583267  130.22000122    0.03000000    0.07000000
   17.75916672  136.84300232    0.03000000    0.07000000
   17.76222229  153.98599243    0.03000000    0.07000000
   17.76555634  144.60400391    0.03000000    0.07000000
   17.77138901  144.60400391    0.03000000    0.07000000
   17.77555466  132.26300049    0.03000000    0.07000000
   17.77861023  144.41900635    0.03000000    0.07000000
   17.78194427  148.69799805    0.03000000    0.07000000
   17.78527641  139.90899658    0.03000000    0.07000000
   17.78833199  124.30100250    0.03000000    0.07000000
   17.79166603  143.54699707    0.03000000    0.07000000
   17.79500008  125.10399628    0.03000000    0.07000000
   17.79805565  128.94400024    0.03000000    0.07000000
   17.80138779  151.92500305    0.03000000    0.07000000
   17.80444336  131.37800598    0.03000000    0.07000000
   17.80777740  133.51400757    0.03000000    0.07000000
   17.80833244  122.47299957    0.03000000    0.07000000
   17.81416512  122.47299957    0.03000000    0.07000000
   17.81833458  140.35299683    0.03000000    0.07000000
   17.82166672  131.70799255    0.03000000    0.07000000
   17.82472229  135.20799255    0.03000000    0.07000000
   17.82805634  118.99199677    0.03000000    0.07000000
   17.83139038  127.18299866    0.03000000    0.07000000
   17.83444595  133.45399475    0.03000000    0.07000000
   17.83777809  124.11199951    0.03000000    0.07000000
   17.84083366  123.94000244    0.03000000    0.07000000
   17.84166718  119.85600281    0.03000000    0.07000000
   17.84472275  120.31700134    0.03000000    0.07000000
   17.84777832  115.71199799    0.03000000    0.07000000
   17.85111237  104.07399750    0.03000000    0.07000000
   17.85694504  104.07399750    0.03000000    0.07000000
   17.86111069  115.22499847    0.03000000    0.07000000
   17.86444473  101.98799896    0.03000000    0.07000000
   17.86777878  132.41200256    0.03000000    0.07000000
   17.87083435  124.77300262    0.03000000    0.07000000
   17.87416649  115.28900146    0.03000000    0.07000000
   17.87500000  114.10500336    0.03000000    0.07000000
   17.87777710  119.73100281    0.03000000    0.07000000
   17.88083267  143.47900391    0.03000000    0.07000000
   17.88416672  126.75199890    0.03000000    0.07000000
   17.88750076  121.37100220    0.03000000    0.07000000
   17.89055634  117.27999878    0.03000000    0.07000000
   17.89388847  125.36599731    0.03000000    0.07000000
   17.89999962  125.36599731    0.03000000    0.07000000
   17.90416718  123.79299927    0.03000000    0.07000000
   17.90722275  113.90699768    0.03000000    0.07000000
   17.90833282  124.81800079    0.03000000    0.07000000
   17.91110992  140.27000427    0.03000000    0.07000000
   17.91416550  124.21700287    0.03000000    0.07000000
   17.91749954  111.58100128    0.03000000    0.07000000
   17.92083359  126.06199646    0.03000000    0.07000000
   17.92388916  116.71099854    0.03000000    0.07000000
   17.92722130  118.79100037    0.03000000    0.07000000
   17.93027687  109.00099945    0.03000000    0.07000000
   17.93361092  107.13800049    0.03000000    0.07000000
   17.93694305  116.12300110    0.03000000    0.07000000
   17.94277763  116.12300110    0.03000000    0.07000000
   17.94694328  111.98600006    0.03000000    0.07000000
   17.95000076  115.14299774    0.03000000    0.07000000
   17.95333481  113.50299835    0.03000000    0.07000000
   17.95666695  127.96199799    0.03000000    0.07000000
   17.95972252  114.37500000    0.03000000    0.07000000
   17.96305656  111.11599731    0.03000000    0.07000000
   17.96638870  114.44499969    0.03000000    0.07000000
   17.96944427  111.27799988    0.03000000    0.07000000
   17.97277832  117.86799622    0.03000000    0.07000000
   17.97500038  110.09799957    0.03000000    0.07000000
   17.97638893  115.57700348    0.03000000    0.07000000
   17.97944450  112.72399902    0.03000000    0.07000000
   17.98555565  112.72399902    0.03000000    0.07000000
   17.98972321  111.01499939    0.03000000    0.07000000
   17.99305534  114.15899658    0.03000000    0.07000000
   17.99611092  115.42800140    0.03000000    0.07000000
   17.99944496  116.44300079    0.03000000    0.07000000
   18.00277710  113.19000244    0.03000000    0.07000000
   18.00583267  114.42400360    0.03000000    0.07000000
   18.00833321  110.04900360    0.03000000    0.07000000
   18.00972176  113.28800201    0.03000000    0.07000000
   18.01277733  114.77600098    0.03000000    0.07000000
   18.01611137  117.62799835    0.03000000    0.07000000
   18.01944351  110.32199860    0.03000000    0.07000000
   18.02249908  113.95099640    0.03000000    0.07000000
   18.02833366  113.95099640    0.03000000    0.07000000
   18.03249931  109.35700226    0.03000000    0.07000000
   18.03583336  120.47100067    0.03000000    0.07000000
   18.03916550  114.03900146    0.03000000    0.07000000
   18.04166603  123.65399933    0.03000000    0.07000000
   18.04277802  116.43199921    0.03000000    0.07000000
   18.04583359  116.35900116    0.03000000    0.07000000
   18.04916573  118.81800079    0.03000000    0.07000000
   18.05249977  115.69999695    0.03000000    0.07000000
   18.05555534  122.32399750    0.03000000    0.07000000
   18.05888748  118.79599762    0.03000000    0.07000000
   18.06194305  108.98400116    0.03000000    0.07000000
   18.06527710  110.49099731    0.03000000    0.07000000
   18.07139015  110.49099731    0.03000000    0.07000000
   18.07555580  112.11100006    0.03000000    0.07000000
   18.07861137  112.68399811    0.03000000    0.07000000
   18.08194542  105.14700317    0.03000000    0.07000000
   18.08500099  114.46399689    0.03000000    0.07000000
   18.08833313  104.02400208    0.03000000    0.07000000
   18.09166718  116.07199860    0.03000000    0.07000000
   18.09472275  116.55300140    0.03000000    0.07000000
   18.09805679  104.42199707    0.03000000    0.07000000
   18.10138893  109.40399933    0.03000000    0.07000000
   18.10444450  109.41200256    0.03000000    0.07000000
   18.10777855  116.62200165    0.03000000    0.07000000
   18.10833359  112.48600006    0.03000000    0.07000000
   18.11416626  112.48600006    0.03000000    0.07000000
   18.11833382  116.56999969    0.03000000    0.07000000
   18.12138939  105.32099915    0.03000000    0.07000000
   18.12472153  115.14299774    0.03000000    0.07000000
   18.12805557  120.39399719    0.03000000    0.07000000
   18.13111115  114.17400360    0.03000000    0.07000000
   18.13444519  121.33499908    0.03000000    0.07000000
   18.13777733  115.40299988    0.03000000    0.07000000
   18.14083290  112.73899841    0.03000000    0.07000000
   18.14166641  114.48699951    0.03000000    0.07000000
   18.14444351  117.86199951    0.03000000    0.07000000
   18.14749908  117.85500336    0.03000000    0.07000000
   18.15083313  121.05400085    0.03000000    0.07000000
   18.15694427  121.05400085    0.03000000    0.07000000
   18.16110992  119.02400208    0.03000000    0.07000000
   18.16444397  106.66899872    0.03000000    0.07000000
   18.16749954  120.09200287    0.03000000    0.07000000
   18.17083359  117.93499756    0.03000000    0.07000000
   18.17416573  121.65799713    0.03000000    0.07000000
   18.17499924  108.76499939    0.03000000    0.07000000
   18.17777634  104.51999664    0.03000000    0.07000000
   18.18083191  110.28500366    0.03000000    0.07000000
   18.18416595  118.81700134    0.03000000    0.07000000
   18.18750000  117.70800018    0.03000000    0.07000000
   18.19055557  119.28099823    0.03000000    0.07000000
   18.19388771  121.76499939    0.03000000    0.07000000
   18.19972038  121.76499939    0.03000000    0.07000000
   18.20388985  109.39099884    0.03000000    0.07000000
   18.20722389  115.48100281    0.03000000    0.07000000
   18.20833397  108.02500153    0.03000000    0.07000000
   18.21083450  110.08799744    0.03000000    0.07000000
   18.21389008  111.73799896    0.03000000    0.07000000
   18.21722221  112.99400330    0.03000000    0.07000000
   18.22055626  110.68800354    0.03000000    0.07000000
   18.22361183  119.58100128    0.03000000    0.07000000
   18.22694588  115.19799805    0.03000000    0.07000000
   18.23027802  118.42199707    0.03000000    0.07000000
   18.23333359  109.73600006    0.03000000    0.07000000
   18.23666763  108.67400360    0.03000000    0.07000000
   18.24277878  108.67400360    0.03000000    0.07000000
   18.24666786  112.42299652    0.03000000    0.07000000
   18.25000000  118.25700378    0.03000000    0.07000000
   18.25333405  118.67600250    0.03000000    0.07000000
   18.25638962  117.13700104    0.03000000    0.07000000
   18.25972176  121.35399628    0.03000000    0.07000000
   18.26305580  113.57599640    0.03000000    0.07000000
   18.26611137  112.92700195    0.03000000    0.07000000
   18.26944351  122.96600342    0.03000000    0.07000000
   18.27249908  113.54399872    0.03000000    0.07000000
   18.27499962  108.80400085    0.03000000    0.07000000
   18.27638817  110.50000000    0.03000000    0.07000000
   18.27944374  114.06600189    0.03000000    0.07000000
   18.28555489  114.06600189    0.03000000    0.07000000
   18.28972244  106.20200348    0.03000000    0.07000000
   18.29277802  112.04000092    0.03000000    0.07000000
   18.29611015  106.85900116    0.03000000    0.07000000
   18.29944420  111.45300293    0.03000000    0.07000000
   18.30249977  110.76699829    0.03000000    0.07000000
   18.30583191   99.07119751    0.03000000    0.07000000
   18.30833244  111.20600128    0.03000000    0.07000000
   18.30944443  107.69100189    0.03000000    0.07000000
   18.31250000  117.07399750    0.03000000    0.07000000
   18.31583214  113.84500122    0.03000000    0.07000000
   18.31916809  112.82800293    0.03000000    0.07000000
   18.32222366  115.01200104    0.03000000    0.07000000
   18.32833481  115.01200104    0.03000000    0.07000000
   18.33250046  121.99500275    0.03000000    0.07000000
   18.33555603  122.89399719    0.03000000    0.07000000
   18.33889008  113.55500031    0.03000000    0.07000000
   18.34166718  115.92500305    0.03000000    0.07000000
   18.34250069  125.41400146    0.03000000    0.07000000
   18.34583473  137.15800476    0.03000000    0.07000000
   18.34889030  124.21199799    0.03000000    0.07000000
   18.35222244  120.72799683    0.03000000    0.07000000
   18.35527802  122.87899780    0.03000000    0.07000000
   18.35861206  120.14199829    0.03000000    0.07000000
   18.36194420  125.52200317    0.03000000    0.07000000
   18.36499977  116.29599762    0.03000000    0.07000000
   18.37111092  116.29599762    0.03000000    0.07000000
   18.37527847  117.00099945    0.03000000    0.07000000
   18.37861061  120.42099762    0.03000000    0.07000000
   18.38166618  118.27799988    0.03000000    0.07000000
   18.38500023  114.92600250    0.03000000    0.07000000
   18.38833237  114.19699860    0.03000000    0.07000000
   18.39138794  118.98799896    0.03000000    0.07000000
   18.39472198  120.59999847    0.03000000    0.07000000
   18.39777756  129.85800171    0.03000000    0.07000000
   18.40111160  133.17700195    0.03000000    0.07000000
   18.40444374  113.97000122    0.03000000    0.07000000
   18.40749931  112.76000214    0.03000000    0.07000000
   18.40833282  118.52899933    0.03000000    0.07000000
   18.41416550  118.52899933    0.03000000    0.07000000
   18.41805458  120.60700226    0.03000000    0.07000000
   18.42138863  119.52100372    0.03000000    0.07000000
   18.42472076  120.89600372    0.03000000    0.07000000
   18.42777634  117.42199707    0.03000000    0.07000000
   18.43111038  127.53900146    0.03000000    0.07000000
   18.43444443  123.25199890    0.03000000    0.07000000
   18.43750000  117.80500031    0.03000000    0.07000000
   18.44083214  123.47799683    0.03000000    0.07000000
   18.44166565  129.81100464    0.03000000    0.07000000
   18.44444275  127.99600220    0.03000000    0.07000000
   18.44749832  127.06300354    0.03000000    0.07000000
   18.45083427  128.41799927    0.03000000    0.07000000
   18.45694542  128.41799927    0.03000000    0.07000000
   18.46111107  118.27400208    0.03000000    0.07000000
   18.46416664  120.82199860    0.03000000    0.07000000
   18.46750069  128.46000671    0.03000000    0.07000000
   18.47055626  121.23799896    0.03000000    0.07000000
   18.47389030  125.84600067    0.03000000    0.07000000
   18.47500038  121.24700165    0.03000000    0.07000000
   18.47750092  132.77999878    0.03000000    0.07000000
   18.48055649  116.32700348    0.03000000    0.07000000
   18.48388863  112.03299713    0.03000000    0.07000000
   18.48722267  112.20800018    0.03000000    0.07000000
   18.49027824  121.05799866    0.03000000    0.07000000
   18.49361229  123.17500305    0.03000000    0.07000000
   18.49972153  123.17500305    0.03000000    0.07000000
   18.50388908  113.90299988    0.03000000    0.07000000
   18.50694466  126.89499664    0.03000000    0.07000000
   18.50833321  121.08699799    0.03000000    0.07000000
   18.51083374  128.60699463    0.03000000    0.07000000
   18.51388931  125.00800323    0.03000000    0.07000000
   18.51722145  134.94299316    0.03000000    0.07000000
   18.52055550  125.06400299    0.03000000    0.07000000
   18.52361107  130.64599609    0.03000000    0.07000000
   18.52694511  129.47599792    0.03000000    0.07000000
   18.53027725  128.47500610    0.03000000    0.07000000
   18.53333282  131.63600159    0.03000000    0.07000000
   18.53666687  121.89099884    0.03000000    0.07000000
   18.54249954  121.89099884    0.03000000    0.07000000
   18.54666710  136.17799377    0.03000000    0.07000000
   18.54999924  139.41099548    0.03000000    0.07000000
   18.55305481  138.36500549    0.03000000    0.07000000
   18.55638885  145.63200378    0.03000000    0.07000000
   18.55972099  128.11099243    0.03000000    0.07000000
   18.56277657  128.66799927    0.03000000    0.07000000
   18.56611061  125.61699677    0.03000000    0.07000000
   18.56916809  142.12600708    0.03000000    0.07000000
   18.57250023  144.68099976    0.03000000    0.07000000
   18.57500076  154.18200684    0.03000000    0.07000000
   18.57611275  133.85699463    0.03000000    0.07000000
   18.57916832  132.72599792    0.03000000    0.07000000
   18.58527756  132.72599792    0.03000000    0.07000000
   18.58944511  136.89799500    0.03000000    0.07000000
   18.59277916  128.63299561    0.03000000    0.07000000
   18.59611130  130.25900269    0.03000000    0.07000000
   18.59916687  143.24400330    0.03000000    0.07000000
   18.60250092  135.28700256    0.03000000    0.07000000
   18.60555649  147.62399292    0.03000000    0.07000000
   18.60833359  111.42700195    0.03000000    0.07000000
   18.60944557  112.41400146    0.03000000    0.07000000
   18.61277771  140.60899353    0.03000000    0.07000000
   18.61583328  137.97000122    0.03000000    0.07000000
   18.61916733  149.73500061    0.03000000    0.07000000
   18.62222290  151.62699890    0.03000000    0.07000000
   18.62833405  151.62699890    0.03000000    0.07000000
   18.63249969  186.92599487    0.03000000    0.07000000
   18.63555527  182.94599915    0.03000000    0.07000000
   18.63888931  184.88299561    0.03000000    0.07000000
   18.64166641  191.41000366    0.03000000    0.07000000
   18.64249992  163.66900635    0.03000000    0.07000000
   18.64583397  138.52200317    0.03000000    0.07000000
   18.64888954  154.30999756    0.03000000    0.07000000
   18.65222168  165.55299377    0.03000000    0.07000000
   18.65555573  144.73199463    0.03000000    0.07000000
   18.65861130  139.90299988    0.03000000    0.07000000
   18.66194344  130.44099426    0.03000000    0.07000000
   18.66499901  138.89100647    0.03000000    0.07000000
   18.67111015  138.89100647    0.03000000    0.07000000
   18.67527771  133.37300110    0.03000000    0.07000000
   18.67833328  143.91799927    0.03000000    0.07000000
   18.68166542  135.30200195    0.03000000    0.07000000
   18.68499947  154.37100220    0.03000000    0.07000000
   18.68805504  155.10200500    0.03000000    0.07000000
   18.69138718  157.12300110    0.03000000    0.07000000
   18.69472122  136.13999939    0.03000000    0.07000000
   18.69777679  146.47399902    0.03000000    0.07000000
   18.70111275  144.25700378    0.03000000    0.07000000
   18.70416832  146.81700134    0.03000000    0.07000000
   18.70750046  148.86500549    0.03000000    0.07000000
   18.70833397  156.07699585    0.03000000    0.07000000
   18.71389008  156.07699585    0.03000000    0.07000000
   18.71805573  160.97799683    0.03000000    0.07000000
   18.72138977  132.46899414    0.03000000    0.07000000
   18.72444534  143.69200134    0.03000000    0.07000000
