    HOUR (UT)   FLARE FACTOR    SKY TESTER    SUN TESTER
   11.59361076   -1.00000000   -1.00000000   -1.00000000
   11.61361122  215.99899292    0.30000001    0.03000000
   11.61861134  227.55200195    0.30000001    0.05000000
   11.62222195  261.96701050    0.28000000    0.05000000
   11.62555599  257.06399536    0.30000001    0.05000000
   11.62888908  251.64300537    0.28000000    0.05000000
   11.63194466  294.14401245    0.28000000    0.05000000
   11.63527775  294.67401123    0.28000000    0.05000000
   11.63833332  259.73999023    0.28000000    0.05000000
   11.64166641  287.24700928    0.28000000    0.05000000
   11.64499950  302.00601196    0.44000000    0.95999998
   11.64694405  311.47601318    0.44000000    0.95999998
   11.64861107  302.26400757    0.11000000    0.50000000
   11.65194416  301.50799561    3.26999998    1.66999996
   11.65499973  330.95599365    1.39999998    1.66999996
   11.65833282  311.75601196    1.38000000    1.66999996
   11.66138840  312.50698853    1.36000001    1.66999996
   11.66472149  317.51400757    1.36000001    1.66999996
   11.66805553  310.25900269    1.38000000    1.69000006
   11.67111111  360.16699219    1.38000000    1.69000006
   11.67444515  342.90701294    1.36000001    1.69000006
   11.67777824  297.70498657    1.38000000    1.69000006
   11.68027782  309.68899536    1.38000000    1.71000004
   11.68138885  333.02301025    1.38000000    1.71000004
   11.68472195  317.44000244    1.38000000    1.71000004
   11.68777752  296.33099365    1.38000000    1.73000002
   11.69111156  295.05999756    1.38000000    1.71000004
   11.69444466  288.69299316    1.38000000    1.73000002
   11.69750023  295.22601318    1.38000000    1.75000000
   11.70083332  301.33599854    1.39999998    1.75000000
   11.70388889  312.28799438    1.38000000    1.75000000
   11.70722198  295.96499634    1.38000000    1.75000000
   11.71055508  271.93701172    1.38000000    1.75000000
   11.71361065  287.26901245    1.38000000    1.75000000
   11.71416664  291.97100830    1.38000000    1.75000000
   11.71749973  280.37500000    1.38000000    1.75000000
   11.72055531  293.71398926    1.36000001    1.75000000
   11.72388840  275.85000610    1.36000001    1.76999998
   11.72694397  276.01098633    1.36000001    1.76999998
   11.73027706  279.42098999    1.36000001    1.76999998
   11.73361111  267.22100830    1.36000001    1.76999998
   11.73666668  261.85198975    1.36000001    1.78999996
   11.74000072  266.87500000    1.33000004    1.80999994
   11.74333382  279.54299927    1.30999994    1.80999994
   11.74638939  258.37200928    1.28999996    1.80999994
   11.74694443  258.97399902    1.28999996    1.80999994
   11.75000000  261.50100708    1.28999996    1.80999994
   11.75333309  256.06600952    1.28999996    1.83000004
   11.75638866  261.89199829    1.28999996    1.83000004
   11.75972176  267.72799683    1.26999998    1.83000004
   11.76305580  260.56500244    1.26999998    1.83000004
   11.76611137  250.73800659    1.25000000    1.85000002
   11.76944447  267.16101074    1.25000000    1.85000002
   11.77277756  258.26998901    1.25000000    1.85000002
   11.77583313  257.33499146    1.23000002    1.85000002
   11.77916622  265.00100708    1.23000002    1.86000001
   11.78027725  256.47799683    1.23000002    1.86000001
   11.78277779  259.08099365    1.21000004    1.86000001
   11.78611183  249.72000122    1.23000002    1.85000002
   11.78944492  255.21499634    1.21000004    1.86000001
   11.79277802  261.81298828    1.19000006    1.86000001
   11.79583359  259.64999390    1.19000006    1.88000000
   11.79916668  238.58000183    1.19000006    1.88000000
   11.80472279  245.56100464    1.16999996    1.89999998
   11.80777836  261.75900269    1.16999996    1.89999998
   11.81111145  231.36799622    1.14999998    1.89999998
   11.81361103  251.10699463    1.13000000    1.89999998
   11.81472206  234.94599915    1.14999998    1.89999998
   11.81805515  225.49899292    1.13000000    1.89999998
   11.82111073  245.25199890    1.13000000    1.91999996
   11.82444477  258.10800171    1.14999998    1.89999998
   11.82777786  272.87399292    1.13000000    1.91999996
   11.83083344  233.40800476    1.13000000    1.89999998
   11.83416653  229.90100098    1.13000000    1.89999998
   11.83722210  220.39900208    1.11000001    1.91999996
   11.84055519  235.59599304    1.11000001    1.91999996
   11.84388828  230.34599304    1.09000003    1.94000006
   11.84722233  231.68600464    1.09000003    1.91999996
   11.84749985  217.48699951    1.09000003    1.91999996
   11.85083389  203.56199646    1.07000005    1.94000006
   11.85416698  225.66900635    1.07000005    1.94000006
   11.85722256  221.29400635    1.07000005    1.94000006
   11.86055565  223.50100708    1.07000005    1.94000006
   11.86361122  225.14700317    1.05999994    1.96000004
   11.86694431  241.22799683    1.05999994    1.96000004
   11.87027836  232.29400635    1.05999994    1.98000002
   11.87333393  236.02200317    1.05999994    1.98000002
   11.87666702  228.56700134    1.05999994    1.98000002
   11.88000011  233.74800110    1.05999994    1.98000002
   11.88027763  218.54200745    1.05999994    1.98000002
   11.88333321  215.25999451    1.05999994    1.98000002
   11.88666630  232.69299316    1.05999994    1.98000002
   11.88972187  220.08000183    1.05999994    1.98000002
   11.89305496  237.50300598    1.05999994    1.98000002
   11.89638901  232.17999268    1.05999994    2.00000000
   11.89944458  229.91600037    1.05999994    1.98000002
   11.90277767  222.69599915    1.05999994    1.98000002
   11.90611076  215.44900513    1.05999994    2.00000000
   11.90916634  231.65699768    1.03999996    2.00000000
   11.91249943  218.69299316    1.03999996    2.00000000
   11.91361046  232.75100708    1.03999996    2.00000000
   11.91611099  213.66400146    1.03999996    2.00000000
   11.91944504  317.54400635    1.03999996    2.00000000
   11.92250061  341.80599976    1.05999994    2.01999998
   11.92583370  431.57199097    1.05999994    2.01999998
   11.92777824  257.44699097    1.03999996    2.01999998
   11.92805576  213.66400146    1.03999996    2.00000000
   11.92805576  317.54400635    1.03999996    2.00000000
   11.92805576  341.80599976    1.05999994    2.01999998
   11.92833328  431.57199097    1.05999994    2.01999998
   11.92833328  229.91600037    1.05999994    1.98000002
   11.92833328  222.69599915    1.05999994    1.98000002
   11.92861176  215.44900513    1.05999994    2.00000000
   11.92861176  231.65699768    1.03999996    2.00000000
   11.92861176  218.69299316    1.03999996    2.00000000
   11.93055630  286.71301270    1.03999996    2.01999998
   11.93361092  325.81600952    1.03999996    2.01999998
   11.93694496  300.81600952    1.03999996    2.01999998
   11.94027805  379.03201294    1.03999996    2.01999998
   11.94333363  263.82199097    1.01999998    2.01999998
   11.94861126  263.82199097    1.01999998    2.01999998
   11.95277786  302.03399658    0.98000002    2.05999994
   11.95611095  326.58300781    1.00000000    2.05999994
   11.95944405  319.88299561    0.98000002    2.03999996
   11.96166611  326.37100220    0.98000002    2.03999996
   11.96305561  284.43600464    0.95999998    2.05999994
   11.96638870  272.78601074    0.95999998    2.05999994
   11.96944427  247.46000671    0.95999998    2.05999994
   11.97277737  294.98599243    0.98000002    2.03999996
   11.97583294  236.25900269    0.95999998    2.05999994
   11.97916603  202.40400696    0.95999998    2.05999994
   11.98249912  202.33000183    0.95999998    2.07999992
   11.98555565  245.78900146    0.95999998    2.07999992
   11.99166679  245.78900146    0.95999998    2.09999990
   11.99555588  206.71099854    0.94000000    2.07999992
   11.99888897  220.34199524    0.94000000    2.07999992
   12.00222206  197.91499329    0.94000000    2.07999992
   12.00527763  192.64399719    0.94000000    2.09999990
   12.00861073  231.60499573    0.94000000    2.07999992
   12.01194477  196.09399414    0.92000002    2.09999990
   12.01500034  219.49899292    0.94000000    2.07999992
   12.01833344  193.10400391    0.94000000    2.07999992
   12.02138901  198.31599426    0.92000002    2.09999990
   12.02472210  223.48800659    0.94000000    2.09999990
   12.02805519  198.49699402    0.94000000    2.09999990
   12.02861118  199.80900574    0.94000000    2.09999990
   12.03444481  199.80900574    0.94000000    2.09999990
   12.03861141  206.42500305    0.94000000    2.11999989
   12.04166698  207.36500549    0.94000000    2.11999989
   12.04500008  208.27799988    0.94000000    2.11999989
   12.04833412  214.64300537    0.94000000    2.11999989
   12.05138874  208.17900085    0.92000002    2.13000011
   12.05472279  206.48399353    0.92000002    2.13000011
   12.05805588  190.12199402    0.92000002    2.11999989
   12.06111145  205.35099792    0.92000002    2.13000011
   12.06194496  211.52600098    0.92000002    2.13000011
   12.06472206  187.12800598    0.92000002    2.13000011
   12.06805515  192.10400391    0.94000000    2.13000011
   12.07138920  198.33299255    0.94000000    2.13000011
   12.07722187  198.33299255    0.94000000    2.13000011
   12.08138847  187.10400391    0.94000000    2.15000010
   12.08472157  178.19400024    0.94000000    2.15000010
   12.08777714  174.41000366    0.92000002    2.13000011
   12.09111118  183.66099548    0.92000002    2.15000010
   12.09416676  180.79499817    0.92000002    2.15000010
   12.09527779  196.08599854    0.92000002    2.15000010
   12.09777737  183.57400513    0.92000002    2.15000010
   12.10111141  172.22399902    0.92000002    2.15000010
   12.10444450  183.87199402    0.92000002    2.15000010
   12.10750008  188.23800659    0.92000002    2.15000010
   12.11083412  189.77299500    0.92000002    2.15000010
   12.11416721  190.45899963    0.92000002    2.15000010
   12.11999989  190.45899963    0.92000002    2.15000010
   12.12416649  200.37300110    0.92000002    2.17000008
   12.12750053  181.43299866    0.89999998    2.17000008
   12.12861156  202.03199768    0.89999998    2.17000008
   12.13111115  197.05599976    0.89999998    2.17000008
   12.13444424  199.20799255    0.89999998    2.17000008
   12.13777733  198.83900452    0.89999998    2.17000008
   12.14083290  217.21200562    0.89999998    2.17000008
   12.14416695  246.79600525    0.88000000    2.19000006
   12.14722252  225.49600220    0.88000000    2.19000006
   12.15055561  225.33700562    0.88000000    2.19000006
   12.15388870  227.53199768    0.88000000    2.19000006
   12.15694427  248.93299866    0.88000000    2.19000006
   12.16305542  248.93299866    0.88000000    2.19000006
   12.16694450  325.13598633    0.88000000    2.21000004
   12.17027855  299.49200439    0.88000000    2.19000006
   12.17361164  292.01400757    0.88000000    2.19000006
   12.17666721  267.24798584    0.88000000    2.19000006
   12.18000031  232.19700623    0.88000000    2.19000006
   12.18305588  288.73001099    0.88000000    2.21000004
   12.18638897  232.74299622    0.88000000    2.21000004
   12.18972206  237.26600647    0.89999998    2.21000004
   12.19277763  272.02301025    0.88000000    2.21000004
   12.19527817  242.47200012    0.88000000    2.21000004
   12.19638920  253.56500244    0.88000000    2.21000004
   12.19972229  321.54901123    0.88000000    2.21000004
   12.20583344  321.54901123    0.88000000    2.21000004
   12.21000004  223.10099792    0.88000000    2.21000004
   12.21305561  236.96899414    0.88000000    2.23000002
   12.21638870  231.87500000    0.86000001    2.23000002
   12.21944427  229.94500732    0.88000000    2.23000002
   12.22277737  200.24099731    0.88000000    2.23000002
   12.22611046  210.39799500    0.88000000    2.23000002
   12.22861099  228.69000244    0.88000000    2.23000002
   12.22972202  213.23899841    0.88000000    2.23000002
   12.23305511  232.51600647    0.86000001    2.23000002
   12.23638916  217.03300476    0.86000001    2.25000000
   12.23944473  206.52699280    0.86000001    2.25000000
   12.24277782  200.15299988    0.86000001    2.23000002
   12.24861145  200.15299988    0.86000001    2.25000000
   12.25277805  180.84599304    0.86000001    2.25000000
   12.25583363  208.33299255    0.86000001    2.25000000
   12.25916672  181.97799683    0.86000001    2.25000000
   12.26194477  199.33700562    0.86000001    2.25000000
   12.26277733  184.46499634    0.86000001    2.25000000
   12.26611137  169.04800415    0.86000001    2.25000000
   12.26944447  178.22799683    0.86000001    2.25000000
   12.27250004  165.94299316    0.86000001    2.25000000
   12.27583313  171.84300232    0.86000001    2.26999998
   12.27888870  167.64100647    0.86000001    2.25000000
   12.28249931  167.96099854    0.86000001    2.25000000
   12.28583336  198.18800354    0.86000001    2.26999998
   12.29138947  198.18800354    0.86000001    2.26999998
   12.29555607  183.93699646    0.86000001    2.26999998
   12.29888916  193.97900391    0.86000001    2.26999998
   12.30194473  188.13699341    0.86000001    2.26999998
   12.30527782  188.54299927    0.86000001    2.26999998
   12.30861092  180.03799438    0.86000001    2.26999998
   12.31166649  208.24600220    0.86000001    2.26999998
   12.31500053  183.81399536    0.86000001    2.26999998
   12.31805515  181.59199524    0.83999997    2.28999996
   12.32138920  187.45799255    0.86000001    2.28999996
   12.32472229  193.49000549    0.83999997    2.28999996
   12.32777786  181.89599609    0.83999997    2.28999996
   12.32861137  192.05200195    0.83999997    2.28999996
   12.33416653  192.05200195    0.83999997    2.28999996
   12.33833313  177.48100281    0.83999997    2.28999996
   12.34166622  176.21899414    0.83999997    2.28999996
   12.34499931  194.27299500    0.83999997    2.30999994
   12.34805489  174.49400330    0.83999997    2.30999994
   12.35138893  170.42599487    0.83999997    2.30999994
   12.35472298  195.42199707    0.83999997    2.30999994
   12.35777855  182.97200012    0.83999997    2.30999994
   12.36111164  166.17999268    0.81999999    2.30999994
   12.36194515  170.70100403    0.83999997    2.28999996
   12.36472225  164.11900330    0.81999999    2.30999994
   12.36805534  171.38099670    0.81999999    2.30999994
   12.37138939  179.09800720    0.81999999    2.32999992
   12.37722206  179.09800720    0.81999999    2.30999994
   12.38138866  181.81700134    0.81999999    2.30999994
   12.38444424  179.04899597    0.81999999    2.32999992
   12.38777733  173.26499939    0.80000001    2.30999994
   12.39083290  178.91999817    0.80000001    2.32999992
   12.39416695  183.33999634    0.80000001    2.32999992
   12.39527798  173.55000305    0.80000001    2.30999994
   12.39777756  179.17799377    0.80000001    2.32999992
   12.40111065  176.49699402    0.79000002    2.32999992
   12.40444374  181.88499451    0.79000002    2.30999994
   12.40749931  176.41400146    0.79000002    2.32999992
   12.41083336  173.28100586    0.79000002    2.32999992
   12.41388893  169.93600464    0.79000002    2.32999992
   12.42000008  169.93600464    0.79000002    2.32999992
   12.42416668  160.55900574    0.79000002    2.32999992
   12.42722225  177.30900574    0.76999998    2.34999990
   12.42861176  165.78199768    0.76999998    2.34999990
   12.43083382  163.73399353    0.79000002    2.36999989
   12.43416691  163.27099609    0.76999998    2.32999992
   12.43750000  173.00999451    0.79000002    2.32999992
   12.44083309  168.09399414    0.76999998    2.34999990
   12.44388866  169.43499756    0.76999998    2.34999990
   12.44722271  172.57899475    0.76999998    2.34999990
   12.45055580  165.42999268    0.76999998    2.34999990
   12.45361137  165.85800171    0.75000000    2.34999990
   12.45694447  164.07800293    0.75000000    2.34999990
   12.46277714  164.07800293    0.75000000    2.36999989
   12.46694374  170.05400085    0.75000000    2.36999989
   12.47027779  163.29299927    0.75000000    2.36999989
   12.47333336  168.86099243    0.75000000    2.36999989
   12.47666645  177.05200195    0.75000000    2.36999989
   12.47999954  167.94700623    0.75000000    2.36999989
   12.48305511  168.49200439    0.75000000    2.36999989
   12.48638916  183.16000366    0.75000000    2.36999989
   12.48944473  175.89100647    0.73000002    2.36999989
   12.49277782  174.57699585    0.73000002    2.36999989
   12.49527836  168.85299683    0.73000002    2.39000010
   12.49638939  174.86000061    0.73000002    2.36999989
   12.49972248  170.65800476    0.73000002    2.39000010
   12.50583363  170.65800476    0.73000002    2.39000010
   12.50972176  167.92599487    0.73000002    2.39000010
   12.51305580  172.83700562    0.70999998    2.39000010
   12.51638889  171.67900085    0.70999998    2.39000010
   12.51944447  163.69200134    0.70999998    2.39000010
   12.52277756  182.66999817    0.70999998    2.39000010
   12.52583313  169.78599548    0.70999998    2.39000010
   12.52861118  164.99800110    0.70999998    2.39000010
   12.52944374  170.68800354    0.70999998    2.39000010
   12.53277779  169.88699341    0.70999998    2.39000010
   12.53611183  161.76499939    0.70999998    2.39000010
   12.53916740  165.80400085    0.70999998    2.39000010
   12.54250050  160.14199829    0.70999998    2.39000010
   12.54861164  160.14199829    0.70999998    2.39000010
   12.55277824  207.12600708    0.70999998    2.39000010
   12.55583382  210.24200439    0.70999998    2.39000010
   12.55916691  207.21699524    0.69000000    2.40000010
   12.56194496  177.38600159    0.69000000    2.40000010
   12.56277752  189.36199951    0.69000000    2.40000010
   12.56611156  203.69700623    0.70999998    2.40000010
   12.56944466  222.18200684    0.70999998    2.40000010
   12.57250023  176.31900024    0.70999998    2.40000010
   12.57583332  178.44999695    0.69000000    2.40000010
   12.57916641  223.66900635    0.69000000    2.40000010
   12.58222198  189.32299805    0.69000000    2.40000010
   12.58555508  188.86900330    0.69000000    2.40000010
   12.59138870  188.86900330    0.67000002    2.40000010
   12.59555531  178.32099915    0.69000000    2.40000010
   12.59861088  165.35200500    0.67000002    2.40000010
   12.60194492  162.80000305    0.67000002    2.40000010
   12.60527802  173.49099731    0.67000002    2.40000010
   12.60833359  172.14300537    0.67000002    2.40000010
   12.61166668  167.61099243    0.67000002    2.42000008
   12.63055611  185.12300110    0.67000002    2.42000008
   12.63472176  185.12300110    0.67000002    2.44000006
   12.63888836  200.48500061    0.67000002    2.42000008
   12.64194393  204.62699890    0.64999998    2.42000008
   12.64527798  215.52900696    0.64999998    2.44000006
   12.64861107  208.02499390    0.64999998    2.44000006
   12.65166664  201.50500488    0.64999998    2.42000008
   12.65499973  202.02799988    0.64999998    2.44000006
   12.65833282  216.77900696    0.63000000    2.46000004
   12.66138840  215.37100220    0.63000000    2.44000006
   12.66388893  228.56100464    0.63000000    2.44000006
   12.66499996  198.64100647    0.63000000    2.42000008
   12.66833401  222.14700317    0.63000000    2.44000006
   12.67138958  213.29299927    0.63000000    2.44000006
   12.67750072  213.29299927    0.63000000    2.44000006
   12.68166733  208.43299866    0.63000000    2.44000006
   12.68500042  209.67999268    0.63000000    2.46000004
   12.68805599  212.60299683    0.63000000    2.44000006
   12.69138908  206.73699951    0.63000000    2.44000006
   12.69472218  203.89999390    0.63000000    2.44000006
   12.69722271  200.27400208    0.63000000    2.46000004
   12.69805527  199.03700256    0.63000000    2.46000004
   12.70138836  189.79100037    0.63000000    2.46000004
   12.70472240  193.39799500    0.63000000    2.44000006
   12.70777798  201.89700317    0.63000000    2.44000006
   12.71111107  200.39199829    0.63000000    2.46000004
   12.71444416  205.13699341    0.63000000    2.46000004
   12.72027779  205.13699341    0.63000000    2.46000004
   12.72444439  191.57400513    0.63000000    2.46000004
   12.72777748  216.74099731    0.64999998    2.46000004
   12.73055553  220.61999512    0.63000000    2.44000006
   12.73111057  241.93299866    0.63000000    2.44000006
   12.73444462  222.41700745    0.63000000    2.46000004
   12.73777771  249.38800049    0.63000000    2.46000004
   12.74083328  247.74200439    0.63000000    2.46000004
   12.74416733  213.80099487    0.63000000    2.46000004
   12.74750042  228.96299744    0.63000000    2.46000004
   12.75055599  203.97900391    0.63000000    2.46000004
   12.75388908  221.66799927    0.63000000    2.48000002
   12.75722218  211.71899414    0.63000000    2.46000004
   12.76333332  211.71899414    0.63000000    2.46000004
   12.76749992  201.12399292    0.63000000    2.46000004
   12.77055550  206.68499756    0.63000000    2.46000004
   12.77388859  221.53700256    0.63000000    2.48000002
   12.77694416  226.71000671    0.63000000    2.48000002
   12.78027725  202.08200073    0.64999998    2.46000004
   12.78361130  187.25300598    0.64999998    2.46000004
   12.78666687  225.74000549    0.63000000    2.48000002
   12.79000092  195.35699463    0.63000000    2.46000004
   12.79333401  243.41400146    0.63000000    2.48000002
   12.79638958  208.09100342    0.63000000    2.48000002
   12.79833412  208.43600464    0.63000000    2.48000002
   12.80000019  224.78700256    0.63000000    2.48000002
   12.80611134  224.78700256    0.63000000    2.48000002
   12.81027794  200.84700012    0.63000000    2.48000002
   12.81333351  204.27000427    0.63000000    2.50000000
   12.81666660  212.21000671    0.63000000    2.48000002
   12.81999969  198.56199646    0.63000000    2.48000002
   12.82305527  185.98800659    0.61000001    2.48000002
   12.82638836  191.05099487    0.61000001    2.48000002
   12.82944393  218.48599243    0.61000001    2.50000000
   12.83166695  188.82699585    0.61000001    2.50000000
   12.83333302  185.77000427    0.61000001    2.48000002
   12.83638859  200.75000000    0.61000001    2.48000002
   12.83972168  208.88699341    0.61000001    2.48000002
   12.84277725  197.75100708    0.61000001    2.48000002
   12.84888840  197.75100708    0.58999997    2.50000000
   12.85305595  179.26699829    0.58999997    2.50000000
   12.85638905  198.11000061    0.58999997    2.50000000
   12.85944462  190.74400330    0.58999997    2.50000000
   12.86277771  193.50100708    0.61000001    2.51999998
   12.86527824  180.72500610    0.58999997    2.50000000
   12.86638927  198.28900146    0.61000001    2.51999998
   12.86972237  183.62699890    0.58999997    2.51999998
   12.87305546  186.55999756    0.58999997    2.48000002
   12.87611103  193.28100586    0.58999997    2.50000000
   12.87944412  193.18800354    0.58999997    2.50000000
   12.88277817  184.89599609    0.58999997    2.51999998
   12.88583279  185.89100647    0.58999997    2.51999998
   12.89166641  185.89100647    0.58999997    2.51999998
   12.89583302  186.09199524    0.58999997    2.51999998
   12.89861107  193.78799438    0.58999997    2.51999998
   12.89944458  178.65100098    0.58999997    2.51999998
   12.90305519  183.13200378    0.58999997    2.51999998
   12.90611076  188.00700378    0.58999997    2.51999998
   12.90944386  192.80599976    0.58999997    2.50000000
   12.91277695  186.74299622    0.58999997    2.51999998
   12.91583252  193.14500427    0.58999997    2.51999998
   12.91916656  193.59599304    0.58999997    2.51999998
   12.92222214  183.96299744    0.58999997    2.51999998
   12.92555618  187.65600586    0.58999997    2.51999998
   12.92888927  188.17199707    0.58999997    2.51999998
   12.93472195  188.17199707    0.58999997    2.51999998
   12.93861103  183.28100586    0.61000001    2.51999998
   12.94194412  187.64700317    0.58999997    2.51999998
   12.94527817  175.48199463    0.61000001    2.51999998
   12.94833374  184.05799866    0.58999997    2.51999998
   12.95166683  184.07600403    0.58999997    2.50000000
   12.95499992  183.18400574    0.61000001    2.51999998
   12.95805550  180.61500549    0.58999997    2.51999998
   12.96138859  187.82000732    0.58999997    2.53999996
   12.96444416  180.76600647    0.58999997    2.50000000
   12.96555519  178.39700317    0.58999997    2.51999998
   12.96805477  188.77299500    0.58999997    2.51999998
   12.97138882  187.18800354    0.58999997    2.53999996
   12.97749996  187.18800354    0.58999997    2.51999998
   12.98166656  195.86799622    0.58999997    2.51999998
   12.98472214  195.04600525    0.58999997    2.53999996
   12.98805618  180.83500671    0.56999999    2.53999996
   12.99138927  193.11900330    0.56999999    2.53999996
   12.99444485  182.42199707    0.58999997    2.51999998
   12.99777794  185.98500061    0.56999999    2.53999996
   12.99888897  175.72399902    0.56999999    2.53999996
   13.00138855  178.48100281    0.56999999    2.53999996
   13.00444412  173.92599487    0.56999999    2.50000000
   13.00777817  182.76800537    0.56999999    2.50000000
   13.01111126  173.87800598    0.56999999    2.53999996
   13.01416683  189.30000305    0.56999999    2.53999996
   13.02027798  189.30000305    0.56999999    2.53999996
   13.02444458  184.28900146    0.56999999    2.51999998
   13.02777767  193.07600403    0.56999999    2.53999996
   13.03083324  179.12600708    0.56999999    2.53999996
   13.03249931  179.24499512    0.56999999    2.53999996
   13.03472233  173.27999878    0.56999999    2.53999996
   13.03777790  180.34100342    0.56999999    2.53999996
   13.04111195  190.12300110    0.56999999    2.53999996
   13.04416752  167.73100281    0.56999999    2.53999996
   13.04750061  185.22399902    0.56999999    2.53999996
   13.05083370  183.53100586    0.56999999    2.53999996
   13.05388927  193.67999268    0.56999999    2.53999996
   13.05722237  176.52000427    0.56999999    2.55999994
   13.06305599  176.52000427    0.55000001    2.55999994
   13.06722260  173.18899536    0.56999999    2.55999994
   13.07055569  171.29400635    0.55000001    2.55999994
   13.07361126  180.96899414    0.55000001    2.53999996
   13.07694435  197.39599609    0.55000001    2.55999994
   13.08027744  174.41099548    0.55000001    2.55999994
   13.08333302  175.20300293    0.55000001    2.55999994
   13.08666611  165.65800476    0.55000001    2.55999994
   13.09000015  175.77600098    0.55000001    2.55999994
   13.09305477  176.60899353    0.55000001    2.55999994
   13.09638882  188.03399658    0.55000001    2.55999994
   13.09916592  185.08900452    0.55000001    2.55999994
   13.10000038  178.82099915    0.55000001    2.55999994
   13.10611153  178.82099915    0.52999997    2.53999996
   13.11027813  178.08900452    0.52999997    2.55999994
   13.11333370  176.30299377    0.55000001    2.53999996
   13.11666679  178.70100403    0.55000001    2.53999996
   13.11999989  179.63200378    0.52999997    2.57999992
   13.12305546  166.04800415    0.52999997    2.57999992
   13.12638855  169.02499390    0.52999997    2.55999994
   13.12944412  168.13200378    0.55000001    2.55999994
   13.13249969  170.59300232    0.55000001    2.55999994
   13.13305569  170.63699341    0.55000001    2.55999994
   13.13638878  174.45100403    0.52999997    2.57999992
   13.13972187  170.90400696    0.52999997    2.57999992
   13.14277744  171.95500183    0.52999997    2.57999992
   13.14888859  171.95500183    0.52999997    2.55999994
   13.15305519  167.41499329    0.52999997    2.57999992
   13.15611076  169.58700562    0.55000001    2.55999994
   13.15944386  173.20799255    0.52999997    2.55999994
   13.16277695  176.16499329    0.52999997    2.57999992
   13.16583252  180.41200256    0.52999997    2.55999994
   13.16611099  169.60899353    0.55000001    2.55999994
   13.16944504  177.53599548    0.52999997    2.57999992
   13.17277813  186.22200012    0.55000001    2.57999992
   13.17583370  186.24400330    0.55000001    2.57999992
   13.17916679  209.82699585    0.52999997    2.57999992
   13.18222237  190.72300720    0.52999997    2.55999994
   13.18555546  190.34599304    0.55000001    2.57999992
   13.19166660  190.34599304    0.52999997    2.57999992
   13.19583321  171.12199402    0.52999997    2.57999992
   13.19916630  183.28900146    0.52999997    2.57999992
   13.19944477  211.08700562    0.52999997    2.57999992
   13.20277786  206.63200378    0.52999997    2.55999994
   13.20611095  186.69000244    0.55000001    2.57999992
   13.20916653  203.44500732    0.52999997    2.57999992
   13.21249962  184.33299255    0.52999997    2.57999992
   13.21555519  181.88299561    0.52999997    2.57999992
   13.21888828  200.03900146    0.52999997    2.57999992
   13.22222137  200.66700745    0.55000001    2.59999990
   13.22527695  182.81500244    0.52999997    2.57999992
   13.22861099  189.46499634    0.52999997    2.57999992
   13.23444462  189.46499634    0.52999997    2.57999992
   13.23861122  187.66200256    0.52999997    2.57999992
   13.24194431  187.07800293    0.52999997    2.57999992
   13.24527836  192.05200195    0.52999997    2.57999992
   13.24833393  185.41400146    0.51999998    2.57999992
   13.25166702  175.75599670    0.51999998    2.57999992
   13.25472260  190.96099854    0.52999997    2.57999992
   13.25805569  166.63600159    0.52999997    2.59999990
   13.26138878  179.43299866    0.52999997    2.57999992
   13.26444435  170.96099854    0.52999997    2.59999990
   13.26583290  177.57499695    0.52999997    2.59999990
   13.26805496  185.44400024    0.52999997    2.59999990
   13.27138901  167.22500610    0.52999997    2.57999992
   13.27750015  167.22500610    0.52999997    2.55999994
   13.28138828  176.85000610    0.55000001    2.59999990
   13.28472233  170.22300720    0.52999997    2.59999990
   13.28805637  183.75599670    0.55000001    2.59999990
   13.29111195  180.08599854    0.52999997    2.59999990
   13.29444504  167.85200500    0.55000001    2.59999990
   13.29777813  159.07099915    0.55000001    2.61999989
   13.29916668  179.69700623    0.55000001    2.59999990
   13.30111122  171.96699524    0.55000001    2.59999990
   13.30444431  183.68200684    0.52999997    2.59999990
   13.30777836  176.12500000    0.55000001    2.59999990
   13.31083393  170.97999573    0.55000001    2.59999990
   13.31416702  185.11700439    0.55000001    2.59999990
   13.32027817  185.11700439    0.55000001    2.55999994
   13.32444477  178.91400146    0.55000001    2.59999990
   13.32750034  168.55099487    0.55000001    2.59999990
   13.33083344  172.45599365    0.55000001    2.59999990
   13.33249950  167.26899719    0.55000001    2.59999990
   13.33444405  175.46800232    0.55000001    2.57999992
   13.33777714  183.08700562    0.55000001    2.61999989
   13.34083271  193.50000000    0.55000001    2.61999989
   13.34416676  178.37399292    0.55000001    2.59999990
   13.34749985  196.45199585    0.55000001    2.59999990
   13.35055637  174.42199707    0.55000001    2.61999989
   13.35388947  186.92500305    0.55000001    2.61999989
   13.35694504  192.20199585    0.55000001    2.61999989
   13.36305618  192.20199585    0.52999997    2.59999990
   13.36722279  164.41799927    0.55000001    2.59999990
   13.37027836  173.81799316    0.55000001    2.59999990
   13.37361145  176.16700745    0.55000001    2.61999989
   13.37694454  177.75500488    0.52999997    2.59999990
   13.38000011  172.06700134    0.55000001    2.61999989
   13.38333321  173.01199341    0.52999997    2.61999989
   13.38666630  176.14900208    0.52999997    2.61999989
   13.38972187  170.46699524    0.55000001    2.61999989
   13.39305496  174.06799316    0.52999997    2.61999989
   13.39611053  169.31500244    0.52999997    2.64000010
   13.39916611  182.36099243    0.52999997    2.64000010
   13.39972210  178.12800598    0.55000001    2.61999989
   13.40583324  178.12800598    0.52999997    2.61999989
   13.40999985  172.86000061    0.52999997    2.59999990
   13.41333294  181.19000244    0.52999997    2.61999989
   13.41638851  170.49699402    0.52999997    2.61999989
   13.41972256  193.84399414    0.52999997    2.61999989
   13.42305565  188.68899536    0.52999997    2.59999990
   13.42611122  200.22999573    0.52999997    2.61999989
   13.42944431  184.13600159    0.52999997    2.61999989
   13.43277836  168.37300110    0.52999997    2.61999989
   13.43305588  191.42300415    0.52999997    2.61999989
   13.43638897  177.58599854    0.52999997    2.61999989
   13.43944454  194.38299561    0.52999997    2.61999989
   13.44277763  198.86500549    0.52999997    2.61999989
   13.44888878  198.86500549    0.51999998    2.64000010
   13.45277786  170.30700684    0.51999998    2.61999989
   13.45611095  187.15299988    0.51999998    2.64000010
   13.45944405  199.91299438    0.52999997    2.61999989
   13.46249962  195.99099731    0.51999998    2.61999989
   13.46583271  182.41499329    0.51999998    2.61999989
   13.46638870  179.66200256    0.51999998    2.61999989
   13.46944427  183.77000427    0.51999998    2.61999989
   13.47277737  184.10600281    0.51999998    2.64000010
   13.47611046  187.87300110    0.51999998    2.61999989
   13.47916603  202.13999939    0.51999998    2.61999989
   13.48249912  175.71899414    0.51999998    2.61999989
   13.48583317  181.38099670    0.51999998    2.64000010
   13.49166679  181.38099670    0.51999998    2.61999989
   13.49583340  172.39399719    0.51999998    2.64000010
   13.49888897  190.63999939    0.51999998    2.64000010
   13.49972248  208.30000305    0.52999997    2.64000010
   13.50249958  195.65899658    0.52999997    2.64000010
   13.50583363  204.42799377    0.51999998    2.64000010
   13.50916672  185.94400024    0.52999997    2.61999989
   13.51222229  197.33799744    0.51999998    2.64000010
   13.51555538  197.78900146    0.51999998    2.61999989
   13.51888847  200.67599487    0.51999998    2.64000010
   13.52194405  185.31399536    0.52999997    2.64000010
   13.52527714  179.36500549    0.51999998    2.64000010
   13.52833271  203.09100342    0.51999998    2.64000010
   13.53444481  203.09100342    0.51999998    2.64000010
   13.53861141  169.19299316    0.52999997    2.64000010
   13.54166698  180.22099304    0.52999997    2.64000010
   13.54500008  182.64900208    0.52999997    2.64000010
   13.54833412  161.96899414    0.51999998    2.64000010
   13.55138874  186.48599243    0.51999998    2.66000009
   13.55472279  172.41200256    0.52999997    2.61999989
   13.55805588  178.84800720    0.51999998    2.64000010
   13.56111145  185.02299500    0.51999998    2.64000010
   13.56444454  161.00199890    0.51999998    2.64000010
   13.56638908  182.27699280    0.51999998    2.64000010
   13.56777763  175.87399292    0.51999998    2.64000010
   13.57111073  194.81599426    0.51999998    2.66000009
   13.57722187  194.81599426    0.52999997    2.64000010
   13.58138847  185.56799316    0.51999998    2.64000010
   13.58472157  172.41099548    0.51999998    2.66000009
   13.58777714  177.06799316    0.51999998    2.64000010
   13.59111118  180.76899719    0.51999998    2.64000010
   13.59444427  171.58200073    0.51999998    2.64000010
   13.59749985  181.91700745    0.51999998    2.64000010
   13.59972191  185.97300720    0.51999998    2.67000008
   13.60111141  169.24499512    0.51999998    2.64000010
   13.60444450  178.67199707    0.52999997    2.64000010
   13.60777855  180.01800537    0.51999998    2.64000010
   13.61083412  172.80299377    0.51999998    2.66000009
   13.61416721  164.22999573    0.51999998    2.61999989
   13.61999989  164.22999573    0.51999998    2.64000010
   13.62416649  178.49899292    0.51999998    2.66000009
   13.62750053  158.74699402    0.51999998    2.64000010
   13.63083363  178.48199463    0.51999998    2.64000010
   13.64777756  214.91299438    0.50000000    2.64000010
   13.65083313  199.90100098    0.50000000    2.64000010
   13.65388870  194.75100708    0.50000000    2.66000009
   13.65722179  217.95399475    0.50000000    2.67000008
   13.66333294  217.95399475    0.50000000    2.66000009
   13.66750050  210.26899719    0.50000000    2.66000009
   13.67055607  200.92399597    0.50000000    2.69000006
   13.67388916  210.64300537    0.50000000    2.67000008
   13.67694473  212.82400513    0.47999999    2.66000009
   13.68027782  209.07299805    0.50000000    2.66000009
   13.68111134  216.27999878    0.47999999    2.66000009
   13.68416691  199.37899780    0.47999999    2.64000010
   13.68722248  224.20700073    0.47999999    2.66000009
   13.69055557  221.48100281    0.47999999    2.66000009
   13.69388866  223.97399902    0.47999999    2.66000009
   13.69694424  191.97999573    0.47999999    2.66000009
   13.70027733  222.54400635    0.47999999    2.66000009
   13.70611095  222.54400635    0.47999999    2.66000009
   13.71027756  204.81799316    0.50000000    2.67000008
   13.71333313  217.86900330    0.47999999    2.67000008
   13.71444416  208.61599731    0.47999999    2.67000008
   13.71722221  198.48399353    0.50000000    2.66000009
   13.72027779  190.16999817    0.50000000    2.66000009
   13.72361088  202.46400452    0.47999999    2.66000009
   13.72666645  199.36599731    0.47999999    2.66000009
   13.72999954  191.35699463    0.47999999    2.66000009
   13.73333359  187.56500244    0.47999999    2.67000008
   13.73638916  201.85699463    0.47999999    2.67000008
   13.73972225  190.65199280    0.47999999    2.67000008
   13.74305534  199.19000244    0.47999999    2.67000008
   13.74888897  199.19000244    0.47999999    2.66000009
   13.75305557  191.88000488    0.50000000    2.66000009
   13.75638866  205.14999390    0.50000000    2.66000009
   13.75944424  198.17399597    0.50000000    2.66000009
   13.76277733  203.34800720    0.50000000    2.67000008
   13.76583290  197.28399658    0.50000000    2.67000008
   13.76916599  201.24400330    0.50000000    2.66000009
   13.77250004  189.33099365    0.50000000    2.66000009
   13.77555561  199.53399658    0.50000000    2.66000009
   13.77888870  194.81399536    0.50000000    2.66000009
   13.78138828  200.86399841    0.50000000    2.66000009
   13.78249931  201.17700195    0.50000000    2.66000009
   13.78583336  191.41499329    0.51999998    2.67000008
   13.79166698  191.41499329    0.50000000    2.66000009
   13.79583359  186.76800537    0.50000000    2.66000009
   13.79916668  191.00999451    0.50000000    2.67000008
   13.80222225  198.37199402    0.50000000    2.67000008
   13.91249943   -1.00000000   -1.00000000   -1.00000000
   14.00888920   -1.00000000   -1.00000000   -1.00000000
   14.10916710   -1.00000000   -1.00000000   -1.00000000
   14.13388920  130.44099426    0.46000001    2.69000006
   14.13722229  182.43099976    0.46000001    2.69000006
   14.14055538  188.57000732    0.46000001    2.71000004
   14.14361095  173.50999451    0.47999999    2.69000006
   14.14694405  185.82299805    0.47999999    2.69000006
   14.15027714  171.13000488    0.47999999    2.71000004
   14.15416622  171.13000488    0.46000001    2.69000006
   14.15833282  178.80799866    0.46000001    2.71000004
   14.16166592  174.77900696    0.46000001    2.69000006
   14.16499996  179.96899414    0.46000001    2.71000004
   14.16722298  183.42500305    0.46000001    2.71000004
   14.16861153  182.78300476    0.46000001    2.71000004
   14.17166710  179.45500183    0.46000001    2.69000006
   14.17500019  173.93499756    0.46000001    2.71000004
   14.17833328  178.27099609    0.46000001    2.69000006
   14.18138885  184.79200745    0.46000001    2.69000006
   14.18472195  179.22000122    0.46000001    2.69000006
   14.18777752  179.42799377    0.44000000    2.71000004
   14.19111156  192.12199402    0.44000000    2.69000006
   14.19722271  192.12199402    0.44000000    2.71000004
   14.20138836  196.23500061    0.44000000    2.71000004
   14.20444393  193.25500488    0.44000000    2.69000006
   14.20777798  178.56100464    0.44000000    2.71000004
   14.21083355  185.32800293    0.44000000    2.69000006
   14.21416664  196.21800232    0.44000000    2.71000004
   14.21749973  189.64799500    0.44000000    2.71000004
   14.22055531  179.42799377    0.44000000    2.71000004
   14.22388840  174.41799927    0.41999999    2.69000006
   14.22722149  179.94700623    0.41999999    2.71000004
   14.23027706  177.75500488    0.44000000    2.71000004
   14.23361111  191.98899841    0.44000000    2.71000004
   14.23416710  187.00900269    0.41999999    2.71000004
   14.24000072  187.00900269    0.41999999    2.71000004
   14.24416733  192.25000000    0.44000000    2.71000004
   14.24722290  181.64199829    0.41999999    2.71000004
   14.25055599  199.73599243    0.41999999    2.71000004
   14.25388908  188.53300476    0.41999999    2.71000004
   14.25694466  185.13900757    0.41999999    2.71000004
   14.26027775  207.58700562    0.41999999    2.71000004
   14.26361084  194.08700562    0.41999999    2.71000004
   14.26666641  194.50399780    0.41999999    2.71000004
   14.26749992  196.67900085    0.41999999    2.71000004
   14.27027798  209.91499329    0.41999999    2.69000006
   14.27361107  185.09500122    0.41999999    2.71000004
   14.27694416  195.45399475    0.41999999    2.71000004
   14.28277779  195.45399475    0.41999999    2.71000004
   14.28694534  206.05400085    0.44000000    2.71000004
   14.29027843  181.78300476    0.44000000    2.71000004
   14.29333401  188.76800537    0.44000000    2.71000004
   14.29666710  170.74400330    0.44000000    2.71000004
   14.30000019  163.42799377    0.41999999    2.71000004
   14.30083370  173.68200684    0.41999999    2.69000006
   14.30333328  177.19400024    0.41999999    2.71000004
   14.30666733  176.84100342    0.41999999    2.73000002
   14.31000042  176.78799438    0.41999999    2.71000004
   14.31305599  181.80799866    0.41999999    2.73000002
   14.31638908  168.21899414    0.41999999    2.73000002
   14.31972218  174.70100403    0.41999999    2.73000002
   14.32555580  174.70100403    0.41999999    2.71000004
   14.32972240  180.92500305    0.41999999    2.71000004
   14.33305550  178.33900452    0.41999999    2.69000006
   14.33416653  180.85200500    0.41999999    2.71000004
   14.33666611  175.61099243    0.41999999    2.71000004
   14.34000015  175.76300049    0.41999999    2.71000004
   14.34333324  197.23699951    0.41999999    2.71000004
   14.34638882  174.76800537    0.41999999    2.71000004
   14.34972191  188.28900146    0.41999999    2.71000004
   14.35305595  191.57499695    0.41999999    2.71000004
   14.35611153  186.33900452    0.41999999    2.73000002
   14.35944462  190.97099304    0.41999999    2.71000004
   14.36250019  182.79100037    0.41999999    2.71000004
   14.36861134  182.79100037    0.41999999    2.71000004
   14.37277794  174.85099792    0.41999999    2.73000002
   14.37583351  180.71699524    0.41999999    2.71000004
   14.37916660  180.82299805    0.41999999    2.71000004
   14.38222218  182.96200562    0.41999999    2.73000002
   14.38555527  191.33799744    0.41999999    2.73000002
   14.38888836  187.95799255    0.41999999    2.71000004
   14.39194393  180.46000671    0.40000001    2.71000004
   14.39527798  182.32099915    0.40000001    2.75000000
   14.39861107  177.40899658    0.40000001    2.71000004
   14.40083313  173.96499634    0.40000001    2.71000004
   14.40194416  178.31799316    0.40000001    2.71000004
   14.40527725  164.88800049    0.40000001    2.73000002
   14.41138840  164.88800049    0.40000001    2.73000002
   14.41555500  173.55700684    0.38000000    2.71000004
   14.41888905  175.56199646    0.38000000    2.71000004
   14.42194462  177.36700439    0.38000000    2.71000004
   14.42527771  178.65499878    0.38000000    2.71000004
   14.42833328  175.70500183    0.38000000    2.73000002
   14.43166733  175.73699951    0.38000000    2.73000002
   14.43416691  168.61099243    0.38000000    2.75000000
   14.43527794  178.78599548    0.38000000    2.75000000
   14.43861103  163.85299683    0.38000000    2.73000002
   14.44194412  180.11900330    0.38000000    2.73000002
   14.44499969  179.46000671    0.38000000    2.73000002
   14.44833374  177.32899475    0.38000000    2.75000000
   14.45416641  177.32899475    0.36000001    2.71000004
   14.45833302  173.20399475    0.36000001    2.75000000
   14.46166611  180.13499451    0.36000001    2.73000002
   14.46472168  176.39500427    0.36000001    2.73000002
   14.46749973  176.23599243    0.38000000    2.73000002
   14.46861076  173.50000000    0.38000000    2.73000002
   14.47166634  176.54400635    0.38000000    2.73000002
   14.47499943  177.56399536    0.36000001    2.75000000
   14.47805500  182.05299377    0.36000001    2.73000002
   14.48138809  179.69200134    0.36000001    2.73000002
   14.48472214  179.61999512    0.36000001    2.73000002
   14.48777771  182.13200378    0.36000001    2.75000000
   14.49111176  177.78700256    0.36000001    2.75000000
   14.49694443  177.78700256    0.36000001    2.73000002
   14.50111103  176.26199341    0.36000001    2.73000002
   14.50444412  180.06799316    0.36000001    2.73000002
   14.50777817  180.57699585    0.36000001    2.73000002
   14.51083374  173.71400452    0.36000001    2.73000002
   14.51416683  173.05599976    0.36000001    2.75000000
   14.51722240  175.57200623    0.36000001    2.73000002
   14.52055550  163.68800354    0.36000001    2.73000002
   14.52388859  170.65499878    0.36000001    2.75000000
   14.52694416  171.16299438    0.36000001    2.75000000
   14.53027725  171.64300537    0.36000001    2.75000000
   14.53361130  169.22799683    0.36000001    2.75000000
   14.53416729  173.77600098    0.36000001    2.75000000
   14.54000092  173.77600098    0.36000001    2.73000002
   14.54416752  177.88800049    0.36000001    2.75000000
   14.54722309  161.20799255    0.36000001    2.75000000
   14.55055618  164.78900146    0.34000000    2.73000002
   14.55361176  172.23599243    0.34000000    2.75000000
   14.55694485  171.73599243    0.34000000    2.73000002
   14.56027794  174.82299805    0.34000000    2.75000000
   14.56333351  171.05400085    0.34000000    2.75000000
   14.56666660  162.25199890    0.36000001    2.75000000
   14.56750011  169.41600037    0.34000000    2.75000000
   14.56999969  175.09399414    0.34000000    2.75000000
   14.57333374  166.80400085    0.34000000    2.75000000
   14.57666683  176.74499512    0.36000001    2.75000000
   14.58277798  176.74499512    0.34000000    2.76999998
   14.58694458  179.48300171    0.34000000    2.75000000
   14.59000015  188.52499390    0.34000000    2.73000002
   14.59333324  172.44700623    0.36000001    2.73000002
   14.59666634  173.41600037    0.36000001    2.71000004
   14.59972191  176.21899414    0.36000001    2.71000004
   14.60083389  171.05000305    0.36000001    2.76999998
   14.60361195  181.52600098    0.36000001    2.76999998
   14.60666752  176.33500671    0.36000001    2.75000000
   14.61000061  174.42599487    0.36000001    2.73000002
   14.61305618  175.76800537    0.36000001    2.75000000
   14.61638927  175.63099670    0.38000000    2.75000000
   14.61972237  172.62300110    0.38000000    2.75000000
   14.62555599  172.62300110    0.36000001    2.75000000
   14.62972260  173.35499573    0.38000000    2.75000000
   14.63305569  164.47599792    0.38000000    2.75000000
   14.63416672  180.87100220    0.38000000    2.75000000
   14.63638878  169.99600220    0.38000000    2.75000000
   14.63972187  172.20300293    0.38000000    2.75000000
   14.64305496  177.92399597    0.38000000    2.73000002
   14.64611053  166.07499695    0.38000000    2.73000002
   14.64944458  175.11799622    0.38000000    2.73000002
   14.65277767  176.10699463    0.38000000    2.73000002
   14.65583324  168.00199890    0.38000000    2.73000002
   14.65916634  173.13699341    0.38000000    2.73000002
   14.66249943  167.67700195    0.38000000    2.73000002
   14.66833401  167.67700195    0.38000000    2.73000002
   14.67250061  183.85699463    0.36000001    2.75000000
   14.67583370  183.72999573    0.36000001    2.75000000
   14.67888927  169.61000061    0.36000001    2.75000000
   14.68222237  175.88499451    0.38000000    2.73000002
   14.68555546  180.96899414    0.36000001    2.75000000
   14.68861103  180.85899353    0.36000001    2.73000002
   14.69194412  180.04200745    0.38000000    2.75000000
   14.69527817  178.50100708    0.36000001    2.75000000
   14.69833374  181.02799988    0.36000001    2.75000000
   14.70083332  184.92300415    0.36000001    2.75000000
   14.70222187  170.16499329    0.36000001    2.75000000
   14.70527744  182.97500610    0.36000001    2.73000002
   14.71138859  182.97500610    0.36000001    2.75000000
   14.71555519  173.05499268    0.36000001    2.75000000
   14.71861076  178.65199280    0.36000001    2.75000000
   14.72194386  170.52699280    0.36000001    2.75000000
   14.72527695  176.13699341    0.38000000    2.75000000
   14.72833252  172.55499268    0.36000001    2.73000002
   14.73166656  174.05499268    0.36000001    2.75000000
   14.73416710  179.49800110    0.36000001    2.75000000
   14.73527813  168.87300110    0.36000001    2.73000002
   14.73833370  166.84899902    0.36000001    2.75000000
   14.74166679  174.37699890    0.36000001    2.75000000
   14.74472237  176.70100403    0.34000000    2.75000000
   14.74805546  167.17700195    0.34000000    2.75000000
   14.75416660  167.17700195    0.34000000    2.75000000
   14.75833321  176.67100525    0.34000000    2.75000000
   14.76138878  178.13600159    0.34000000    2.75000000
   14.76472187  176.85800171    0.34000000    2.75000000
   14.76749992  171.41200256    0.34000000    2.75000000
   14.76861095  170.75500488    0.34000000    2.75000000
   14.77166653  170.74299622    0.34000000    2.75000000
   14.77499962  171.41499329    0.36000001    2.75000000
   14.77833271  176.85499573    0.34000000    2.75000000
   14.78138828  180.04200745    0.36000001    2.75000000
   14.78472233  166.37800598    0.36000001    2.75000000
   14.78777790  168.88800049    0.36000001    2.75000000
   14.79111195  169.86500549    0.36000001    2.75000000
   14.79694462  169.86500549    0.36000001    2.76999998
   14.80111122  176.53399658    0.36000001    2.75000000
   14.80444431  153.80700684    0.36000001    2.78999996
   14.80749989  166.98300171    0.36000001    2.75000000
   14.81083393  167.70599365    0.38000000    2.75000000
   14.81416702  165.17799377    0.36000001    2.75000000
   14.81722260  170.44500732    0.36000001    2.75000000
   14.82055569  174.06199646    0.36000001    2.75000000
   14.82361126  168.79499817    0.36000001    2.75000000
   14.82694435  162.16000366    0.38000000    2.75000000
   14.83027744  167.96299744    0.36000001    2.75000000
   14.83333302  171.12399292    0.36000001    2.75000000
   14.83416653  170.05599976    0.36000001    2.76999998
   14.83972168  170.05599976    0.36000001    2.75000000
   14.84388828  166.98300171    0.38000000    2.75000000
   14.84722233  170.49800110    0.36000001    2.73000002
   14.85027790  174.14199829    0.36000001    2.73000002
   14.85361195  163.91700745    0.36000001    2.76999998
   14.85694504  172.47000122    0.36000001    2.75000000
   14.86000061  158.12300110    0.38000000    2.75000000
   14.86333370  155.53599548    0.38000000    2.76999998
   14.86666679  161.52099609    0.38000000    2.76999998
   14.86750031  157.85200500    0.38000000    2.76999998
   14.87027836  157.97999573    0.38000000    2.75000000
   14.87333393  159.88000488    0.38000000    2.75000000
   14.87666702  158.55700684    0.40000001    2.75000000
   14.88277817  158.55700684    0.38000000    2.75000000
   14.88694477  152.39100647    0.38000000    2.75000000
   14.89000034  157.58299255    0.40000001    2.75000000
   14.89333344  156.11700439    0.41999999    2.75000000
   14.89638901  165.18499756    0.41999999    2.75000000
   14.89972210  156.64300537    0.44000000    2.75000000
   14.90083313  157.00799561    0.44000000    2.75000000
   14.90333271  156.64599609    0.44000000    2.75000000
   14.90638828  165.35299683    0.44000000    2.75000000
   14.90972137  150.54600525    0.44000000    2.75000000
   14.91305542  153.73500061    0.44000000    2.75000000
   14.91611099  163.50700378    0.44000000    2.75000000
   14.91944504  161.25500488    0.44000000    2.76999998
   14.92555618  161.25500488    0.46000001    2.75000000
   14.92972279  154.61099243    0.46000001    2.75000000
   14.93305588  148.45399475    0.46000001    2.75000000
   14.93416691  157.37300110    0.46000001    2.76999998
   14.93666649  152.80900574    0.46000001    2.76999998
   14.93972206  159.90400696    0.46000001    2.76999998
   14.94305515  159.91900635    0.46000001    2.75000000
   14.94638920  163.10400391    0.46000001    2.75000000
   14.94944477  162.12600708    0.47999999    2.73000002
   14.95277786  162.32600403    0.47999999    2.75000000
   14.95611095  165.39599609    0.47999999    2.75000000
   14.95916653  149.23300171    0.47999999    2.75000000
   14.96249962  155.47500610    0.47999999    2.75000000
   14.96833324  155.47500610    0.47999999    2.73000002
   14.97249985  149.52099609    0.47999999    2.75000000
   14.97583294  154.94700623    0.47999999    2.75000000
   14.97888851  161.41799927    0.47999999    2.76999998
   14.98222160  162.69299316    0.47999999    2.76999998
   14.98555565  164.10699463    0.50000000    2.75000000
   14.98861122  154.45399475    0.50000000    2.76999998
   14.99194431  162.52900696    0.55000001    2.75000000
   14.99527836  159.78199768    0.55000001    2.75000000
   14.99833393  161.63099670    0.55000001    2.75000000
   15.00083351  163.94500732    0.56999999    2.76999998
   15.00222206  159.35499573    0.56999999    2.76999998
   15.00527763  159.11799622    0.56999999    2.75000000
   15.01111126  159.11799622    0.55000001    2.75000000
   15.01527786  155.57800293    0.55000001    2.75000000
   15.01861095  155.05000305    0.56999999    2.75000000
   15.02194405  150.65400696    0.58999997    2.75000000
   15.02499962  150.91299438    0.61000001    2.75000000
   15.02833271  155.13299561    0.58999997    2.73000002
   15.03166676  162.94700623    0.58999997    2.73000002
   15.03416729  152.04699707    0.58999997    2.76999998
   15.03527832  156.45100403    0.58999997    2.76999998
   15.03833389  163.20300293    0.58999997    2.75000000
   15.04166698  156.30400085    0.58999997    2.76999998
   15.04500008  160.45700073    0.55000001    2.76999998
   15.04805565  161.26199341    0.52999997    2.75000000
   15.05416679  161.26199341    0.51999998    2.75000000
   15.05833340  153.57000732    0.51999998    2.75000000
   15.06138897  151.28700256    0.52999997    2.75000000
   15.06472206  155.17500305    0.52999997    2.75000000
   15.06750011  154.97700500    0.52999997    2.75000000
   15.06833363  145.28900146    0.52999997    2.75000000
   15.07166672  159.53900146    0.55000001    2.75000000
   15.07472229  150.30499268    0.55000001    2.75000000
   15.07805538  154.04400635    0.55000001    2.75000000
   15.08111095  155.68099976    0.55000001    2.76999998
   15.08444405  155.88699341    0.56999999    2.76999998
   15.08777714  159.62800598    0.56999999    2.75000000
   15.09083271  149.66400146    0.56999999    2.76999998
   15.09694386  149.66400146    0.56999999    2.75000000
   15.10111141  147.98399353    0.55000001    2.75000000
   15.10444450  149.74400330    0.51999998    2.75000000
   15.10750008  159.65899658    0.51999998    2.73000002
   15.11083412  158.38600159    0.51999998    2.73000002
   15.11388969  144.76600647    0.51999998    2.75000000
   15.11722279  140.35499573    0.51999998    2.75000000
   15.12055588  146.31599426    0.51999998    2.76999998
   15.12361145  146.46400452    0.51999998    2.75000000
   15.12694454  155.44700623    0.51999998    2.78999996
   15.13000011  146.45399475    0.51999998    2.75000000
   15.13333321  146.79499817    0.51999998    2.75000000
   15.13416672  146.98899841    0.51999998    2.76999998
   15.15472221  146.98899841    0.55000001    2.75000000
   15.15888882  156.70100403    0.56999999    2.76999998
   15.16222191  158.59599304    0.58999997    2.75000000
   15.16555500  168.16700745    0.58999997    2.75000000
   15.16750050  162.57099915    0.58999997    2.75000000
   15.16916656  158.98399353    0.58999997    2.75000000
   15.17250061  172.74600220    0.58999997    2.75000000
   15.17555618  167.66099548    0.58999997    2.75000000
   15.17888927  165.50000000    0.63000000    2.78999996
   15.18222237  177.81199646    0.64999998    2.75000000
   15.18527794  164.42399597    0.64999998    2.76999998
   15.18861103  182.49000549    0.61000001    2.75000000
   15.19166660  198.82200623    0.56999999    2.78999996
   15.19750023  198.82200623    0.56999999    2.75000000
   15.20166683  166.92700195    0.56999999    2.75000000
   15.20499992  180.44599915    0.56999999    2.78999996
   15.20805550  174.91700745    0.55000001    2.73000002
   15.21138859  177.89500427    0.55000001    2.76999998
   15.21472168  175.53900146    0.55000001    2.76999998
   15.21777725  166.88499451    0.55000001    2.76999998
   15.22111034  177.41900635    0.55000001    2.75000000
   15.22444439  168.08399963    0.56999999    2.75000000
   15.22749996  165.04899597    0.56999999    2.76999998
   15.23083305  162.46299744    0.58999997    2.75000000
   15.23388958  158.12100220    0.58999997    2.76999998
   15.23444462  170.65199280    0.58999997    2.76999998
   15.24055576  170.65199280    0.61000001    2.76999998
   15.24444485  166.14399719    0.61000001    2.78999996
   15.24777794  168.56500244    0.61000001    2.75000000
   15.25111103  163.94799805    0.61000001    2.75000000
   15.25416660  179.76499939    0.61000001    2.76999998
   15.25749969  170.77400208    0.63000000    2.75000000
   15.26083374  171.46000671    0.63000000    2.75000000
   15.26388931  157.91000366    0.61000001    2.78999996
   15.26722240  160.25799561    0.61000001    2.76999998
   15.26777744  170.28199768    0.61000001    2.76999998
   15.27083302  158.04299927    0.61000001    2.76999998
   15.27416611  161.43400574    0.58999997    2.76999998
   15.27722168  157.46499634    0.58999997    2.76999998
   15.28333378  157.46499634    0.58999997    2.76999998
   15.28750038  182.29400635    0.58999997    2.75000000
   15.29055595  189.06900024    0.61000001    2.76999998
   15.29388905  177.58299255    0.63000000    2.78999996
   15.29722309  201.19900513    0.63000000    2.76999998
   15.30027771  208.28300476    0.64999998    2.75000000
   15.30111122  220.31700134    0.64999998    2.75000000
   15.30388927  175.92700195    0.64999998    2.76999998
   15.30722237  289.54299927    0.64999998    2.76999998
   15.31027794  224.67399597    0.64999998    2.75000000
   15.31361103  266.35998535    0.64999998    2.75000000
   15.31694412  326.50601196    0.64999998    2.76999998
   15.31999969  285.98599243    0.63000000    2.78999996
   15.32611084  285.98599243    0.63000000    2.75000000
   15.33027744  260.30398560    0.63000000    2.76999998
   15.33361053  253.89399719    0.63000000    2.76999998
   15.33444405  251.63299561    0.63000000    2.76999998
   15.33722210  237.46899414    0.63000000    2.76999998
   15.34055519  244.23399353    0.58999997    2.76999998
   15.34361076  241.03700256    0.58999997    2.75000000
   15.34694386  241.47700500    0.58999997    2.75000000
   15.35027790  231.52799988    0.61000001    2.75000000
   15.35333347  232.13600159    0.61000001    2.76999998
   15.35666752  215.10099792    0.61000001    2.76999998
   15.35972214  209.41900635    0.63000000    2.76999998
   15.36305618  220.47500610    0.61000001    2.75000000
   15.36888885  220.47500610    0.58999997    2.78999996
   15.37305546  225.69000244    0.58999997    2.75000000
   15.37638855  197.59199524    0.58999997    2.78999996
   15.37944412  178.30499268    0.58999997    2.75000000
   15.38277817  212.01899719    0.58999997    2.76999998
   15.38611126  210.63999939    0.58999997    2.76999998
   15.38916683  224.72200012    0.58999997    2.75000000
   15.39249992  199.45599365    0.58999997    2.78999996
   15.39583302  189.33599854    0.58999997    2.76999998
   15.39888859  188.77799988    0.58999997    2.76999998
   15.40138817  201.57899475    0.61000001    2.75000000
   15.40249920  199.52600098    0.63000000    2.78999996
   15.40583324  217.01600647    0.64999998    2.76999998
   15.41194439  217.01600647    0.69000000    2.76999998
   15.41583252  216.96299744    0.64999998    2.76999998
   15.41916656  234.03100586    0.63000000    2.78999996
   15.42250061  231.12800598    0.58999997    2.76999998
   15.42555618  228.86999512    0.56999999    2.76999998
   15.42888927  217.59399414    0.56999999    2.76999998
   15.43222237  243.69599915    0.55000001    2.76999998
   15.43472195  216.95899963    0.55000001    2.78999996
   15.43583298  212.99600220    0.55000001    2.78999996
   15.43916702  186.58099365    0.55000001    2.78999996
   15.44250011  158.17199707    0.55000001    2.76999998
   15.44611073  188.47399902    0.55000001    2.76999998
   15.44916630  190.17799377    0.55000001    2.76999998
   15.45472240  190.17799377    0.58999997    2.76999998
   15.45888901  206.62600708    0.58999997    2.76999998
   15.46194458  207.75199890    0.58999997    2.76999998
   15.46555519  198.00500488    0.58999997    2.76999998
   15.46805477  191.82099915    0.58999997    2.76999998
   15.46916580  197.66999817    0.58999997    2.76999998
   15.47249985  176.43099976    0.61000001    2.76999998
   15.47555542  206.36000061    0.61000001    2.76999998
   15.47888851  215.40499878    0.61000001    2.75000000
   15.48222160  191.00300598    0.58999997    2.76999998
   15.48527813  188.50799561    0.58999997    2.76999998
   15.48861122  177.83500671    0.61000001    2.76999998
   15.49194431  176.45799255    0.61000001    2.78999996
   15.49750042  176.45799255    0.61000001    2.78999996
   15.50166702  159.37600708    0.61000001    2.76999998
   15.50472260  173.62699890    0.61000001    2.76999998
   15.50805569  155.02000427    0.61000001    2.76999998
   15.51138878  179.34700012    0.61000001    2.76999998
   15.51444435  153.60699463    0.61000001    2.76999998
   15.51777744  174.69500732    0.61000001    2.75000000
   15.52111053  167.98599243    0.61000001    2.75000000
   15.52416611  161.53100586    0.61000001    2.78999996
   15.52750015  156.66000366    0.61000001    2.76999998
   15.53055573  162.56900024    0.61000001    2.76999998
   15.53388977  151.77299500    0.61000001    2.78999996
   15.53472233  174.11199951    0.61000001    2.78999996
   15.54027843  174.11199951    0.61000001    2.76999998
   15.54444504  183.12600708    0.61000001    2.76999998
   15.54777813  170.01600647    0.61000001    2.76999998
   15.55083370  163.62199402    0.61000001    2.76999998
   15.55416679  158.99299622    0.61000001    2.76999998
   15.55749989  168.03100586    0.64999998    2.76999998
   15.56055546  157.56799316    0.63000000    2.76999998
   15.56388950  162.17300415    0.64999998    2.76999998
   15.56694412  147.81300354    0.63000000    2.76999998
   15.56805515  161.99600220    0.63000000    2.76999998
   15.57055569  165.86700439    0.63000000    2.76999998
   15.57388878  162.45100403    0.63000000    2.76999998
   15.57694435  167.20799255    0.63000000    2.78999996
   15.58333302  167.20799255    0.61000001    2.76999998
   15.58722210  159.44599915    0.58999997    2.76999998
   15.59055519  171.81799316    0.61000001    2.76999998
   15.59388828  158.69400024    0.63000000    2.78999996
   15.59694386  172.45899963    0.63000000    2.76999998
   15.60027790  163.87199402    0.61000001    2.76999998
   15.60138893  164.50799561    0.58999997    2.78999996
   15.60388947  173.98100281    0.58999997    2.78999996
   15.60722256  165.27200317    0.56999999    2.76999998
   15.61027813  176.87399292    0.55000001    2.76999998
   15.61361122  166.73500061    0.55000001    2.76999998
   15.61694431  152.43299866    0.55000001    2.78999996
   15.61999989  178.76300049    0.52999997    2.76999998
   15.62611103  178.76300049    0.52999997    2.76999998
   15.63027763  165.15299988    0.52999997    2.78999996
   15.63333321  162.34100342    0.51999998    2.76999998
   15.63472176  151.87399292    0.51999998    2.78999996
   15.63694477  165.81100464    0.51999998    2.78999996
   15.64027786  176.90100098    0.52999997    2.78999996
   15.64333344  163.13900757    0.51999998    2.78999996
   15.64666653  174.27099609    0.51999998    2.76999998
   15.64999962  153.39199829    0.51999998    2.78999996
   15.65305519  165.34100342    0.51999998    2.78999996
   15.65638828  168.37399292    0.52999997    2.78999996
   15.65972137  164.97999573    0.51999998    2.76999998
   15.66277695  195.98100281    0.52999997    2.76999998
   15.66888905  195.98100281    0.52999997    2.76999998
   15.67305565  166.44599915    0.55000001    2.76999998
   15.67611122  144.54499817    0.56999999    2.76999998
   15.67944431  155.95300293    0.56999999    2.76999998
   15.68277836  165.37300110    0.56999999    2.78999996
   15.68583298  172.22799683    0.56999999    2.76999998
   15.68916702  183.42500305    0.56999999    2.78999996
   15.69250011  185.92799377    0.56999999    2.76999998
   15.69555569  169.00999451    0.56999999    2.78999996
   15.69888878  177.16999817    0.56999999    2.78999996
   15.70138836  192.64900208    0.56999999    2.76999998
   15.70249939  197.13000488    0.56999999    2.78999996
   15.70583344  153.46899414    0.56999999    2.76999998
   15.71166611  153.46899414    0.56999999    2.78999996
   15.71583271  148.50599670    0.55000001    2.76999998
   15.71916580  171.98399353    0.55000001    2.78999996
   15.72222137  162.05299377    0.55000001    2.76999998
   15.72555542  142.64700317    0.52999997    2.76999998
   15.72888851  154.48500061    0.52999997    2.78999996
   15.73194408  158.42999268    0.52999997    2.78999996
   15.73472214  166.72099304    0.52999997    2.78999996
   15.73555565  149.40299988    0.52999997    2.78999996
   15.73888874  173.39199829    0.55000001    2.78999996
   15.74222279  158.06700134    0.52999997    2.78999996
   15.74527836  162.64799500    0.52999997    2.78999996
   15.74861145  149.30499268    0.52999997    2.78999996
   15.75472260  149.30499268    0.51999998    2.76999998
   15.75861073  186.06199646    0.51999998    2.78999996
   15.76194477  160.65499878    0.51999998    2.78999996
   15.76527786  174.00000000    0.51999998    2.78999996
   15.76805496  157.87800598    0.50000000    2.78999996
   15.76888847  169.63400269    0.51999998    2.76999998
   15.77222157  155.55200195    0.50000000    2.76999998
   15.77555561  165.51100159    0.47999999    2.78999996
   15.77861118  157.11000061    0.47999999    2.78999996
   15.78194427  164.56599426    0.47999999    2.76999998
   15.78527832  168.09800720    0.47999999    2.76999998
   15.78833389  150.62899780    0.47999999    2.78999996
   15.79166698  163.74800110    0.47999999    2.78999996
   15.79750061  163.74800110    0.47999999    2.78999996
   15.80166721  156.88400269    0.47999999    2.78999996
   15.80472279  161.52200317    0.47999999    2.76999998
   15.80805588  166.79899597    0.47999999    2.76999998
   15.81111145  163.80900574    0.47999999    2.76999998
   15.81444454  154.84300232    0.47999999    2.78999996
   15.81777763  159.17700195    0.47999999    2.76999998
   15.82083321  157.58700562    0.47999999    2.76999998
   15.82416630  170.21200562    0.50000000    2.78999996
   15.82750034  159.57000732    0.51999998    2.76999998
   15.83055592  173.56799316    0.51999998    2.78999996
   15.83388901  184.28599548    0.50000000    2.76999998
   15.83472157  158.00999451    0.50000000    2.76999998
   15.84027767  158.00999451    0.50000000    2.78999996
   15.84444427  159.20899963    0.46000001    2.78999996
   15.84749985  165.56199646    0.46000001    2.78999996
   15.85083389  167.86799622    0.50000000    2.76999998
   15.85416698  158.23699951    0.50000000    2.76999998
   15.85750008  149.88999939    0.50000000    2.76999998
   15.86055565  158.13000488    0.47999999    2.76999998
   15.86416721  168.88099670    0.47999999    2.78999996
   15.86750031  147.44000244    0.47999999    2.78999996
   15.86805534  154.90100098    0.47999999    2.78999996
   15.87083340  169.24000549    0.46000001    2.76999998
   15.87416649  160.79499817    0.46000001    2.76999998
   15.87750053  171.44000244    0.47999999    2.78999996
   15.88305569  171.44000244    0.47999999    2.78999996
   15.88722229  161.27600098    0.46000001    2.78999996
   15.89055538  161.66799927    0.46000001    2.78999996
   15.89361095  166.03399658    0.46000001    2.78999996
   15.89694405  155.84199524    0.46000001    2.78999996
   15.90027714  157.32099915    0.46000001    2.78999996
   15.90138817  152.75700378    0.46000001    2.78999996
   15.90361118  177.94200134    0.47999999    2.78999996
   15.90694427  166.61799622    0.47999999    2.78999996
   15.91027737  172.23100281    0.46000001    2.78999996
   15.91333294  176.05999756    0.46000001    2.78999996
   15.91666698  160.53500366    0.46000001    2.78999996
   15.92000008  165.38600159    0.46000001    2.76999998
   15.92583370  165.38600159    0.44000000    2.76999998
   15.93000031  155.65800476    0.44000000    2.78999996
   15.93333340  161.06100464    0.44000000    2.78999996
   15.93472195  160.40100098    0.41999999    2.76999998
   15.93694496  175.00000000    0.41999999    2.76999998
   15.94027805  167.17999268    0.40000001    2.78999996
   15.94361115  157.43800354    0.41999999    2.76999998
   15.94666672  174.94799805    0.40000001    2.76999998
   15.94999981  169.39500427    0.40000001    2.78999996
   15.95333290  165.56399536    0.40000001    2.78999996
   15.95638847  175.47300720    0.40000001    2.78999996
   15.95972157  163.43400574    0.40000001    2.78999996
   15.96305561  162.64100647    0.40000001    2.78999996
   15.96888828  162.64100647    0.40000001    2.78999996
   15.97305489  156.05999756    0.40000001    2.78999996
   15.97611046  160.84800720    0.40000001    2.78999996
   15.97944355  162.58099365    0.40000001    2.78999996
   15.98249912  163.06900024    0.40000001    2.78999996
   15.98583317  167.01800537    0.40000001    2.78999996
   15.98916721  151.85800171    0.40000001    2.78999996
   15.99222279  150.00500488    0.40000001    2.78999996
   15.99555588  163.24099731    0.40000001    2.78999996
   15.99888897  157.63099670    0.41999999    2.76999998
   16.00138855  153.55900574    0.41999999    2.76999998
   16.00222206  166.63900757    0.41999999    2.76999998
   16.00555611  167.83999634    0.41999999    2.76999998
   16.01166725  167.83999634    0.41999999    2.78999996
   16.01583290  155.10400391    0.44000000    2.76999998
   16.01888847  161.16700745    0.41999999    2.76999998
   16.02222252  156.88000488    0.41999999    2.78999996
   16.02555466  158.59300232    0.41999999    2.76999998
   16.02861023  163.48300171    0.44000000    2.78999996
   16.03194427  155.49600220    0.41999999    2.78999996
   16.03472137  176.27499390    0.41999999    2.78999996
   16.03555489  157.07099915    0.44000000    2.78999996
   16.03888893  172.47799683    0.44000000    2.78999996
   16.04222107  163.40899658    0.41999999    2.78999996
   16.04527664  170.48699951    0.41999999    2.78999996
   16.04861069  150.74800110    0.44000000    2.78999996
   16.05444336  150.74800110    0.41999999    2.78999996
   16.05861092  169.77600098    0.41999999    2.78999996
   16.06194305  156.59500122    0.44000000    2.76999998
   16.06499863  152.88400269    0.41999999    2.76999998
   16.06805611  167.27699280    0.41999999    2.78999996
   16.06861115  161.26600647    0.41999999    2.78999996
   16.07194519  163.64599609    0.41999999    2.78999996
   16.07555580  161.49499512    0.41999999    2.78999996
   16.07888985  160.29600525    0.41999999    2.78999996
   16.08194542  159.26899719    0.40000001    2.76999998
   16.08527756  172.33000183    0.40000001    2.78999996
   16.08833313  162.21400452    0.40000001    2.78999996
   16.09166718  166.28300476    0.40000001    2.78999996
   16.09722328  166.28300476    0.38000000    2.78999996
   16.10138893  155.16999817    0.36000001    2.78999996
   16.10472298  159.91299438    0.36000001    2.78999996
   16.10805511  158.30799866    0.36000001    2.78999996
   16.11111069  154.69500732    0.36000001    2.80999994
   16.11444473  150.13400269    0.36000001    2.78999996
   16.11750031  172.23899841    0.36000001    2.78999996
   16.12083435  156.16999817    0.36000001    2.78999996
   16.12416649  158.27799988    0.36000001    2.78999996
   16.12722206  156.28300476    0.64999998    2.78999996
   16.13055611  153.07899475    0.50000000    2.76999998
   16.13388824  148.37100220    0.61000001    2.78999996
   16.13472176  164.74400330    0.63000000    2.76999998
   16.14027786  164.74400330    0.64999998    2.78999996
   16.14444351  155.42300415    3.26999998    2.69000006
   16.14749908  150.37300110    2.15000010    2.78999996
   16.15083313  172.85699463    0.73000002    2.78999996
   16.16833305  165.78500366    0.50000000    2.78999996
   16.17083359  194.14399719    0.46000001    2.78999996
   16.17388916  167.37300110    0.38000000    2.78999996
   16.17722130  166.67199707    0.38000000    2.78999996
   16.18333244  166.67199707    0.67000002    2.78999996
   16.18722153  171.00500488    0.55000001    2.76999998
   16.19055557  176.66999817    0.41999999    2.78999996
   16.19388771  152.35000610    0.40000001    2.76999998
   16.19694328  169.03300476    0.40000001    2.76999998
   16.20027924  169.19099426    0.38000000    2.78999996
   16.20166779  176.75399780    0.38000000    2.78999996
   16.20416832  184.52000427    0.38000000    2.78999996
   16.20722389  171.58299255    0.38000000    2.78999996
   16.21055603  177.05299377    0.38000000    2.78999996
   16.21361160  185.34399414    0.38000000    2.78999996
   16.21694565  167.79299927    0.38000000    2.78999996
   16.22027779  173.65899658    0.40000001    2.78999996
   16.22611237  173.65899658    0.38000000    2.78999996
   16.23027802  181.44099426    0.38000000    2.76999998
   16.23333359  181.60200500    0.38000000    2.78999996
   16.23500061  184.58799744    0.40000001    2.76999998
   16.23694420  195.12100220    0.40000001    2.76999998
   16.24027824  192.99800110    0.38000000    2.78999996
   16.24361229  173.56700134    0.38000000    2.78999996
   16.24666786  176.15600586    0.38000000    2.78999996
   16.25000000  189.19400024    0.38000000    2.78999996
   16.25305557  178.60600281    0.38000000    2.78999996
   16.25638962  170.11500549    0.38000000    2.78999996
   16.25972176  182.28399658    0.40000001    2.76999998
   16.26277733  183.44299316    0.40000001    2.78999996
   16.26888847  183.44299316    0.40000001    2.78999996
   16.27305603  185.24099731    0.40000001    2.78999996
   16.27638817  188.65299988    0.40000001    2.78999996
   16.27944374  184.16000366    0.40000001    2.78999996
   16.28277779  173.99099731    0.40000001    2.76999998
   16.28583336  169.81599426    0.40000001    2.78999996
   16.28916550  187.08599854    0.41999999    2.78999996
   16.29249954  170.23899841    0.40000001    2.78999996
   16.29555511  167.40600586    0.40000001    2.78999996
   16.29888916  173.75799561    0.40000001    2.78999996
   16.30166626  169.52999878    0.41999999    2.76999998
   16.30249977  180.07899475    0.41999999    2.78999996
   16.30583191  190.89500427    0.41999999    2.78999996
   16.31166649  190.89500427    0.41999999    2.78999996
   16.31583214  177.42799377    0.41999999    2.78999996
   16.31916809  189.43200684    0.41999999    2.78999996
   16.32222366  165.87500000    0.41999999    2.78999996
   16.32555580  167.96099854    0.41999999    2.78999996
   16.32888985  194.71400452    0.41999999    2.78999996
   16.33194542  181.52699280    0.41999999    2.78999996
   16.33500099  189.46299744    0.44000000    2.78999996
   16.33555603  180.49400330    0.44000000    2.78999996
   16.33889008  175.83599854    0.44000000    2.78999996
   16.34222221  179.92100525    0.44000000    2.78999996
   16.34527779  173.95799255    0.46000001    2.78999996
   16.34861183  180.00500488    0.46000001    2.78999996
   16.35472298  180.00500488    0.46000001    2.78999996
   16.35861206  172.94900513    0.46000001    2.78999996
   16.36194420  170.65800476    0.46000001    2.78999996
   16.36527824  176.00500488    0.46000001    2.78999996
   16.36833382  161.13099670    0.46000001    2.78999996
   16.36861038  161.39999390    0.46000001    2.78999996
   16.37194443  161.02600098    0.46000001    2.78999996
   16.37527847  179.65800476    0.44000000    2.76999998
   16.37833405  178.74099731    0.46000001    2.78999996
   16.38166618  178.56300354    0.46000001    2.78999996
   16.38500023  180.32499695    0.44000000    2.78999996
   16.38805580  198.26199341    0.44000000    2.78999996
   16.39138794  192.81900024    0.44000000    2.78999996
   16.39749908  192.81900024    0.44000000    2.78999996
   16.40166664  183.99800110    0.44000000    2.78999996
   16.40472221  158.36799622    0.41999999    2.78999996
   16.40805435  183.00100708    0.41999999    2.76999998
   16.41138840  166.93299866    0.41999999    2.78999996
   16.41444397  189.92999268    0.41999999    2.78999996
   16.41777802  154.53300476    0.41999999    2.76999998
   16.42111015  172.94400024    0.41999999    2.76999998
   16.42416573  182.24899292    0.40000001    2.78999996
   16.42749977  165.65199280    0.40000001    2.78999996
   16.43055534  157.12899780    0.40000001    2.78999996
   16.43388748  176.22000122    0.40000001    2.78999996
   16.43499947  163.65499878    0.40000001    2.76999998
   16.44027710  163.65499878    0.40000001    2.78999996
   16.44444275  167.68899536    0.40000001    2.78999996
   16.44777679  175.85800171    0.40000001    2.76999998
   16.45083427  159.74800110    0.40000001    2.76999998
   16.45416832  178.92399597    0.40000001    2.78999996
   16.45722389  175.11500549    0.40000001    2.78999996
   16.46055603  165.97700500    0.40000001    2.78999996
   16.46389008  168.14599609    0.40000001    2.78999996
   16.46694565  154.17500305    0.40000001    2.78999996
   16.46833420  147.87600708    0.40000001    2.76999998
   16.47055626  175.81399536    0.40000001    2.76999998
   16.47389030  171.25599670    0.40000001    2.78999996
   16.47722244  159.41700745    0.38000000    2.78999996
   16.48305511  159.41700745    0.40000001    2.78999996
   16.48722267  171.43299866    0.40000001    2.78999996
   16.49055672  179.46899414    0.38000000    2.78999996
   16.49361229  155.80000305    0.38000000    2.78999996
   16.49694443  166.38999939    0.40000001    2.78999996
   16.50027847  167.19700623    0.40000001    2.78999996
   16.50166702  165.91499329    0.40000001    2.78999996
   16.50361061  178.85600281    0.40000001    2.78999996
   16.50694466  165.46699524    0.40000001    2.76999998
   16.51027870  179.44700623    0.40000001    2.78999996
   16.51333427  184.62199402    0.40000001    2.78999996
   16.51666641  184.00000000    0.40000001    2.78999996
   16.52000046  168.47700500    0.40000001    2.78999996
   16.52611160  168.47700500    0.40000001    2.78999996
   16.53000069  167.56500244    0.40000001    2.78999996
   16.53333282  169.36300659    0.40000001    2.78999996
   16.53499985  163.71499634    0.38000000    2.76999998
   16.53694344  176.46099854    0.38000000    2.78999996
   16.54027748  166.61700439    0.40000001    2.78999996
   16.54361153  175.59500122    0.40000001    2.78999996
   16.54666710  170.63099670    0.40000001    2.78999996
   16.54999924  177.97900391    0.40000001    2.78999996
   16.55333328  189.41000366    0.40000001    2.78999996
   16.55638885  158.59300232    0.40000001    2.78999996
   16.55972099  171.63000488    0.40000001    2.78999996
   16.56277657  165.63400269    0.41999999    2.78999996
   16.56888962  165.63400269    0.41999999    2.76999998
   16.57305717  178.41600037    0.44000000    2.80999994
   16.57611275  168.31199646    0.44000000    2.80999994
   16.57944489  170.31700134    0.47999999    2.78999996
   16.58277893  167.26199341    0.47999999    2.78999996
   16.58611107  163.88600159    0.46000001    2.76999998
   16.58916664  168.86700439    0.47999999    2.78999996
   16.59250069  171.31900024    0.47999999    2.80999994
   16.59583473  156.23399353    0.46000001    2.78999996
   16.59889030  171.99099731    0.46000001    2.78999996
   16.60166740  168.55200195    0.46000001    2.76999998
   16.60277748  173.88200378    0.44000000    2.78999996
   16.60583305  184.88499451    0.44000000    2.78999996
   16.61166763  184.88499451    0.41999999    2.78999996
   16.61583328  181.49000549    0.41999999    2.78999996
   16.61916733  179.53599548    0.44000000    2.78999996
   16.62222290  158.33200073    0.44000000    2.78999996
   16.62555504  160.93800354    0.44000000    2.78999996
   16.62861061  170.38200378    0.44000000    2.78999996
   16.63194466  169.93800354    0.44000000    2.76999998
   16.63500023  163.79899597    0.44000000    2.78999996
   16.63555527  174.05999756    0.44000000    2.78999996
   16.63888931  172.00700378    0.44000000    2.76999998
   16.64194489  175.31100464    0.44000000    2.78999996
   16.64527702  177.00100708    0.44000000    2.78999996
   16.64833260  166.69200134    0.44000000    2.78999996
   16.65472221  166.69200134    0.46000001    2.76999998
   16.65888786  177.15199280    0.44000000    2.78999996
   16.66194344  168.80700684    0.41999999    2.78999996
   16.66527748  179.47700500    0.41999999    2.78999996
   16.66833305  172.40699768    0.41999999    2.78999996
   16.66888809  162.33000183    0.41999999    2.78999996
   16.67222214  171.53999329    0.41999999    2.78999996
   16.67527771  180.77799988    0.41999999    2.76999998
   16.67860985  168.03399658    0.44000000    2.78999996
   16.68166542  164.49400330    0.44000000    2.78999996
   16.68499947  176.31199646    0.44000000    2.78999996
   16.68833160  173.11900330    0.44000000    2.76999998
   16.69138718  177.20199585    0.41999999    2.78999996
   16.69722176  177.20199585    0.41999999    2.78999996
   16.70138931  186.18800354    0.41999999    2.78999996
   16.70194435  192.23199463    0.41999999    2.78999996
   16.70527840  183.74099731    0.40000001    2.78999996
   16.70861244  200.46699524    0.40000001    2.78999996
   16.71166801  177.41999817    0.41999999    2.78999996
   16.71500015  197.17999268    0.40000001    2.78999996
   16.71833420  186.61999512    0.40000001    2.78999996
   16.72138977  187.40199280    0.41999999    2.78999996
   16.72472191  196.62699890    0.41999999    2.78999996
   16.72805595  183.10800171    0.41999999    2.78999996
   16.73111153  204.69000244    0.44000000    2.76999998
   16.73444557  163.52400208    0.46000001    2.78999996
   16.73527718  167.55499268    0.46000001    2.78999996
   16.74027824  167.55499268    0.51999998    2.78999996
   16.74444389  179.73599243    0.52999997    2.78999996
   16.74749947  185.94700623    0.52999997    2.78999996
   16.75083351  167.04800415    0.52999997    2.78999996
   16.75388908  180.26499939    0.52999997    2.76999998
   16.75722313  180.80000305    0.52999997    2.78999996
   16.76055527  175.72399902    0.51999998    2.80999994
   16.76361084  174.08099365    0.51999998    2.78999996
   16.76694489  188.59300232    0.51999998    2.78999996
   16.76861000  170.78300476    0.51999998    2.78999996
   16.77055550  165.84300232    0.51999998    2.78999996
   16.77388954  176.97300720    0.50000000    2.78999996
   16.77694511  175.57600403    0.50000000    2.76999998
   16.78305435  175.57600403    0.50000000    2.78999996
   16.78722191  168.85499573    0.50000000    2.78999996
   16.79027748  157.80799866    0.50000000    2.78999996
   16.79361153  171.15499878    0.51999998    2.78999996
   16.79694366  183.09199524    0.51999998    2.78999996
   16.79999924  161.85499573    0.51999998    2.78999996
   16.80194283  175.26600647    0.52999997    2.78999996
   16.80360985  182.49499512    0.52999997    2.78999996
   16.80694389  153.71800232    0.51999998    2.78999996
   16.80999947  182.61700439    0.52999997    2.78999996
   16.81333351  173.83599854    0.52999997    2.76999998
   16.81666756  183.14700317    0.52999997    2.76999998
   16.81972313  164.96800232    0.51999998    2.78999996
   16.82583427  164.96800232    0.51999998    2.78999996
   16.83000183  159.94200134    0.51999998    2.78999996
   16.83333397  178.03599548    0.50000000    2.78999996
   16.83527756  174.08999634    0.47999999    2.78999996
   16.83694458  168.83099365    0.50000000    2.78999996
   16.84027863  158.76499939    0.50000000    2.78999996
   16.84333420  163.33000183    0.47999999    2.78999996
   16.84666824  163.29200745    0.47999999    2.78999996
   16.85000038  165.88200378    0.47999999    2.78999996
   16.85305595  174.06100464    0.50000000    2.76999998
   16.85639000  165.80799866    0.50000000    2.78999996
   16.85972214  173.79600525    0.50000000    2.78999996
   16.86277771  186.51499939    0.50000000    2.78999996
   16.86861038  186.51499939    0.51999998    2.78999996
   16.87277794  170.60600281    0.51999998    2.78999996
   16.87611198  172.57000732    0.50000000    2.78999996
   16.87944412  165.19700623    0.47999999    2.78999996
   16.88249969  155.73800659    0.50000000    2.76999998
   16.88583374  170.88600159    0.50000000    2.78999996
   16.88916588  172.46899414    0.50000000    2.76999998
   16.89249992  148.76800537    0.47999999    2.78999996
   16.89555550  157.47700500    0.47999999    2.78999996
   16.89888954  167.33700562    0.47999999    2.78999996
   16.90222168  162.23699951    0.47999999    2.78999996
   16.90250015  152.44400024    0.47999999    2.78999996
   16.90583229  169.54400635    0.50000000    2.78999996
   16.91166687  169.54400635    0.47999999    2.76999998
   16.91583252  172.96699524    0.47999999    2.76999998
   16.91888809  161.80200195    0.47999999    2.78999996
   16.92222214  159.25199890    0.47999999    2.78999996
   16.92527771  160.90100098    0.47999999    2.78999996
   16.92860985  161.75799561    0.47999999    2.78999996
   16.93194389  163.16600037    0.47999999    2.76999998
   16.93499947  165.06799316    0.46000001    2.78999996
   16.93555450  154.96200562    0.46000001    2.78999996
   16.93888855  157.05700684    0.44000000    2.78999996
   16.94222069  174.14700317    0.44000000    2.78999996
   16.94527626  163.84700012    0.44000000    2.78999996
   16.94861031  161.94700623    0.44000000    2.78999996
   16.95444489  161.94700623    0.44000000    2.78999996
   16.95861244  147.38999939    0.41999999    2.78999996
   16.96166801  165.61199951    0.41999999    2.78999996
   16.96500015  161.14999390    0.41999999    2.78999996
   16.96833420  158.69999695    0.41999999    2.76999998
   16.96888924  169.62800598    0.41999999    2.76999998
   16.97194481  171.57800293    0.41999999    2.78999996
   16.97527885  166.57499695    0.40000001    2.78999996
   16.97833443  176.70199585    0.40000001    2.78999996
   16.98166656  173.86999512    0.40000001    2.78999996
   16.98472214  173.11199951    0.40000001    2.76999998
   16.98805618  198.02400208    0.40000001    2.78999996
   16.99138832  159.57800293    0.38000000    2.78999996
   16.99722290  159.57800293    0.40000001    2.78999996
   17.00138855  198.15100098    0.40000001    2.78999996
   17.00222206  189.14100647    0.40000001    2.78999996
   17.00499916  185.58399963    0.40000001    2.78999996
   17.00833321  184.66600037    0.41999999    2.78999996
   17.01138878  174.47500610    0.40000001    2.78999996
   17.01472282  164.54899597    0.40000001    2.78999996
   17.01777840  177.17399597    0.40000001    2.78999996
   17.02111053  175.97999573    0.40000001    2.78999996
   17.02444458  154.42900085    0.40000001    2.78999996
   17.02750015  178.70399475    0.40000001    2.78999996
   17.03083229  182.65400696    0.40000001    2.76999998
   17.03416634  179.61900330    0.40000001    2.76999998
   17.03555489  165.13600159    0.40000001    2.78999996
   17.03999901  165.13600159    0.40000001    2.78999996
   17.04416656  177.87699890    0.38000000    2.76999998
   17.04749870  182.81399536    0.36000001    2.78999996
   17.05083275  193.19500732    0.36000001    2.78999996
   17.05388832  192.05900574    0.36000001    2.78999996
   17.05722237  189.50900269    0.36000001    2.78999996
   17.06055450  190.50999451    0.36000001    2.78999996
   17.06361008  196.47999573    0.38000000    2.78999996
   17.06694603  191.56100464    0.36000001    2.78999996
   17.06888962  201.03399658    0.36000001    2.78999996
   17.07055664  200.47799683    0.38000000    2.78999996
   17.07389069  179.65800476    0.40000001    2.78999996
   17.07694626  177.63000488    0.40000001    2.78999996
   17.08305550  177.63000488    0.40000001    2.78999996
   17.08722305  181.01400757    0.36000001    2.76999998
   17.09027863  155.34599304    0.36000001    2.76999998
   17.09361267  160.65899658    0.38000000    2.78999996
   17.09694481  174.75399780    0.36000001    2.78999996
   17.10000038  161.44500732    0.38000000    2.78999996
   17.10222244  197.00599670    0.38000000    2.78999996
   17.10361099  180.02099609    0.38000000    2.78999996
   17.10694504  181.99099731    0.36000001    2.78999996
   17.11000061  179.08799744    0.36000001    2.78999996
   17.11333466  176.23800659    0.36000001    2.78999996
   17.11666679  185.61700439    0.36000001    2.78999996
   17.11972237  190.72799683    0.36000001    2.78999996
   17.12583351  190.72799683    0.34000000    2.78999996
   17.13000107  181.37100220    0.34000000    2.78999996
   17.13333321  176.18600464    0.34000000    2.76999998
   17.13555527  163.30200195    0.34000000    2.76999998
   17.13694382   -1.00000000    0.34000000    2.78999996
   17.14027786   -1.00000000    0.34000000    2.78999996
   17.14333344  187.41900635    0.34000000    2.78999996
   17.14666748  182.17599487    0.34000000    2.78999996
   17.14999962  170.88600159    0.34000000    2.78999996
   17.15305519  174.88999939    0.34000000    2.76999998
   17.15638924  163.20300293    0.36000001    2.76999998
   17.15972137  182.81300354    0.34000000    2.78999996
   17.16277695  188.77200317    0.34000000    2.78999996
   17.16860962  188.77200317    0.34000000    2.78999996
   17.18694305  177.36599731    0.34000000    2.76999998
   17.19027710  171.99699402    0.34000000    2.78999996
   17.19361115  164.11999512    0.31999999    2.78999996
   17.19666672  178.66900635    0.31999999    2.76999998
   17.20000076  177.52099609    0.31999999    2.80999994
   17.20333481  187.46299744    0.31999999    2.76999998
   17.20639038  177.39300537    0.31999999    2.78999996
   17.21166801  177.39300537    0.31999999    2.78999996
   17.21583366  169.62399292    0.31999999    2.78999996
   17.21916771  167.06700134    0.31999999    2.78999996
   17.22000122  171.42799377    0.31999999    2.78999996
   17.22277832  172.21200562    0.31999999    2.76999998
   17.22611237  163.82299805    0.31999999    2.76999998
   17.22916794  156.60400391    0.31999999    2.76999998
   17.23250008  174.35000610    0.31999999    2.76999998
   17.23583412  171.52699280    0.31999999    2.78999996
   17.23888969  172.13200378    0.31999999    2.78999996
   17.24222183  176.79899597    0.31999999    2.78999996
   17.24527740  162.80299377    0.31999999    2.78999996
   17.24861145  159.25500488    0.30000001    2.78999996
   17.25472260  159.25500488    0.30000001    2.78999996
   17.25888824  174.22200012    0.30000001    2.78999996
   17.26194382  177.09800720    0.30000001    2.78999996
   17.26527786  172.06100464    0.30000001    2.78999996
   17.26833344  179.37300110    0.30000001    2.78999996
   17.27166557  173.74499512    0.30000001    2.78999996
   17.27499962  169.20500183    0.31999999    2.78999996
   17.27833366  165.02299500    0.31999999    2.78999996
   17.28138924  154.19999695    0.30000001    2.78999996
   17.28472137  166.57099915    0.30000001    2.78999996
   17.28666687  165.38099670    0.30000001    2.78999996
   17.28833199  159.80400085    0.31999999    2.78999996
   17.29166603  174.43400574    0.31999999    2.76999998
   17.29749870  174.43400574    0.30000001    2.78999996
   17.30166626  177.25900269    0.31999999    2.78999996
   17.30472183  171.80299377    0.31999999    2.78999996
   17.30805397  168.10899353    0.31999999    2.78999996
   17.31138802  171.00399780    0.30000001    2.78999996
   17.31444359  172.39399719    0.30000001    2.78999996
   17.31777954  165.05900574    0.30000001    2.78999996
   17.32000160  168.75500488    0.30000001    2.78999996
   17.32139015  167.40699768    0.30000001    2.78999996
   17.32472229  165.88699341    0.30000001    2.78999996
   17.32777786  166.69999695    0.30000001    2.78999996
   17.33111191  155.60499573    0.30000001    2.78999996
   17.33444595  160.45799255    0.31999999    2.76999998
   17.34027863  160.45799255    0.31999999    2.76999998
   17.34444427  156.97599792    0.31999999    2.78999996
   17.34777832  152.44799805    0.31999999    2.78999996
   17.35083389  161.57899475    0.31999999    2.78999996
   17.35333443  164.30299377    0.31999999    2.76999998
   17.35444450  171.61799622    0.34000000    2.76999998
   17.35777855  161.52799988    0.31999999    2.76999998
   17.36083412  156.22799683    0.31999999    2.78999996
   17.36416626  157.67999268    0.31999999    2.78999996
   17.36750031  156.85400391    0.31999999    2.78999996
   17.37055588  161.78500366    0.31999999    2.76999998
   17.37388992  166.54100037    0.31999999    2.76999998
   17.37722206  155.79100037    0.31999999    2.78999996
   17.38305473  155.79100037    0.31999999    2.78999996
   17.38722229  138.21000671    0.30000001    2.76999998
   17.39055634  152.76100159    0.30000001    2.78999996
   17.39361191  145.27499390    0.31999999    2.78999996
   17.39694405  149.50199890    0.31999999    2.78999996
   17.40027809  154.40400696    0.31999999    2.78999996
   17.40333366  160.03999329    0.30000001    2.78999996
   17.40666580  153.86999512    0.31999999    2.78999996
   17.40999985  156.75100708    0.31999999    2.78999996
   17.41305542  158.09800720    0.30000001    2.78999996
   17.41638756  154.43200684    0.30000001    2.76999998
   17.41972160  154.51199341    0.30000001    2.76999998
   17.42000008  155.52999878    0.30000001    2.78999996
   17.42611122  155.52999878    0.30000001    2.78999996
   17.43000031  156.46600342    0.30000001    2.78999996
   17.43333244  145.39500427    0.30000001    2.76999998
   17.43666649  154.47000122    0.31999999    2.78999996
   17.43972206  155.63999939    0.31999999    2.76999998
   17.44305420  151.62699890    0.31999999    2.78999996
   17.44638824  148.17399597    0.31999999    2.80999994
   17.44944382  157.73599243    0.34000000    2.78999996
   17.45277786  157.94200134    0.34000000    2.78999996
   17.45361137  151.78900146    0.34000000    2.78999996
   17.45639038  161.73699951    0.36000001    2.76999998
   17.45972252  155.85699463    0.34000000    2.76999998
   17.46277809  149.99200439    0.34000000    2.78999996
   17.46888924  149.99200439    0.36000001    2.78999996
   17.47305679  147.13200378    0.34000000    2.76999998
   17.47611237  149.82800293    0.34000000    2.76999998
   17.47944450  148.18899536    0.36000001    2.76999998
   17.48250008  153.01699829    0.36000001    2.76999998
   17.48583412  157.89799500    0.36000001    2.78999996
   17.48666763  152.20399475    0.36000001    2.78999996
   17.48944473  144.90699768    0.36000001    2.78999996
   17.49277878  133.37600708    0.36000001    2.78999996
   17.49583435  144.12300110    0.36000001    2.78999996
   17.49916649  135.91600037    0.36000001    2.78999996
   17.50250053  155.51600647    0.36000001    2.78999996
   17.50555611  155.46000671    0.36000001    2.76999998
   17.51166725  155.46000671    0.38000000    2.78999996
   17.51583290  144.15199280    0.34000000    2.78999996
   17.51888847  147.48699951    0.34000000    2.78999996
   17.52027702  151.75700378    0.34000000    2.78999996
   17.52249908  184.39399719    0.34000000    2.78999996
   17.52583313  207.54699707    0.34000000    2.78999996
   17.52916718  188.21400452    0.34000000    2.76999998
   17.53222275  151.72399902    0.31999999    2.78999996
   17.53555489  166.38999939    0.31999999    2.76999998
   17.53861046  155.83000183    0.31999999    2.78999996
   17.54194450  171.46200562    0.31999999    2.76999998
   17.54527664  173.78199768    0.31999999    2.78999996
   17.54833221  154.48399353    0.31999999    2.78999996
   17.55444336  154.48399353    0.31999999    2.76999998
   17.55861092  160.46200562    0.31999999    2.76999998
   17.56194305  161.32200623    0.31999999    2.78999996
   17.56499863  157.39500427    0.34000000    2.76999998
   17.56833458  166.86500549    0.34000000    2.76999998
   17.57166672  170.23599243    0.34000000    2.76999998
   17.57472229  159.05000305    0.34000000    2.78999996
   17.57805634  159.51600647    0.34000000    2.76999998
   17.58111191  147.68400574    0.34000000    2.76999998
   17.58444595  164.72900391    0.34000000    2.76999998
   17.58694458  157.49000549    0.34000000    2.78999996
   17.58805656  157.86700439    0.34000000    2.76999998
   17.59138870  139.47700500    0.34000000    2.78999996
   17.59722328  139.47700500    0.36000001    2.78999996
   17.60138893  145.87500000    0.36000001    2.78999996
   17.60472298  153.04800415    0.38000000    2.76999998
   17.60805511  146.11799622    0.38000000    2.78999996
   17.61111069  163.64199829    0.38000000    2.76999998
   17.61444473  158.61799622    0.38000000    2.78999996
   17.61750031  144.90600586    0.40000001    2.76999998
   17.62027740  137.34599304    0.40000001    2.75000000
   17.62111092  148.88000488    0.40000001    2.78999996
   17.62444496  155.29299927    0.40000001    2.76999998
   17.62750053  153.08700562    0.40000001    2.76999998
   17.63083267  151.93299866    0.40000001    2.78999996
   17.63416672  142.27799988    0.40000001    2.76999998
   17.64027786  142.27799988    0.40000001    2.78999996
   17.64444351  140.88000488    0.40000001    2.78999996
   17.64749908  141.34100342    0.40000001    2.76999998
   17.65083313  140.35000610    0.41999999    2.76999998
   17.65361023  144.88000488    0.40000001    2.78999996
   17.65444374  150.55599976    0.40000001    2.78999996
   17.65777779  144.90800476    0.40000001    2.78999996
   17.66083336  138.90899658    0.40000001    2.78999996
   17.66416550  135.18699646    0.40000001    2.78999996
   17.66749954  138.12500000    0.40000001    2.76999998
   17.67055511  143.67399597    0.40000001    2.76999998
   17.67388916  136.64599609    0.41999999    2.78999996
   17.67722130  140.34500122    0.44000000    2.76999998
   17.68305397  140.34500122    0.46000001    2.76999998
   17.68722153  138.39199829    0.47999999    2.76999998
   17.69055557  139.84399414    0.47999999    2.78999996
   17.69361115  131.10000610    0.46000001    2.76999998
   17.69694328  130.13000488    0.46000001    2.78999996
   17.70027924  131.58999634    0.46000001    2.76999998
   17.70333481  124.65299988    0.46000001    2.76999998
   17.70666695  140.02699280    0.46000001    2.76999998
   17.70972252  133.12699890    0.47999999    2.76999998
   17.71305656  137.27499390    0.47999999    2.76999998
   17.71638870  126.29299927    0.47999999    2.75000000
   17.71944427  129.07699585    0.47999999    2.76999998
   17.72027779  135.22300720    0.47999999    2.76999998
   17.72583389  135.22300720    0.47999999    2.76999998
   17.73000145  132.22999573    0.47999999    2.76999998
   17.73333359  129.09199524    0.47999999    2.78999996
   17.73638916  131.98599243    0.50000000    2.78999996
   17.73972321  131.35000610    0.51999998    2.75000000
   17.74305534  137.03300476    0.51999998    2.75000000
   17.74611092  134.47999573    0.50000000    2.76999998
   17.74944496  132.50900269    0.47999999    2.78999996
   17.75277710  136.56799316    0.47999999    2.76999998
   17.75361061  139.15100098    0.47999999    2.76999998
   17.75611115  133.10400391    0.46000001    2.78999996
   17.75944519  130.41799927    0.46000001    2.76999998
   17.76250076  131.21400452    0.44000000    2.76999998
   17.76861000  131.21400452    0.41999999    2.78999996
   17.77277756  129.23300171    0.41999999    2.78999996
   17.77611160  122.97899628    0.41999999    2.76999998
   17.77944374  129.18200684    0.41999999    2.76999998
   17.78249931  131.92900085    0.41999999    2.76999998
   17.78583336  131.11599731    0.41999999    2.76999998
   17.78694344  132.86099243    0.41999999    2.76999998
   17.78944397  133.21600342    0.41999999    2.76999998
   17.79277802  129.49499512    0.41999999    2.76999998
   17.79583359  131.09500122    0.40000001    2.76999998
   17.79916573  130.03199768    0.40000001    2.78999996
   17.80249977  129.07600403    0.40000001    2.78999996
   17.80555534  125.10800171    0.40000001    2.78999996
   17.81166649  125.10800171    0.38000000    2.75000000
   17.81583214  131.37199402    0.40000001    2.76999998
   17.81888962  129.78799438    0.38000000    2.76999998
   17.82027817  126.31300354    0.38000000    2.76999998
   17.82250023  129.26699829    0.38000000    2.76999998
   17.82583427  131.04499817    0.38000000    2.76999998
   17.82916832  135.39500427    0.38000000    2.78999996
   17.83222389  134.98399353    0.38000000    2.76999998
   17.83555603  150.59300232    0.38000000    2.76999998
   17.83861160  144.05700684    0.41999999    2.76999998
   17.84194565  157.12100220    0.40000001    2.76999998
   17.84527779  153.03100586    0.40000001    2.76999998
   17.84833336  148.45199585    0.41999999    2.76999998
   17.85444450  148.45199585    0.44000000    2.76999998
   17.85861206  132.78199768    0.44000000    2.76999998
   17.86166763  126.51799774    0.44000000    2.76999998
   17.86499977  128.33700562    0.44000000    2.76999998
   17.86833382  133.86399841    0.41999999    2.76999998
   17.87138939  132.73300171    0.41999999    2.76999998
   17.87472153  130.45500183    0.41999999    2.76999998
   17.87777710  130.73800659    0.40000001    2.76999998
   17.88111115  124.94499969    0.41999999    2.76999998
   17.88444519  124.59100342    0.41999999    2.76999998
   17.88694382  127.88400269    0.40000001    2.76999998
   17.88805580  127.40299988    0.40000001    2.76999998
   17.89138794  123.29599762    0.40000001    2.76999998
   17.89722252  123.29599762    0.44000000    2.75000000
   17.90138817  125.48200226    0.44000000    2.76999998
   17.90472221  131.12600708    0.44000000    2.78999996
   17.90777779  129.07200623    0.44000000    2.78999996
   17.91110992  136.98500061    0.44000000    2.76999998
   17.91444397  127.88300323    0.44000000    2.76999998
   17.91749954  125.58899689    0.44000000    2.76999998
   17.92027664  128.13499451    0.41999999    2.76999998
   17.92111015  111.50800323    0.41999999    2.76999998
   17.92444420  119.28500366    0.41999999    2.76999998
   17.92777634  120.36499786    0.41999999    2.75000000
   17.93083191  122.44599915    0.40000001    2.78999996
   17.93416595  120.83200073    0.40000001    2.76999998
   17.93999863  120.83200073    0.44000000    2.76999998
   17.94416618  122.79799652    0.44000000    2.76999998
   17.94749832  120.72399902    0.44000000    2.75000000
   17.95055580  123.62699890    0.46000001    2.76999998
   17.95361137  121.67099762    0.46000001    2.76999998
   17.95416832  127.26000214    0.46000001    2.76999998
   17.95750046  126.42299652    0.46000001    2.76999998
   17.96083450  123.87899780    0.46000001    2.76999998
   17.96389008  128.87399292    0.44000000    2.76999998
   17.96722221  128.11999512    0.44000000    2.76999998
   17.97027779  124.33300018    0.44000000    2.76999998
   17.97361183  123.66000366    0.44000000    2.76999998
   17.97694588  125.21600342    0.44000000    2.76999998
   17.98305511  125.21600342    0.46000001    2.76999998
   17.98694420  124.90499878    0.44000000    2.76999998
   17.99027824  121.88700104    0.44000000    2.76999998
   17.99361229  123.91999817    0.44000000    2.76999998
   17.99666786  122.54499817    0.44000000    2.76999998
   18.00000000  122.27100372    0.44000000    2.76999998
   18.00333405  120.79799652    0.44000000    2.76999998
   18.00638962  125.66100311    0.44000000    2.75000000
   18.00972176  121.37000275    0.41999999    2.76999998
   18.01277733  119.08999634    0.44000000    2.76999998
   18.01611137  121.36499786    0.44000000    2.75000000
   18.01944351  128.52900696    0.44000000    2.76999998
   18.02027702  122.03800201    0.44000000    2.76999998
   18.02583313  122.03800201    0.46000001    2.75000000
   18.03000069  125.07499695    0.46000001    2.76999998
   18.03305435  121.77899933    0.44000000    2.76999998
   18.03638840  120.05400085    0.44000000    2.76999998
   18.03972244  121.41000366    0.44000000    2.76999998
   18.04277802  121.48000336    0.46000001    2.76999998
   18.04611015  127.02400208    0.46000001    2.76999998
   18.04944420  118.02600098    0.46000001    2.76999998
   18.05249977  124.93599701    0.46000001    2.76999998
   18.05360985  117.93499756    0.46000001    2.76999998
   18.05611038  128.19799805    0.46000001    2.76999998
   18.05944443  118.18299866    0.46000001    2.76999998
   18.06277657  120.63300323    0.46000001    2.76999998
   18.06888962  120.63300323    0.44000000    2.76999998
   18.07305717  114.62899780    0.41999999    2.76999998
   18.07611275  123.70500183    0.44000000    2.76999998
   18.07944489  123.19300079    0.41999999    2.76999998
   18.08250046  123.74900055    0.44000000    2.76999998
   18.08583450  121.94999695    0.44000000    2.76999998
   18.08694458  120.91000366    0.44000000    2.76999998
   18.08944511  122.32800293    0.44000000    2.76999998
   18.09277916  119.70400238    0.44000000    2.76999998
   18.09611130  117.22899628    0.44000000    2.76999998
   18.09916687  117.43099976    0.44000000    2.76999998
   18.10250092  123.47699738    0.41999999    2.76999998
   18.10555649  117.31999969    0.44000000    2.76999998
   18.11138916  117.31999969    0.44000000    2.76999998
   18.11555672  125.29100037    0.44000000    2.75000000
   18.11888885  122.16100311    0.46000001    2.75000000
   18.12027740  116.78099823    0.44000000    2.75000000
   18.12249947  133.75300598    0.44000000    2.75000000
   18.12583351  116.84100342    0.46000001    2.75000000
   18.12916756  120.51799774    0.46000001    2.76999998
   18.13222313  118.94400024    0.46000001    2.76999998
   18.13555527  119.91899872    0.47999999    2.76999998
   18.13888931  129.88699341    0.47999999    2.75000000
   18.14194489  122.96499634    0.51999998    2.76999998
   18.14527702  118.04199982    0.51999998    2.76999998
   18.14861107  127.64299774    0.50000000    2.75000000
   18.15444374  127.64299774    0.50000000    2.75000000
   18.15833282  128.05000305    0.46000001    2.76999998
   18.16166687  123.89199829    0.46000001    2.76999998
   18.16499901  148.79499817    0.46000001    2.75000000
   18.16805458  135.61099243    0.44000000    2.76999998
   18.17138863  149.91999817    0.44000000    2.75000000
   18.17472076  130.34300232    0.44000000    2.75000000
   18.17777634  125.29699707    0.44000000    2.75000000
   18.18111038  124.52100372    0.47999999    2.76999998
   18.18444443  128.72099304    0.47999999    2.75000000
   18.18694305  128.51600647    0.50000000    2.75000000
   18.20750046  128.51600647    0.50000000    2.75000000
   18.21166801  170.68699646    0.51999998    2.75000000
   18.21500015  152.84500122    0.55000001    2.75000000
   18.21805573  167.50500488    0.55000001    2.75000000
   18.22027779  176.38999939    0.52999997    2.76999998
   18.22194481  157.43699646    0.52999997    2.76999998
   18.22500038  157.99099731    0.51999998    2.76999998
   18.22833443  167.23199463    0.52999997    2.75000000
   18.23166656  171.99299622    0.58999997    2.73000002
   18.23472214  158.53100586    0.58999997    2.75000000
   18.23805618  158.89799500    0.58999997    2.75000000
   18.24111176  157.61900330    0.64999998    2.75000000
   18.24444389  155.32699585    0.64999998    2.75000000
   18.25027847  155.32699585    0.63000000    2.75000000
   18.25444412  152.12100220    0.63000000    2.75000000
   18.25749969  161.61099243    0.61000001    2.75000000
   18.26083374  157.15899658    0.61000001    2.73000002
   18.26416588  165.04899597    0.61000001    2.75000000
   18.26722145  159.81199646    0.61000001    2.75000000
   18.27055550  152.45799255    0.61000001    2.75000000
   18.27388954  151.71200562    0.58999997    2.75000000
   18.27694511  163.13900757    0.58999997    2.75000000
   18.28027725  158.20399475    0.55000001    2.75000000
   18.28361130  135.45799255    0.55000001    2.75000000
   18.28666687  159.66099548    0.55000001    2.75000000
   18.28722191  160.14599609    0.55000001    2.75000000
   18.29305458  160.14599609    0.55000001    2.76999998
   18.29722214  157.41799927    0.55000001    2.75000000
   18.30055428  167.45899963    0.55000001    2.75000000
   18.30360985  155.45599365    0.52999997    2.75000000
   18.30694389  169.61599731    0.52999997    2.75000000
   18.31027794  168.41499329    0.55000001    2.73000002
   18.31361008  168.44900513    0.51999998    2.75000000
   18.31694603  162.32200623    0.51999998    2.75000000
   18.32000160  162.72799683    0.52999997    2.75000000
   18.32055664  169.23100281    0.51999998    2.75000000
   18.32361221  158.04100037    0.51999998    2.73000002
   18.32666779  162.70700073    0.51999998    2.75000000
   18.33000183  137.50999451    0.51999998    2.75000000
   18.33583450  137.50999451    0.52999997    2.73000002
   18.34000015  157.99200439    0.51999998    2.73000002
   18.34333420  156.49499512    0.51999998    2.75000000
   18.34666824  156.33299255    0.51999998    2.75000000
   18.34972191  153.00799561    0.51999998    2.75000000
   18.35305595  149.25300598    0.51999998    2.75000000
   18.35388947  172.28500366    0.51999998    2.75000000
   18.35666656  162.03999329    0.51999998    2.75000000
   18.35972214  159.55900574    0.51999998    2.75000000
   18.36305618  151.34399414    0.51999998    2.75000000
   18.36638832  156.22799683    0.51999998    2.75000000
   18.36944389  157.57299805    0.51999998    2.75000000
   18.37277794  167.29299927    0.51999998    2.75000000
   18.37888908  167.29299927    0.51999998    2.75000000
   18.38305473  153.69599915    0.51999998    2.73000002
   18.38611031  158.93099976    0.51999998    2.75000000
   18.38722229  154.33500671    0.51999998    2.75000000
   18.38972282  165.54299927    0.51999998    2.75000000
   18.39305496  170.56399536    0.51999998    2.75000000
   18.39611053  165.25799561    0.51999998    2.75000000
   18.39944458  161.71499634    0.52999997    2.75000000
   18.40250015  161.26800537    0.52999997    2.75000000
   18.40583229  161.11799622    0.52999997    2.75000000
   18.40916634  154.08900452    0.52999997    2.75000000
   18.41222191  158.19400024    0.58999997    2.73000002
   18.41555595  168.88299561    0.61000001    2.75000000
   18.42166519  168.88299561    0.61000001    2.75000000
   18.42583275  153.37899780    0.58999997    2.75000000
   18.42888832  156.08299255    0.58999997    2.75000000
   18.43222237  171.89199829    0.58999997    2.75000000
   18.43555450  147.37500000    0.58999997    2.75000000
   18.43861008  162.32400513    0.56999999    2.76999998
   18.44194412  155.47900391    0.56999999    2.75000000
   18.44527626  155.70599365    0.55000001    2.75000000
   18.44833183  160.63099670    0.55000001    2.75000000
   18.45166779  158.09500122    0.55000001    2.75000000
   18.45388985  150.17100525    0.55000001    2.75000000
   18.45527840  170.61799622    0.55000001    2.75000000
   18.45861244  178.27699280    0.55000001    2.75000000
   18.46444511  178.27699280    0.55000001    2.75000000
   18.46861076  147.55000305    0.55000001    2.73000002
   18.47194481  175.50399780    0.55000001    2.73000002
   18.47500038  168.42199707    0.56999999    2.75000000
   18.47833443  177.22799683    0.76999998    2.75000000
   18.48166656  170.66700745    0.81999999    2.73000002
   18.48472214  172.36000061    0.81999999    2.73000002
   18.48722267  190.43400574    0.83999997    2.75000000
   18.48888969  215.10400391    0.83999997    2.75000000
   18.49222183  206.24699402    0.79000002    2.75000000
   18.49555588  198.53100586    0.70999998    2.75000000
   18.49861145  195.15199280    0.67000002    2.73000002
   18.50194359  199.96699524    0.67000002    2.75000000
   18.50722313  199.96699524    0.64999998    2.75000000
   18.51138878  174.78199768    0.64999998    2.73000002
   18.51472282  174.26800537    0.63000000    2.73000002
   18.51805496  173.52099609    0.63000000    2.75000000
   18.52055550  181.60200500    0.63000000    2.75000000
   18.52166557  179.51199341    0.58999997    2.75000000
   18.52499962  178.01800537    0.52999997    2.73000002
   18.52805519  176.70100403    0.51999998    2.73000002
   18.53138924  185.41799927    0.51999998    2.75000000
   18.53444481  180.16099548    0.51999998    2.75000000
   18.53777695  177.06500244    0.51999998    2.75000000
   18.54111099  178.61099243    0.51999998    2.75000000
   18.54416656  161.48699951    0.52999997    2.75000000
   18.55027771  161.48699951    0.55000001    2.73000002
   18.55444336  183.69299316    0.55000001    2.73000002
   18.55777740  169.79899597    0.55000001    2.75000000
   18.56110954  168.73800659    0.55000001    2.75000000
   18.56416512  175.24499512    0.55000001    2.75000000
   18.56750107  160.58700562    0.55000001    2.73000002
   18.57083511  170.72000122    0.55000001    2.75000000
   18.57389069  160.85200500    0.56999999    2.75000000
   18.57722282  163.45500183    0.56999999    2.73000002
   18.58027840  160.95199585    0.56999999    2.75000000
   18.58361244  154.58799744    0.56999999    2.75000000
   18.58694458  156.56199646    0.56999999    2.75000000
   18.58750153  163.32800293    0.56999999    2.75000000
   18.59305573  163.32800293    0.55000001    2.75000000
   18.59722328  156.69599915    0.55000001    2.75000000
   18.60027885  161.46099854    0.55000001    2.75000000
   18.60361099  165.04400635    0.52999997    2.73000002
   18.60694504  162.17399597    0.52999997    2.73000002
   18.61000061  155.26600647    0.52999997    2.73000002
   18.61333466  176.40899658    0.52999997    2.73000002
   18.61666679  167.50300598    0.52999997    2.73000002
   18.61972237  175.69500732    0.52999997    2.73000002
   18.62083435  165.15400696    0.52999997    2.73000002
   18.62333298  175.37100220    0.52999997    2.73000002
   18.62666702  168.95700073    0.52999997    2.73000002
   18.63000107  163.83700562    0.52999997    2.75000000
   18.63583374  163.83700562    0.55000001    2.75000000
   18.63999939  150.92300415    0.56999999    2.73000002
   18.64333344  167.79299927    0.56999999    2.73000002
   18.64638901  163.90899658    0.56999999    2.73000002
   18.64972115  158.47300720    0.56999999    2.75000000
   18.65305519  156.98699951    0.56999999    2.73000002
   18.65416718  162.97000122    0.56999999    2.75000000
   18.65638924  164.48599243    0.58999997    2.75000000
   18.65972137  156.08999634    0.58999997    2.75000000
   18.66305542  167.09700012    0.58999997    2.73000002
   18.66611099  169.99099731    0.58999997    2.73000002
   18.66944313  173.17700195    0.58999997    2.73000002
   18.67249870  165.81300354    0.58999997    2.73000002
   18.67860985  165.81300354    0.58999997    2.73000002
   18.68277740  164.20100403    0.58999997    2.71000004
   18.68610954  165.33299255    0.58999997    2.73000002
   18.68750000  157.28900146    0.58999997    2.73000002
   18.68972206  163.26400757    0.58999997    2.75000000
   18.69305420  172.40699768    0.58999997    2.75000000
   18.69638824  163.79499817    0.58999997    2.75000000
   18.69944382  164.05099487    0.56999999    2.73000002
   18.70277786  145.21099854    0.56999999    2.75000000
   18.70583344  162.17900085    0.56999999    2.73000002
   18.70916748  154.02000427    0.58999997    2.73000002
   18.71250153  164.72599792    0.58999997    2.73000002
   18.71555710  155.92700195    0.56999999    2.73000002
   18.72166634  155.92700195    0.56999999    2.73000002
   18.72583389  157.23500061    0.58999997    2.73000002
   18.72888947  165.00399780    0.58999997    2.73000002
   18.73222351  158.67999268    0.55000001    2.73000002
   18.73527718  150.25900269    0.55000001    2.73000002
   18.73861122  160.91400146    0.52999997    2.73000002
   18.74194527  147.81500244    0.52999997    2.73000002
   18.74500084  155.05000305    0.52999997    2.73000002
   18.74833298  149.95799255    0.52999997    2.73000002
   18.75166702  153.60000610    0.51999998    2.73000002
   18.75416756  159.82000732    0.51999998    2.73000002
   18.75499916  157.63000488    0.51999998    2.73000002
   18.75833321  160.13099670    0.51999998    2.73000002
   18.76444435  160.13099670    0.51999998    2.73000002
   18.76861000  160.02499390    0.51999998    2.73000002
   18.77166557  156.97999573    0.51999998    2.73000002
   18.77499962  160.91099548    0.52999997    2.73000002
   18.77833366  173.29699707    0.61000001    2.71000004
   18.78138924  172.25500488    0.61000001    2.71000004
   18.78472137  169.65299988    0.64999998    2.73000002
   18.78750038  154.55000305    0.61000001    2.73000002
   18.78833199  158.50700378    0.61000001    2.73000002
   18.79166603  156.15299988    0.58999997    2.71000004
   18.79500008  153.73599243    0.55000001    2.73000002
   18.79805565  163.41900635    0.55000001    2.73000002
   18.80138779  154.69099426    0.55000001    2.73000002
   18.80722237  154.69099426    0.56999999    2.73000002
   18.81138802  160.27099609    0.55000001    2.73000002
   18.81472206  160.83099365    0.52999997    2.73000002
   18.81777954  173.09100342    0.51999998    2.73000002
   18.82083511  168.52499390    0.51999998    2.73000002
   18.82139015  160.04899597    0.51999998    2.73000002
   18.82472229  168.70199585    0.52999997    2.71000004
   18.82805634  169.67799377    0.51999998    2.71000004
   18.83111191  173.28399658    0.52999997    2.73000002
   18.83444595  153.65299988    0.52999997    2.71000004
   18.83777809  165.31700134    0.52999997    2.73000002
   18.84083366  173.81500244    0.51999998    2.73000002
   18.84416771  161.09300232    0.51999998    2.71000004
   18.85000038  161.09300232    0.51999998    2.71000004
   18.85416794  167.49499512    0.51999998    2.73000002
   18.85750008  189.29200745    0.50000000    2.73000002
   18.86083412  209.33099365    0.50000000    2.73000002
   18.86388969  190.29299927    0.50000000    2.71000004
   18.86722183  190.46800232    0.50000000    2.73000002
   18.87027740  191.46699524    0.50000000    2.73000002
   18.87388992  192.90600586    0.50000000    2.73000002
   18.87694550  202.25500488    0.47999999    2.73000002
   18.88027763  216.56199646    0.47999999    2.73000002
   18.88361168  195.19400024    0.47999999    2.73000002
   18.88666725  215.83599854    0.47999999    2.71000004
   18.88750076  206.04800415    0.46000001    2.73000002
   18.89305496  206.04800415    0.46000001    2.73000002
   18.89722252  213.90199280    0.47999999    2.71000004
   18.90027809  196.02299500    0.46000001    2.73000002
   18.90361023  191.25500488    0.46000001    2.71000004
   18.90666580  185.85800171    0.47999999    2.71000004
   18.90999985  195.47700500    0.47999999    2.71000004
   18.91333389  188.47700500    0.55000001    2.71000004
   18.91666603  182.72999573    0.56999999    2.73000002
   18.91972160  197.47599792    0.58999997    2.71000004
   18.92083359  191.37199402    0.58999997    2.71000004
   18.92361069  190.90499878    0.58999997    2.71000004
   18.92666626  182.00900269    0.58999997    2.71000004
   18.93000031  186.97399902    0.61000001    2.71000004
   18.93583298  186.97399902    0.67000002    2.71000004
   18.93999863  194.23800659    0.69000000    2.73000002
   18.94305420  177.85699463    0.69000000    2.71000004
   18.94638824  172.80499268    0.69000000    2.73000002
   18.94972038  171.58500671    0.69000000    2.73000002
   18.95277786  175.07699585    0.67000002    2.73000002
   18.95416832  163.56500244    0.67000002    2.73000002
   18.95666695  169.18299866    0.69000000    2.71000004
   18.95972252  158.28900146    0.69000000    2.71000004
   18.96305656  181.49200439    0.69000000    2.71000004
   18.96611214  160.47900391    0.67000002    2.71000004
   18.96944427  171.51800537    0.67000002    2.73000002
   18.97277832  181.80700684    0.64999998    2.71000004
   18.97861099  181.80700684    0.63000000    2.71000004
   18.98277855  169.78599548    0.63000000    2.71000004
   18.98611069  176.43699646    0.61000001    2.71000004
   18.98750114  168.77699280    0.58999997    2.71000004
   18.98972321  170.89300537    0.61000001    2.71000004
   18.99277878  167.87899780    0.61000001    2.73000002
   18.99611092  172.18400574    0.58999997    2.71000004
   18.99916649  172.07600403    0.58999997    2.71000004
   19.00250053  177.11199951    0.58999997    2.71000004
   19.00583267  167.15899658    0.61000001    2.71000004
   19.00888824  164.76100159    0.61000001    2.71000004
   19.01222229  160.69500732    0.61000001    2.71000004
   19.01555634  165.76300049    0.61000001    2.71000004
   19.02138901  165.76300049    0.61000001    2.71000004
   19.02555466  161.15800476    0.63000000    2.71000004
   19.02888870  164.64100647    0.63000000    2.71000004
   19.03194427  149.01300049    0.61000001    2.71000004
   19.03527641  169.00900269    0.61000001    2.71000004
   19.03861046  155.63000488    0.61000001    2.71000004
   19.04166603  164.63699341    0.61000001    2.71000004
   19.04500008  157.40899658    0.61000001    2.71000004
   19.04833221  170.69000244    0.61000001    2.71000004
   19.05138779  169.17100525    0.61000001    2.71000004
   19.05416679  146.81500244    0.61000001    2.71000004
   19.05527687  162.23399353    0.61000001    2.71000004
   19.05833244  161.71299744    0.61000001    2.71000004
   19.06444359  161.71299744    0.61000001    2.71000004
   19.06861115  156.14300537    0.61000001    2.71000004
   19.07194519  164.44700623    0.61000001    2.71000004
   19.07500076  155.08900452    0.61000001    2.71000004
   19.07833481  156.74299622    0.61000001    2.71000004
   19.08166695  166.08700562    0.61000001    2.71000004
   19.08472252  148.09100342    0.58999997    2.71000004
   19.08750153  153.17199707    0.58999997    2.71000004
   19.08861160  147.90199280    0.58999997    2.71000004
   19.09166718  151.55000305    0.58999997    2.71000004
   19.09500122  157.22799683    0.58999997    2.71000004
   19.09833336  167.30700684    0.58999997    2.71000004
   19.10138893  156.91600037    0.56999999    2.71000004
   19.10722351  156.91600037    0.61000001    2.71000004
   19.11138916  155.16000366    0.63000000    2.71000004
   19.11444473  147.68299866    0.64999998    2.71000004
   19.11777878  159.34700012    0.64999998    2.71000004
   19.12083435  149.76699829    0.64999998    2.71000004
   19.12138939  154.26199341    0.64999998    2.71000004
   19.12444496  152.04499817    0.63000000    2.69000006
   19.12777710  153.42300415    0.64999998    2.71000004
   19.13111115  159.71600342    0.63000000    2.71000004
   19.13416672  147.26899719    0.63000000    2.71000004
   19.13750076  156.49699402    0.63000000    2.71000004
   19.14055634  148.19999695    0.63000000    2.71000004
   19.14388847  158.49200439    0.64999998    2.71000004
   19.14999962  158.49200439    0.63000000    2.71000004
   19.15416718  146.11099243    0.64999998    2.71000004
   19.15749931  156.03900146    0.64999998    2.71000004
   19.16055489  153.03999329    0.64999998    2.71000004
   19.16388893  154.17599487    0.64999998    2.71000004
   19.16694450  154.97300720    0.64999998    2.71000004
   19.17027664  155.12199402    0.63000000    2.71000004
   19.17361069  157.28500366    0.63000000    2.71000004
   19.17666626  153.25999451    0.63000000    2.69000006
   19.18000031  162.18200684    0.63000000    2.71000004
   19.18333244  154.89999390    0.58999997    2.69000006
   19.18638802  160.85800171    0.56999999    2.71000004
   19.18750000  148.70899963    0.56999999    2.71000004
   19.19277763  148.70899963    0.55000001    2.71000004
   19.19694328  155.00999451    0.55000001    2.71000004
   19.20027924  143.72200012    0.55000001    2.71000004
   19.20333481  146.07800293    0.55000001    2.71000004
   19.22111130  129.47999573    0.63000000    2.69000006
   19.22333336  129.24499512    0.61000001    2.71000004
   19.22666740  143.68899536    0.58999997    2.69000006
   19.23000145  127.57399750    0.61000001    2.69000006
   19.23583412  127.57399750    0.69000000    2.71000004
   19.23999977  130.71000671    0.70999998    2.69000006
   19.24333382  131.41799927    0.70999998    2.69000006
   19.24638939  132.32499695    0.70999998    2.71000004
   19.24972153  130.07699585    0.69000000    2.71000004
   19.25305557  136.51300049    0.67000002    2.71000004
   19.25416756  133.68600464    0.67000002    2.71000004
   19.25666618  126.29100037    0.64999998    2.71000004
   19.26000023  127.86100006    0.64999998    2.71000004
   19.26305580  126.54799652    0.63000000    2.71000004
   19.26638794  132.41999817    0.61000001    2.71000004
   19.26972198  125.59400177    0.58999997    2.69000006
   19.27277756  128.64900208    0.58999997    2.69000006
   19.27861023  128.64900208    0.58999997    2.71000004
   19.28277779  132.37600708    0.58999997    2.69000006
   19.28610992  133.12600708    0.58999997    2.71000004
   19.28750038  130.25599670    0.56999999    2.71000004
   19.28972244  133.22700500    0.56999999    2.69000006
   19.29305458  136.35000610    0.56999999    2.69000006
   19.29611015  132.09300232    0.55000001    2.69000006
   19.29944420  135.05400085    0.55000001    2.71000004
   19.30277634  136.12600708    0.52999997    2.69000006
   19.30611038  134.59300232    0.52999997    2.69000006
   19.30944443  133.29100037    0.55000001    2.69000006
   19.31250000  133.09100342    0.55000001    2.69000006
   19.31583214  133.46200562    0.55000001    2.71000004
   19.32166672  133.46200562    0.56999999    2.69000006
   19.32583427  133.63099670    0.56999999    2.69000006
   19.32888985  131.89500427    0.56999999    2.69000006
   19.33222389  138.41700745    0.58999997    2.69000006
   19.33555603  136.30999756    0.56999999    2.69000006
   19.33861160  133.88200378    0.58999997    2.69000006
   19.35194397   -1.00000000   -1.00000000   -1.00000000
   19.35972214   -1.00000000   -1.00000000   -1.00000000
