    HOUR (UT)   FLARE FACTOR    SKY TESTER    SUN TESTER
   12.55027771   -1.00000000   -1.00000000   -1.00000000
   12.59749985  318.94799805    0.36000001    0.75000000
   12.60083389  342.97399902    0.36000001    0.75000000
   12.60416698  349.59201050    0.36000001    0.75000000
   12.60722256  301.97299194    0.36000001    0.75000000
   12.61055565  305.97100830    0.36000001    0.75000000
   12.61388969  329.77301025    0.36000001    0.76999998
   12.61777782  329.77301025    0.36000001    0.75000000
   12.62194443  322.43899536    4.90999985    1.61000001
   12.62527752  274.08200073    0.69000000    2.19000006
   12.62861156  317.73901367    0.70999998    2.17000008
   12.63083363  315.08499146    0.75000000    2.17000008
   12.63222218  315.55099487    0.75000000    2.17000008
   12.63527775   -1.00000000    0.81999999    2.19000006
   12.63861084   -1.00000000    0.89999998    2.17000008
   12.64194393   -1.00000000    1.01999998    2.19000006
   12.64499950   -1.00000000    1.05999994    2.19000006
   12.64833355   -1.00000000    1.48000002    2.19000006
   12.65166664  290.27801514    1.53999996    2.19000006
   12.65472221  308.16299438    1.60000002    2.21000004
   12.66083336  308.16299438    2.50000000    2.17000008
   12.66499996  281.43200684    3.34999990    2.17000008
   12.66805553   -1.00000000    3.95000005    2.15000010
   12.67138958   -1.00000000    4.48999977    2.13000011
   12.67444515   -1.00000000    4.67999983    2.13000011
   12.67777824   -1.00000000    4.69999981    2.13000011
   12.68111134   -1.00000000    4.53000021    2.13000011
   12.68416691  496.04598999    4.26000023    2.17000008
   12.68638897  297.58300781    4.05999994    2.17000008
   12.68638897   -1.00000000    4.48999977    2.13000011
   12.68638897   -1.00000000    4.67999983    2.13000011
   12.68666649   -1.00000000    4.69999981    2.13000011
   12.68666649   -1.00000000    4.53000021    2.13000011
   12.68666649  496.04598999    4.26000023    2.17000008
   12.68694496  290.27801514    1.53999996    2.19000006
   12.68694496  308.16299438    1.60000002    2.21000004
   12.68694496  281.43200684    3.34999990    2.17000008
   12.68722248   -1.00000000    3.95000005    2.15000010
   12.68916702  312.21301270    3.73000002    2.17000008
   12.69250011  288.40701294    3.36999989    2.15000010
   12.69555569  346.29501343    3.20000005    2.11999989
   12.69888878  327.66400146    3.45000005    2.09999990
   12.70194435  302.07800293    3.64000010    2.11999989
   12.70722198  302.07800293    3.41000009    2.13000011
   12.71111107  297.41400146    3.16000009    2.15000010
   12.71444416  277.62200928    2.98000002    2.17000008
   12.71777725   -1.00000000    2.67000008    2.21000004
   12.74111176  259.76800537    1.75000000    2.21000004
   12.74444485  276.99700928    1.75000000    2.21000004
   12.74777794  256.82000732    1.76999998    2.19000006
   12.75083351  263.06100464    1.76999998    2.21000004
   12.75361156  268.27899170    1.76999998    2.21000004
   12.75444412  255.01300049    1.76999998    2.21000004
   12.75861073  255.01300049    1.44000006    2.23000002
   12.76277733  255.55099487    1.30999994    2.23000002
   12.76611137  260.44699097    1.16999996    2.23000002
   12.76916599   -1.00000000    1.00000000    2.23000002
   12.77250004   -1.00000000    0.98000002    2.23000002
   12.77555561   -1.00000000    0.94000000    2.23000002
   12.77888870   -1.00000000    0.94000000    2.23000002
   12.78222179  223.49200439    0.95999998    2.25000000
   12.78527832  238.16799927    1.85000002    2.25000000
   12.78694534  230.21299744    2.64000010    2.26999998
   12.78888893  263.13800049    4.00000000    2.26999998
   12.79222298  233.59700012    4.36999989    2.25000000
   12.79527855  230.26499939    4.90999985    2.26999998
   12.80138874  230.26499939    4.17999983    2.23000002
   12.80555534  381.39498901    4.34999990    1.94000006
   12.80888939  266.38500977    4.32999992    2.19000006
   12.81194496  242.10200500    3.11999989    2.26999998
   12.81527805  224.96600342    1.94000006    2.26999998
   12.81861115  238.31100464    1.38000000    2.25000000
   12.82027817  231.36799622    1.11000001    2.26999998
   12.82222176  235.39300537    1.00000000    2.28999996
   12.82555580  239.94000244    0.94000000    2.28999996
   12.82861137  245.59599304    0.86000001    2.26999998
   12.83194447  252.77600098    0.86000001    2.26999998
   12.83527756  246.57600403    0.86000001    2.26999998
   12.83833313  257.21701050    0.80000001    2.26999998
   12.84444427  257.21701050    0.80000001    2.28999996
   12.84833336  238.87500000    0.79000002    2.26999998
   12.85166740  233.59599304    0.79000002    2.26999998
   12.85361195  282.19500732    0.79000002    2.28999996
   12.85527802  260.88598633    0.79000002    2.28999996
   12.85861111  246.28599548    0.79000002    2.28999996
   12.86166668  242.48100281    0.89999998    2.28999996
   12.86500072  235.51600647    1.01999998    2.28999996
   12.86833382  242.53599548    1.13000000    2.28999996
   12.87138939  257.35998535    1.26999998    2.28999996
   12.87472248  248.13999939    1.39999998    2.28999996
   12.87805557  237.24800110    1.53999996    2.28999996
   12.88111115  280.83200073    1.61000001    2.28999996
   12.88722229  280.83200073    1.64999998    2.28999996
   12.89138889  240.57000732    1.64999998    2.28999996
   12.89444447  255.10200500    1.64999998    2.26999998
   12.89777756  227.40800476    1.64999998    2.28999996
   12.90083313  242.36599731    1.63000000    2.28999996
   12.90416622  234.10600281    1.61000001    2.28999996
   12.90749931  239.05599976    1.60000002    2.28999996
   12.91083336  237.46400452    1.14999998    2.30999994
   12.91388893  228.52000427    1.14999998    2.28999996
   12.91722298  220.69999695    1.23000002    2.32999992
   12.92027855  219.88699341    1.26999998    2.30999994
   12.92083359  221.07200623    1.34000003    2.32999992
   12.92416668  241.03599548    1.50000000    2.32999992
   12.93000031  241.03599548    1.61000001    2.32999992
   12.93416691  238.16900635    1.63000000    2.32999992
   12.93722248  237.72500610    1.76999998    2.30999994
   12.94055557  262.33898926    1.86000001    2.28999996
   12.94388866  217.50700378    1.88000000    2.28999996
   12.94694424  231.08399963    1.94000006    2.30999994
   12.95027733  245.64900208    1.94000006    2.30999994
   12.95361137  216.98399353    1.94000006    2.28999996
   12.95388889  248.66600037    1.94000006    2.28999996
   12.95722198  218.20500183    1.94000006    2.28999996
   12.96027756  242.51499939    1.86000001    2.30999994
   12.96361065  222.08200073    1.85000002    2.32999992
   12.96694374  215.13099670    1.86000001    2.32999992
   12.97277737  215.13099670    1.86000001    2.32999992
   12.97694397  223.67700195    1.69000006    2.30999994
   12.98027706  214.62500000    1.83000004    2.32999992
   12.98333359  218.82499695    1.98000002    2.30999994
   12.98666668  196.29899597    2.00000000    2.32999992
   12.98722267  212.94700623    2.00000000    2.32999992
   12.99055576  210.85299683    1.94000006    2.32999992
   12.99361134  228.19500732    1.98000002    2.30999994
   12.99694443  236.36399841    2.23000002    2.30999994
   13.00027752  221.64799500    2.46000004    2.32999992
   13.00333309  230.48800659    2.53999996    2.32999992
   13.00666714  216.91600037    2.57999992    2.30999994
   13.00972176  225.99299622    2.64000010    2.30999994
   13.01555538  225.99299622    2.82999992    2.28999996
   13.01972198  227.42999268    2.80999994    2.28999996
   13.02055550  217.35800171    2.76999998    2.28999996
   13.02361107  234.66200256    2.64000010    2.30999994
   13.02666664  219.56700134    2.42000008    2.30999994
   13.02999973  231.12399292    2.25000000    2.32999992
   13.03305531  222.77999878    2.01999998    2.32999992
   13.03638935  224.27000427    1.66999996    2.32999992
   13.03972244  216.51199341    1.61000001    2.32999992
   13.04277802  207.04600525    1.64999998    2.32999992
   13.04611111  221.17100525    1.76999998    2.32999992
   13.04944515  208.86700439    1.89999998    2.32999992
   13.05249977  215.25500488    1.94000006    2.32999992
   13.05388927  224.94500732    1.98000002    2.32999992
   13.05861092  224.94500732    2.01999998    2.32999992
   13.06277752  217.89700317    2.01999998    2.32999992
   13.06583309  227.01699829    2.01999998    2.32999992
   13.06916618  215.59500122    2.07999992    2.32999992
   13.07222176  228.35099792    2.13000011    2.32999992
   13.07555580  209.24099731    2.23000002    2.32999992
   13.07888889  208.65699768    2.30999994    2.32999992
   13.08194447  216.19099426    2.34999990    2.32999992
   13.08527756  201.99499512    2.42000008    2.32999992
   13.08722210  217.61300659    2.50000000    2.34999990
   13.08916664  211.36199951    2.59999990    2.32999992
   13.09222221  203.88999939    2.67000008    2.32999992
   13.09555531  214.08200073    2.73000002    2.34999990
   13.10138893  214.08200073    2.76999998    2.32999992
   13.10555553  226.11900330    2.66000009    2.32999992
   13.10861111  195.03799438    2.48000002    2.34999990
   13.11194515  221.24499512    2.25000000    2.34999990
   13.11527824  227.76300049    2.09999990    2.34999990
   13.11833382  210.13600159    1.73000002    2.34999990
   13.12055588  201.03799438    1.53999996    2.34999990
   13.12222195  189.65600586    1.50000000    2.34999990
   13.12527752  218.23800659    1.34000003    2.39000010
   13.12861156  226.25300598    1.25000000    2.36999989
   13.13166714  220.28999329    1.11000001    2.39000010
   13.13500023  211.10000610    1.01999998    2.39000010
   13.13833332  221.61300659    0.89999998    2.39000010
   13.14416695  221.61300659    0.79000002    2.39000010
   13.14833355  221.88499451    0.67000002    2.39000010
   13.15166664  213.72200012    0.64999998    2.39000010
   13.15388870  220.58399963    0.63000000    2.39000010
   13.15527725  187.58200073    0.63000000    2.39000010
   13.15833282  206.97799683    0.61000001    2.39000010
   13.16166592  209.25700378    0.63000000    2.39000010
   13.16499996  189.56500244    0.61000001    2.40000010
   13.16805553  185.70199585    0.61000001    2.39000010
   13.17138958  210.56500244    0.61000001    2.40000010
   13.17444515  216.64900208    0.58999997    2.39000010
   13.17777824  194.37199402    0.58999997    2.39000010
   13.18111134  192.67599487    0.56999999    2.39000010
   13.18694496  192.67599487    0.55000001    2.40000010
   13.19111156  204.15100098    0.51999998    2.40000010
   13.19444466  200.11599731    0.51999998    2.40000010
   13.19777775  212.08099365    0.50000000    2.40000010
   13.20083332  227.21299744    0.50000000    2.40000010
   13.20416641  199.30900574    0.47999999    2.40000010
   13.20722198  211.82800293    0.50000000    2.40000010
   13.21055508  217.29600525    0.50000000    2.40000010
   13.21388912  216.05499268    0.50000000    2.42000008
   13.21694374  224.06500244    0.50000000    2.40000010
   13.22027779  218.96499634    0.50000000    2.40000010
   13.22222137  212.04499817    0.50000000    2.40000010
   13.22388840  205.56799316    0.50000000    2.42000008
   13.22999954  205.56799316    0.50000000    2.40000010
   13.23416710  215.73599243    0.50000000    2.40000010
   13.23722267  194.29400635    0.47999999    2.40000010
   13.24055576  201.76199341    0.47999999    2.40000010
   13.24388885  209.82299805    0.47999999    2.40000010
   13.24694443  215.82899475    0.47999999    2.40000010
   13.25027752  230.61799622    0.47999999    2.40000010
   13.25333309  212.02299500    0.47999999    2.40000010
   13.25555515  229.06700134    0.47999999    2.40000010
   13.25694466  205.02600098    0.47999999    2.42000008
   13.26027775  187.25199890    0.47999999    2.42000008
   13.26361084  208.56799316    0.47999999    2.42000008
   13.26666641  212.06900024    0.47999999    2.42000008
   13.27277756  212.06900024    0.47999999    2.42000008
   13.27694416  196.77600098    0.47999999    2.40000010
   13.28027725  206.61900330    0.47999999    2.40000010
   13.28333378  202.21899414    0.47999999    2.42000008
   13.28666687  198.22900391    0.47999999    2.42000008
   13.28888893  204.92999268    0.47999999    2.40000010
   13.29027843  211.93200684    0.47999999    2.42000008
   13.29361153  210.15800476    0.47999999    2.42000008
   13.29666710  201.66099548    0.46000001    2.42000008
   13.30000019  201.46600342    0.46000001    2.42000008
   13.30333328  191.37399292    0.47999999    2.42000008
   13.30638885  224.13099670    0.46000001    2.44000006
   13.30972195  211.52699280    0.47999999    2.42000008
   13.31555557  211.52699280    0.46000001    2.42000008
   13.31972218  195.28599548    0.46000001    2.42000008
   13.32222176  200.84899902    0.47999999    2.42000008
   13.32333374  212.61700439    0.46000001    2.42000008
   13.32666683  202.50199890    0.47999999    2.44000006
   13.32972240  199.62500000    0.47999999    2.42000008
   13.33305550  206.84100342    0.46000001    2.44000006
   13.33638859  192.30499268    0.46000001    2.44000006
   13.33944416  197.05999756    0.46000001    2.44000006
   13.34277725  193.82400513    0.46000001    2.44000006
   13.34583282  187.02600098    0.46000001    2.44000006
   13.34916592  188.85699463    0.46000001    2.42000008
   13.35249996  203.36000061    0.46000001    2.44000006
   13.35861111  203.36000061    0.46000001    2.44000006
   13.36277771  201.88900757    0.46000001    2.42000008
   13.36583328  211.28799438    0.46000001    2.44000006
   13.36916637  202.78199768    0.46000001    2.44000006
   13.37222195  180.50100708    0.46000001    2.44000006
   13.37555599  194.09599304    0.46000001    2.44000006
   13.37888908  209.61399841    0.46000001    2.44000006
   13.38194466  198.82400513    0.46000001    2.44000006
   13.38527775  205.80700684    0.44000000    2.44000006
   13.38861084  187.90299988    0.44000000    2.44000006
   13.38944435  203.43499756    0.44000000    2.44000006
   13.39222240  210.78500366    0.44000000    2.44000006
   13.39527798  176.57699585    0.44000000    2.44000006
   13.40138817  176.57699585    0.46000001    2.44000006
   13.40555477  188.30700684    0.46000001    2.44000006
   13.40861034  183.85099792    0.47999999    2.44000006
   13.41194439  186.52900696    0.47999999    2.44000006
   13.41527748  206.76899719    0.46000001    2.46000004
   13.41833401  207.61999512    0.46000001    2.46000004
   13.42166710  185.67900085    0.46000001    2.46000004
   13.42277813  195.92799377    0.46000001    2.46000004
   13.42527771  204.68899536    0.46000001    2.44000006
   13.42833328  208.59100342    0.47999999    2.46000004
   13.43166733  185.47300720    0.47999999    2.46000004
   13.43472195  184.36099243    0.46000001    2.46000004
   13.43805599  210.56599426    0.46000001    2.46000004
   13.44416714  210.56599426    0.44000000    2.46000004
   13.44833374  202.55499268    0.44000000    2.46000004
   13.45166683  190.46099854    0.44000000    2.46000004
   13.45472240  210.13000488    0.44000000    2.46000004
   13.45638847  201.01100159    0.44000000    2.46000004
   13.45833302  197.08599854    0.44000000    2.46000004
   13.46166611  194.96200562    0.41999999    2.46000004
   13.46500015  199.77799988    0.41999999    2.46000004
   13.46805477  184.04800415    0.41999999    2.46000004
   13.47138882  184.05499268    0.41999999    2.46000004
   13.47444439  194.26199341    0.41999999    2.48000002
   13.47777748  187.44200134    0.44000000    2.46000004
   13.48111057  173.82200623    0.41999999    2.46000004
   13.48694515  173.82200623    0.44000000    2.46000004
   13.49111176  178.52799988    0.41999999    2.46000004
   13.49444485  196.50300598    0.41999999    2.46000004
   13.49750042  194.72999573    0.44000000    2.46000004
   13.50083351  199.16799927    0.44000000    2.48000002
   13.50416660  177.96699524    0.41999999    2.46000004
   13.50722218  199.29200745    0.41999999    2.48000002
   13.51055527  182.92999268    0.41999999    2.46000004
   13.51388931  210.09199524    0.44000000    2.48000002
   13.51694393  216.80599976    0.44000000    2.48000002
   13.52027798  194.33299255    0.41999999    2.48000002
   13.52305508  223.18800354    0.41999999    2.48000002
   13.52388859  226.56799316    0.41999999    2.48000002
   13.52999973  226.56799316    0.41999999    2.46000004
   13.53388977  223.25500488    0.41999999    2.48000002
   13.53722286  175.50100708    0.41999999    2.46000004
   13.54055595  205.44500732    0.41999999    2.48000002
   13.54361153  205.16400146    0.41999999    2.46000004
   13.54694462  226.34599304    0.41999999    2.48000002
   13.55027771  206.99899292    0.41999999    2.48000002
   13.55333328  208.81599426    0.41999999    2.48000002
   13.55638885  208.73500061    0.41999999    2.48000002
   13.55694485  198.83999634    0.41999999    2.48000002
   13.56027794  192.69299316    0.41999999    2.48000002
   13.56361103  219.47900391    0.44000000    2.48000002
   13.56666660  238.27999878    0.44000000    2.48000002
   13.57277775  238.27999878    0.41999999    2.48000002
   13.57694435  257.63800049    0.44000000    2.48000002
   13.57999992  243.36000061    0.44000000    2.50000000
   13.58333302  221.14599609    0.44000000    2.48000002
   13.58666611  236.34300232    0.44000000    2.48000002
   13.58972168  211.59300232    0.41999999    2.48000002
   13.59027767  224.53700256    0.41999999    2.48000002
   13.59361076  190.62699890    0.44000000    2.48000002
   13.59694386  210.30000305    0.44000000    2.48000002
   13.60000038  230.53999329    0.41999999    2.48000002
   13.60333347  192.38499451    0.44000000    2.48000002
   13.60638905  220.64100647    0.44000000    2.48000002
   13.60972214  217.70899963    0.44000000    2.48000002
   13.61555576  217.70899963    0.44000000    2.50000000
   13.61972237  219.94599915    0.44000000    2.48000002
   13.62305546  199.54600525    0.44000000    2.50000000
   13.62333393  227.88499451    0.44000000    2.50000000
   13.62666702  201.90100098    0.44000000    2.48000002
   13.63000011  195.23599243    0.44000000    2.48000002
   13.63305569  206.94400024    0.44000000    2.48000002
   13.63638878  202.85200500    0.44000000    2.50000000
   13.63944435  204.56700134    0.41999999    2.48000002
   13.64277744  196.52200317    0.44000000    2.48000002
   13.64611053  208.63999939    0.44000000    2.48000002
   13.64916611  173.61500549    0.44000000    2.48000002
   13.65249920  187.52099609    0.44000000    2.48000002
   13.65833282  187.52099609    0.41999999    2.50000000
   13.66249943  159.14999390    0.44000000    2.50000000
   13.66583252  165.33000183    0.44000000    2.50000000
   13.66888905  177.16299438    0.44000000    2.50000000
   13.67222214  197.22900391    0.44000000    2.48000002
   13.67555618  181.24400330    0.44000000    2.50000000
   13.67888927  181.53300476    0.41999999    2.51999998
   13.68194485  189.70799255    0.44000000    2.50000000
   13.68527794  185.38099670    0.41999999    2.51999998
   13.68833351  167.49499512    0.41999999    2.50000000
   13.68972206  178.48100281    0.41999999    2.50000000
   13.69194412  188.03900146    0.41999999    2.50000000
   13.69527817  170.36700439    0.44000000    2.50000000
   13.70138836  170.36700439    0.41999999    2.50000000
   13.70527744  190.57099915    0.41999999    2.50000000
   13.70861053  157.94099426    0.41999999    2.50000000
   13.71194458  181.58000183    0.41999999    2.50000000
   13.71500015  161.01600647    0.41999999    2.50000000
   13.71833324  170.28300476    0.41999999    2.50000000
   13.72138882  179.15400696    0.41999999    2.50000000
   13.72305489  188.60200500    0.41999999    2.50000000
   13.72499943  173.95399475    0.41999999    2.50000000
   13.72833252  179.79200745    0.41999999    2.51999998
   13.73166656  174.36099243    0.41999999    2.51999998
   13.73472214  180.97200012    0.40000001    2.51999998
   13.73805618  180.74600220    0.40000001    2.50000000
   13.75916672  180.74600220    0.41999999    2.51999998
   13.76333332  167.97799683    0.40000001    2.51999998
   13.76666641  184.46000671    0.40000001    2.51999998
   13.76972198  179.61700439    0.40000001    2.51999998
   13.77305508  189.24800110    0.40000001    2.53999996
   13.77638817  182.31900024    0.40000001    2.51999998
   13.77944374  186.10200500    0.40000001    2.50000000
   13.78277779  165.94099426    0.40000001    2.51999998
   13.78583336  192.39300537    0.40000001    2.51999998
   13.78916740  186.58000183    0.40000001    2.51999998
   13.79000092  179.67399597    0.40000001    2.51999998
   13.79305553  173.03100586    0.41999999    2.51999998
   13.79611111  191.21000671    0.41999999    2.51999998
   13.80194473  191.21000671    0.44000000    2.51999998
   13.80611134  198.38200378    0.44000000    2.51999998
   13.80916691  164.45799255    0.46000001    2.51999998
   13.81250000  170.36700439    0.46000001    2.51999998
   13.81583309  178.19900513    0.47999999    2.53999996
   13.81888866  188.33700562    0.50000000    2.51999998
   13.82222176  152.93200684    0.50000000    2.51999998
   13.82333374  194.46499634    0.50000000    2.51999998
   13.82583332  150.04699707    0.51999998    2.51999998
   13.82888889  202.34800720    0.55000001    2.53999996
   13.83222198  166.97700500    0.61000001    2.51999998
   13.83527756  188.13699341    0.64999998    2.51999998
   13.83861065  191.37800598    0.64999998    2.51999998
   13.84472179  191.37800598    0.63000000    2.51999998
   13.84888840  176.53100586    0.63000000    2.53999996
   13.85222244  199.35600281    0.63000000    2.53999996
   13.85527802  180.10099792    0.63000000    2.51999998
   13.85694504  201.63299561    0.63000000    2.51999998
   13.85888958  197.12100220    0.64999998    2.51999998
   13.86222267  171.23800659    0.70999998    2.51999998
   13.86555576  185.28799438    0.70999998    2.51999998
   13.86861134  189.47300720    0.75000000    2.53999996
   13.87194443  179.85200500    0.75000000    2.51999998
   13.87500000  172.69099426    0.70999998    2.53999996
   13.87833309  169.44200134    0.67000002    2.53999996
   13.88166714  166.15100098    0.73000002    2.53999996
   13.88749981  166.15100098    0.76999998    2.53999996
   13.89166641  200.25999451    0.92000002    2.53999996
   13.89499950  190.02099609    0.92000002    2.55999994
   13.89833355  184.14300537    0.92000002    2.53999996
   13.90138817  182.52999878    0.76999998    2.53999996
   13.90472221  177.97599792    0.75000000    2.53999996
   13.90777779  164.37600708    0.76999998    2.53999996
   13.91111088  197.35899353    0.73000002    2.53999996
   13.91444397  182.14500427    0.73000002    2.53999996
   13.91750050  168.79200745    0.67000002    2.53999996
   13.92083359  168.30400085    0.67000002    2.53999996
   13.92361164  180.23899841    0.56999999    2.55999994
   13.92444515  182.91799927    0.50000000    2.55999994
   13.93055630  182.91799927    0.46000001    2.53999996
   13.93472195  177.06399536    0.44000000    2.53999996
   13.93777752  162.95500183    0.47999999    2.53999996
   13.94111156  167.71499634    0.55000001    2.53999996
   13.94416714  174.66600037    0.55000001    2.53999996
   13.94750023  180.20399475    0.69000000    2.53999996
   13.95083332  168.86199951    0.76999998    2.53999996
   13.95388889  174.31199646    0.76999998    2.55999994
   13.95694447  159.78199768    0.69000000    2.53999996
   13.95749950  185.30700684    0.67000002    2.53999996
   13.96083355  166.41999817    0.63000000    2.55999994
   13.96416664  198.94900513    0.63000000    2.53999996
   13.96722221  182.02400208    0.58999997    2.53999996
   13.97333336  182.02400208    0.58999997    2.55999994
   13.97749996  194.38499451    0.58999997    2.53999996
   13.98055553  190.62600708    0.64999998    2.55999994
   13.98388958  192.40400696    0.64999998    2.55999994
   13.98722267  175.51699829    0.64999998    2.53999996
   13.99027824  198.46499634    0.64999998    2.53999996
   13.99055576  184.87300110    0.64999998    2.53999996
   13.99388885  199.08000183    0.67000002    2.53999996
   13.99722290  203.12600708    0.73000002    2.53999996
   14.00027752  144.51499939    0.73000002    2.53999996
   14.00361156  191.00700378    0.81999999    2.55999994
   14.00666714  174.61300659    0.94000000    2.53999996
   14.01000023  191.12899780    1.25000000    2.53999996
   14.01611137  191.12899780    1.44000006    2.51999998
   14.02027798  178.00500488    1.44000006    2.53999996
   14.02361107  207.13400269    1.44000006    2.53999996
   14.02388859  172.93099976    1.44000006    2.53999996
   14.02722168  178.61900330    1.36000001    2.53999996
   14.03055573  198.28599548    1.58000004    2.53999996
   14.03361130  189.62600708    1.64999998    2.53999996
   14.03694534  200.62600708    1.69000006    2.53999996
   14.04000092  179.86000061    1.69000006    2.53999996
   14.04333401  175.66700745    1.69000006    2.53999996
   14.04666710  178.87800598    1.71000004    2.53999996
   14.04972267  161.63299561    1.86000001    2.53999996
   14.05305576  171.04800415    1.88000000    2.53999996
   14.05888939  171.04800415    2.26999998    2.51999998
   14.06305599  168.83200073    2.40000010    2.53999996
   14.06638908  190.67799377    2.50000000    2.53999996
   14.06944466  159.67700195    2.55999994    2.53999996
   14.07277775  160.98599243    2.66000009    2.53999996
   14.07611084  202.60200500    2.76999998    2.53999996
   14.07916641  171.10200500    3.00000000    2.51999998
   14.08249950  176.68800354    3.34999990    2.50000000
   14.08583260  155.66700745    3.89000010    2.51999998
   14.08888817  155.99699402    4.01999998    2.48000002
   14.09027767  156.90899658    4.05999994    2.48000002
   14.09277725  160.18099976    4.13999987    2.50000000
   14.09583282  147.88200378    3.39000010    2.53999996
   14.10194492  147.88200378    2.84999990    2.51999998
   14.10611153  177.30900574    2.96000004    2.51999998
   14.10916710  180.47799683    3.14000010    2.51999998
   14.11250019  174.89300537    3.30999994    2.50000000
   14.11555576  166.07299805    3.50000000    2.51999998
   14.11888885  179.91799927    4.17999983    2.51999998
   14.12222195  211.21400452    4.90999985    2.48000002
   14.12361145  226.08200073    4.90999985    2.44000006
   14.12555599  193.33299255    4.90999985    2.34999990
   14.12888908  155.67399597    4.90999985    2.44000006
   14.13222218  181.64199829    4.76000023    2.50000000
   14.13527775  170.89900208    3.93000007    2.53999996
   14.13861084  186.90600586    3.82999992    2.51999998
   14.14472198  186.90600586    4.61999989    2.48000002
   14.14888859  191.72900391    4.90999985    2.48000002
   14.15194416  187.17999268    4.90999985    2.46000004
   14.15527725  180.83799744    4.90999985    2.42000008
   14.15722179  190.18099976    4.90999985    2.46000004
   14.15888882  206.49899292    4.90999985    2.50000000
   14.16222191  169.11799622    4.90999985    2.51999998
   14.16527748  187.98599243    4.90999985    2.51999998
   14.16861153  173.45799255    4.90999985    2.46000004
   14.17194462  174.14100647    4.90999985    2.46000004
   14.17500019  170.37199402    4.90999985    2.46000004
   14.17833328  193.93299866    4.90999985    2.48000002
   14.18166733  183.92999268    4.90999985    2.48000002
   14.18750000  183.92999268    3.99000001    2.50000000
   14.19166660  173.92300415    2.86999989    2.53999996
   14.19499969  167.01199341    1.94000006    2.55999994
   14.19805527  183.27400208    1.44000006    2.55999994
   14.20138836  184.96699524    1.41999996    2.55999994
   14.20444393  168.14199829    1.64999998    2.55999994
   14.20777798  173.24899292    1.83000004    2.55999994
   14.21111107  174.79400635    1.94000006    2.53999996
   14.21416664  167.89199829    2.13000011    2.53999996
   14.21749973  165.27200317    2.66000009    2.55999994
   14.22083282  165.08099365    2.86999989    2.55999994
   14.22388840  181.53300476    3.68000007    2.51999998
   14.22416592  179.20599365    3.68000007    2.51999998
   14.23027706  179.20599365    4.44999981    2.51999998
   14.23444462  174.22200012    4.57999992    2.51999998
   14.23777771  173.92199707    4.90999985    2.50000000
   14.24083328  160.16400146    4.90999985    2.50000000
   14.24416733  157.80900574    4.90999985    2.48000002
   14.24750042  163.82400513    4.71999979    2.50000000
   14.25055599  188.27799988    4.01999998    2.51999998
   14.25388908  171.29200745    3.30999994    2.53999996
   14.25722218  144.10200500    2.76999998    2.53999996
   14.25749969  161.55400085    2.64000010    2.53999996
   14.26083374  177.46600342    2.59999990    2.55999994
   14.26388931  166.87699890    3.01999998    2.55999994
   14.26722240  169.26400757    3.34999990    2.53999996
   14.27333355  169.26400757    3.75000000    2.51999998
   14.27722168  148.25100708    4.21999979    2.53999996
   14.28055573  162.39999390    4.67999983    2.51999998
   14.28388977  149.25500488    4.90999985    2.50000000
   14.28694534  165.53700256    4.90999985    2.48000002
   14.29027843  158.83700562    4.90999985    2.46000004
   14.29083347  158.48599243    4.90999985    2.46000004
   14.29416752  160.43699646    4.90999985    2.42000008
   14.29722309  151.24899292    4.90999985    2.42000008
   14.30055618  164.10600281    4.90999985    2.39000010
   14.30361176  171.42100525    4.90999985    2.34999990
   14.30694485  165.48300171    4.90999985    2.32999992
   14.31027794  172.09500122    4.90999985    2.32999992
   14.31611156  172.09500122    4.90999985    2.32999992
   14.32027817  174.04899597    4.90999985    2.34999990
   14.32333374  189.22500610    4.90999985    2.32999992
   14.32416630  175.17599487    4.90999985    2.32999992
   14.32722187  171.25799561    4.90999985    2.34999990
   14.33027744  194.62500000    4.90999985    2.34999990
   14.33361053  208.80700684    4.90999985    2.34999990
   14.33666611  215.40600586    4.90999985    2.30999994
   14.34000015  246.76499939    4.90999985    2.26999998
   14.34333324  249.19400024    4.90999985    2.25000000
   14.34638882  278.58999634    4.90999985    2.28999996
   14.34972191  226.75900269    4.90999985    2.30999994
   14.35305595  264.42300415    4.90999985    2.32999992
   14.35888958  264.42300415    4.90999985    2.34999990
   14.36305618  356.88500977    4.90999985    2.32999992
   14.36638927  389.73599243    4.90999985    2.34999990
   14.36944485  456.48599243    4.90999985    2.30999994
   14.37166691  233.76499939    4.90999985    2.25000000
   14.37166691  215.40600586    4.90999985    2.30999994
   14.37166691  246.76499939    4.90999985    2.26999998
   14.37194443  249.19400024    4.90999985    2.25000000
   14.37194443  278.58999634    4.90999985    2.28999996
   14.37194443  226.75900269    4.90999985    2.30999994
   14.37222195  264.42300415    4.90999985    2.32999992
   14.37222195  356.88500977    4.90999985    2.32999992
   14.37222195  389.73599243    4.90999985    2.34999990
   14.37416649  146.21200562    4.90999985    2.25000000
   14.37750053  116.94899750    4.90999985    2.21000004
   14.38083363  120.29100037    4.90999985    2.19000006
   14.38388920  103.62400055    4.90999985    2.23000002
   14.38722229   98.13710022    4.90999985    2.23000002
   14.39249992   98.13710022    4.90999985    2.25000000
   14.39638901   51.14649963    4.90999985    2.19000006
   14.39972210   -1.00000000    4.90999985    2.19000006
   14.40305519   64.15370178    4.90999985    2.21000004
   14.40555477   55.03450012    4.90999985    2.28999996
   14.40666676   23.57019997    4.90999985    2.28999996
   14.40999985   77.98179626    4.90999985    2.32999992
   14.41305542   -1.00000000    4.90999985    2.34999990
   14.41638851   -1.00000000    4.90999985    2.34999990
   14.41972256   -1.00000000    4.90999985    2.36999989
   14.42277813   -1.00000000    4.90999985    2.36999989
   14.42611122   -1.00000000    4.90999985    2.42000008
   14.42916679   -1.00000000    4.90999985    2.42000008
   14.43916702   -1.00000000    4.90999985    2.44000006
   14.44250011   -1.00000000    4.90999985    2.44000006
   14.44583321   -1.00000000    4.90999985    2.40000010
   14.44888878   -1.00000000    4.90999985    2.40000010
   14.45222187   -1.00000000    4.90999985    2.42000008
   14.45527744   -1.00000000    4.90999985    2.39000010
   14.45861053   -1.00000000    4.90999985    2.36999989
   14.46194458   -1.00000000    4.90999985    2.36999989
   14.46500015   -1.00000000    4.90999985    2.30999994
   14.46833324   -1.00000000    4.90999985    2.34999990
   14.47166634   -1.00000000    4.90999985    2.36999989
   14.48222160   -1.00000000    4.90999985    2.39000010
   14.48527813   -1.00000000    4.90999985    2.36999989
   14.48861122   -1.00000000    4.90999985    2.36999989
   14.49166679   -1.00000000    4.90999985    2.32999992
   14.49499989   -1.00000000    4.90999985    2.32999992
   14.49833393   -1.00000000    4.90999985    2.34999990
   14.50138855   -1.00000000    4.90999985    2.32999992
   14.50472260   -1.00000000    4.90999985    2.32999992
   14.50833321   -1.00000000    4.90999985    2.32999992
   14.51138878   -1.00000000    4.90999985    2.28999996
   14.51472187   -1.00000000    4.90999985    2.28999996
   14.52499962   -1.00000000    4.90999985    2.32999992
   14.52805519   -1.00000000    4.90999985    2.32999992
   14.53138828   -1.00000000    4.90999985    2.32999992
   14.53472233   -1.00000000    4.90999985    2.32999992
   14.53777790   -1.00000000    4.90999985    2.36999989
   14.54138947   -1.00000000    4.90999985    2.36999989
   14.54444504  179.81199646    4.90999985    2.34999990
   14.54777813  173.99800110    4.90999985    2.36999989
   14.55111122  176.15100098    4.90999985    2.34999990
   14.55416679  185.60800171    4.90999985    2.36999989
   14.55749989  177.70199585    4.90999985    2.32999992
   14.56388950  177.70199585    4.90999985    2.32999992
   14.56777763  178.12399292    4.90999985    2.28999996
   14.57111073  183.07200623    4.90999985    2.28999996
   14.57222176  208.03100586    4.90999985    2.28999996
   14.57472229  187.07899475    4.90999985    2.23000002
   14.57805538  189.37800598    4.90999985    2.26999998
   14.58111095  178.98100281    4.90999985    2.30999994
   14.58444405  180.96600342    4.90999985    2.36999989
   14.58777714  174.20199585    4.90999985    2.40000010
   14.59083271  189.76400757    4.90999985    2.39000010
   14.59416676  194.76100159    4.90999985    2.34999990
   14.59749985  174.22500610    4.90999985    2.32999992
   14.60055637  168.79200745    4.90999985    2.32999992
   14.60666752  168.79200745    4.90999985    2.39000010
   14.61083412  160.97900391    4.90999985    2.44000006
   14.61388969  169.58200073    4.90999985    2.44000006
   14.61722279  161.07899475    4.90999985    2.46000004
   14.62027836  160.25799561    4.90999985    2.46000004
   14.62361145  158.36799622    4.90999985    2.48000002
   14.62694454  165.40400696    4.90999985    2.48000002
   14.63000011  150.88299561    4.90999985    2.50000000
   14.63333321  155.45799255    4.86999989    2.53999996
   14.63666630  152.34899902    4.19999981    2.55999994
   14.63888836  143.46600342    3.70000005    2.55999994
   14.64000034  153.47999573    3.50000000    2.55999994
   14.64333344  145.72799683    3.01999998    2.55999994
   14.64944458  145.72799683    2.34999990    2.59999990
   14.65361118  150.20500183    2.09999990    2.59999990
   14.65694427  156.59899902    2.00000000    2.57999992
   14.65999985  149.25000000    1.61000001    2.59999990
   14.66333294  144.23599243    1.58000004    2.59999990
   14.66638851  147.57899475    1.63000000    2.57999992
   14.66972256  141.39700317    1.73000002    2.59999990
   14.67222214  157.48899841    1.78999996    2.57999992
   14.67333412  144.06700134    1.71000004    2.59999990
   14.67666721  149.65800476    1.46000004    2.59999990
   14.67972279  152.41799927    1.21000004    2.59999990
   14.68305588  148.82000732    1.00000000    2.61999989
   14.68638897  150.34199524    0.86000001    2.61999989
   14.69222260  150.34199524    0.79000002    2.61999989
   14.69638920  149.00300598    0.70999998    2.61999989
   14.69972229  138.93699646    0.69000000    2.61999989
   14.70277786  142.24099731    0.52999997    2.61999989
   14.70555496  143.77900696    0.51999998    2.61999989
   14.70638847  134.92999268    0.51999998    2.59999990
   14.70972157  147.42100525    0.50000000    2.61999989
   14.71305561  139.56700134    0.44000000    2.61999989
   14.71611118  140.64399719    0.41999999    2.64000010
   14.71944427  145.37899780    0.40000001    2.61999989
   14.72249985  141.49699402    0.40000001    2.64000010
   14.72583294  138.34700012    0.40000001    2.64000010
   14.72916603  137.61599731    0.40000001    2.61999989
   14.73527813  137.61599731    0.40000001    2.64000010
   14.73916721  138.38499451    0.40000001    2.61999989
   14.74250031  155.44500732    0.40000001    2.61999989
   14.74583340  160.11999512    0.40000001    2.61999989
   14.74888897  158.10899353    0.40000001    2.61999989
   14.75222206  168.27099609    0.40000001    2.61999989
   14.75555515  154.51699829    0.40000001    2.61999989
   14.77250004  128.48800659    0.38000000    2.61999989
   14.77805519  128.48800659    0.38000000    2.61999989
   14.78222179  118.91300201    0.38000000    2.64000010
   14.78527832  119.13800049    0.38000000    2.61999989
   14.78861141  123.69400024    0.38000000    2.64000010
   14.79194450  114.22899628    0.38000000    2.64000010
   14.79500008  121.60199738    0.36000001    2.61999989
   14.79833412  116.14700317    0.38000000    2.61999989
   14.80166721  121.38400269    0.36000001    2.64000010
   14.80472279  133.13800049    0.38000000    2.61999989
   14.80583382  121.60399628    0.38000000    2.61999989
   14.80833340  127.36199951    0.36000001    2.64000010
   14.81166649  120.65299988    0.38000000    2.61999989
   14.81500053  121.50599670    0.36000001    2.64000010
   14.82083321  121.50599670    0.36000001    2.64000010
   14.82499981  121.91300201    0.38000000    2.61999989
   14.82833290  119.10099792    0.38000000    2.61999989
   14.83138847  121.63999939    0.38000000    2.64000010
   14.83472157  124.40000153    0.38000000    2.64000010
   14.83805561  123.69300079    0.40000001    2.61999989
   14.83916664  120.93199921    0.36000001    2.64000010
   14.84138870  120.22799683    0.36000001    2.64000010
   14.84472179  125.11900330    0.36000001    2.64000010
   14.84805489  121.74099731    0.38000000    2.61999989
   14.85111141  134.35699463    0.38000000    2.64000010
   14.85444450  114.11000061    0.38000000    2.64000010
   14.85777855  129.25700378    0.38000000    2.64000010
   14.86361122  129.25700378    0.38000000    2.64000010
   14.86777782  120.78500366    0.38000000    2.64000010
   14.87111092  123.44599915    0.36000001    2.64000010
   14.87250042  119.90699768    0.36000001    2.64000010
   14.87472248  122.14499664    0.38000000    2.61999989
   14.87805557  126.66500092    0.38000000    2.64000010
   14.88138866  126.19999695    0.38000000    2.64000010
   14.88444424  125.65799713    0.36000001    2.64000010
   14.88777733  130.06700134    0.36000001    2.64000010
   14.89111137  111.93199921    0.38000000    2.64000010
   14.89416695  123.22200012    0.36000001    2.64000010
   14.89750004  115.03800201    0.38000000    2.64000010
   14.90055561  121.68299866    0.36000001    2.66000009
   14.90666676  121.68299866    0.38000000    2.64000010
   14.91083336  120.65399933    0.36000001    2.61999989
   14.91416645  128.61300659    0.36000001    2.61999989
   14.91722298  123.67700195    0.36000001    2.64000010
   14.92055607  117.63200378    0.38000000    2.64000010
   14.92388916  118.73400116    0.38000000    2.64000010
   14.92694473  115.20500183    0.36000001    2.64000010
   14.93027782  130.37500000    0.36000001    2.64000010
   14.93361092  118.21399689    0.36000001    2.64000010
   14.93666649  121.76999664    0.36000001    2.64000010
   14.93916702  124.61399841    0.36000001    2.64000010
   14.94027805  122.70999908    0.36000001    2.61999989
   14.94361115  127.51699829    0.36000001    2.64000010
   14.94944477  127.51699829    0.36000001    2.64000010
   14.95361137  129.87699890    0.36000001    2.61999989
   14.95666695  119.97599792    0.38000000    2.64000010
   14.96000004  127.20500183    0.36000001    2.64000010
   14.96333313  124.03099823    0.36000001    2.64000010
   14.96638870  129.74299622    0.36000001    2.64000010
   14.96972179  127.08300018    0.38000000    2.64000010
   14.97249985  125.09799957    0.36000001    2.64000010
   14.97333336  119.76000214    0.36000001    2.64000010
   14.97666645  126.06500244    0.38000000    2.61999989
   14.97999954  119.65399933    0.38000000    2.64000010
   14.98305511  117.86699677    0.38000000    2.64000010
   14.98638916  122.94499969    0.36000001    2.64000010
   14.99222279  122.94499969    0.36000001    2.64000010
   14.99638939  122.57399750    0.36000001    2.64000010
   14.99972248  122.06199646    0.38000000    2.64000010
   15.00277805  114.06199646    0.38000000    2.64000010
   15.00583363  122.54599762    0.36000001    2.64000010
   15.00666714  110.18900299    0.36000001    2.64000010
   15.01000023  118.71099854    0.36000001    2.64000010
   15.01305580  122.20300293    0.36000001    2.64000010
   15.01638889  117.98500061    0.36000001    2.64000010
   15.01972198  110.17099762    0.38000000    2.66000009
   15.02277756  117.49299622    0.38000000    2.64000010
   15.02611065  116.61699677    0.38000000    2.64000010
   15.02944374  119.64199829    0.36000001    2.66000009
   15.03500080  119.64199829    0.36000001    2.64000010
   15.03916740  118.91999817    0.36000001    2.64000010
   15.04250050  116.67600250    0.38000000    2.64000010
   15.04583359  116.05200195    0.36000001    2.64000010
   15.04888916  123.86000061    0.38000000    2.64000010
   15.05222225  119.15200043    0.38000000    2.66000009
   15.05527782  114.73500061    0.38000000    2.64000010
   15.05861092  112.47200012    0.40000001    2.64000010
   15.06194496  111.03900146    0.38000000    2.66000009
   15.06500053  121.28700256    0.38000000    2.66000009
   15.06833363  104.40200043    0.38000000    2.64000010
   15.07166672  112.03199768    0.40000001    2.66000009
   15.07250023  114.28099823    0.40000001    2.66000009
   15.07805538  114.28099823    0.38000000    2.64000010
   15.08194447  163.16499329    0.40000001    2.66000009
   15.08527756  107.77600098    0.40000001    2.66000009
   15.08861065  116.19000244    0.40000001    2.66000009
   15.09166622  112.61399841    0.40000001    2.66000009
   15.09499931  112.25800323    0.38000000    2.64000010
   15.09833336  116.37400055    0.38000000    2.64000010
   15.10138893  118.06600189    0.40000001    2.66000009
   15.10472298  119.88700104    0.40000001    2.64000010
   15.10583401  115.67199707    0.40000001    2.64000010
   15.10833359  119.93199921    0.40000001    2.66000009
   15.11138916  112.69499969    0.40000001    2.64000010
   15.11472225  112.47499847    0.40000001    2.64000010
   15.12083340  112.47499847    0.40000001    2.66000009
   15.12500000  111.33499908    0.40000001    2.64000010
   15.12805557  119.08399963    0.40000001    2.66000009
   15.13138866  118.53600311    0.40000001    2.64000010
   15.13472176  110.09899902    0.40000001    2.64000010
   15.13777733  111.27200317    0.41999999    2.66000009
   15.13916683  122.45200348    0.44000000    2.64000010
   15.14166641  106.16100311    0.44000000    2.64000010
   15.14472198  115.15799713    0.41999999    2.66000009
   15.14805508  115.97299957    0.44000000    2.64000010
   15.15138817  114.66799927    0.44000000    2.66000009
   15.15444374  119.16899872    0.44000000    2.66000009
   15.15777779  111.68000031    0.44000000    2.66000009
   15.16361046  111.68000031    0.46000001    2.66000009
   15.16777802  117.65200043    0.46000001    2.64000010
   15.17111111  121.50599670    0.46000001    2.66000009
   15.17250061  112.35600281    0.46000001    2.66000009
   15.17472267  115.19200134    0.47999999    2.64000010
   15.17777824  116.30000305    0.46000001    2.64000010
   15.18111134  115.06199646    0.46000001    2.64000010
   15.18416691  120.62999725    0.44000000    2.66000009
   15.18750000  118.25900269    0.44000000    2.64000010
   15.19083309  123.14199829    0.41999999    2.64000010
   15.19388866  115.86699677    0.41999999    2.66000009
   15.19722271  116.83499908    0.41999999    2.66000009
   15.20055580  115.58499908    0.41999999    2.64000010
   15.20638847  115.58499908    0.40000001    2.66000009
   15.21055508  115.04199982    0.41999999    2.66000009
   15.21388912  114.37300110    0.41999999    2.64000010
   15.21694374  116.55100250    0.44000000    2.66000009
   15.22027779  108.14399719    0.41999999    2.66000009
   15.22361088  117.56500244    0.41999999    2.66000009
   15.22666645  118.28299713    0.41999999    2.67000008
   15.22999954  117.64399719    0.41999999    2.66000009
   15.23333359  112.51100159    0.41999999    2.66000009
   15.23638916  114.47000122    0.41999999    2.66000009
   15.23916721  114.71399689    0.41999999    2.66000009
   15.24027824  122.60700226    0.41999999    2.64000010
   15.24333382  114.54599762    0.41999999    2.64000010
   15.24944496  114.54599762    0.41999999    2.66000009
   15.25333309  121.88300323    0.40000001    2.66000009
   15.25666714  121.86299896    0.40000001    2.66000009
   15.26000023  114.15399933    0.41999999    2.66000009
   15.26305580  121.01399994    0.41999999    2.66000009
   15.26638889  115.84700012    0.41999999    2.66000009
   15.26972198  127.45099640    0.41999999    2.67000008
   15.27250004  119.75299835    0.41999999    2.66000009
   15.27333355  115.32099915    0.41999999    2.66000009
   15.27638817  119.04799652    0.41999999    2.66000009
   15.27972221  119.12599945    0.41999999    2.66000009
   15.28305531  124.81700134    0.41999999    2.66000009
   15.28611183  109.01599884    0.41999999    2.66000009
   15.29222298  109.01599884    0.41999999    2.66000009
   15.29638958  118.51999664    0.41999999    2.66000009
   15.29944515  120.92299652    0.41999999    2.66000009
   15.30277824  117.51699829    0.41999999    2.66000009
   15.30583382  116.34999847    0.41999999    2.66000009
   15.30638885  122.06099701    0.41999999    2.66000009
   15.30944443  119.39700317    0.41999999    2.66000009
   15.31277752  129.26199341    0.41999999    2.66000009
   15.31611156  124.27100372    0.41999999    2.66000009
   15.31916618  124.90499878    0.41999999    2.66000009
   15.32250023  118.48200226    0.41999999    2.66000009
   15.32555580  116.22799683    0.41999999    2.66000009
   15.32888889  119.28199768    0.44000000    2.66000009
   15.33500004  119.28199768    0.41999999    2.66000009
   15.33916664  109.16500092    0.41999999    2.66000009
   15.33972168  107.99600220    0.41999999    2.66000009
   15.34277725  118.56900024    0.41999999    2.67000008
   15.34611034  106.52500153    0.41999999    2.67000008
   15.34944439  116.06300354    0.41999999    2.67000008
   15.35249996  119.00900269    0.41999999    2.66000009
   15.35583401  113.88099670    0.41999999    2.66000009
   15.35916710  109.71499634    0.44000000    2.67000008
   15.36222267  109.73300171    0.44000000    2.66000009
   15.36555576  110.64900208    0.44000000    2.67000008
   15.36888885  114.81900024    0.41999999    2.66000009
   15.37194443  119.47499847    0.44000000    2.66000009
   15.37250042  119.84400177    0.41999999    2.67000008
   15.37777805  119.84400177    0.41999999    2.66000009
   15.38194466  122.14700317    0.44000000    2.66000009
   15.38527775  116.26399994    0.44000000    2.66000009
   15.38833332  104.08999634    0.41999999    2.66000009
   15.39166641  113.95400238    0.41999999    2.66000009
   15.39499950  111.23200226    0.41999999    2.66000009
   15.39805508  114.75599670    0.44000000    2.66000009
   15.40138817  109.29000092    0.41999999    2.67000008
   15.40472221  113.67099762    0.41999999    2.66000009
   15.40583324  115.68599701    0.41999999    2.66000009
   15.50638866   -1.00000000   -1.00000000   -1.00000000
   15.66499996   -1.00000000   -1.00000000   -1.00000000
   15.83388901   -1.00000000   -1.00000000   -1.00000000
   16.02305603  124.10600281    0.52999997    2.69000006
   16.02611160  130.32499695    0.52999997    2.67000008
   16.02944374  127.41300201    0.52999997    2.67000008
   16.03277779  127.49800110    0.51999998    2.67000008
   16.03583336  128.36599731    0.51999998    2.67000008
   16.03916550  132.21000671    0.51999998    2.67000008
   16.04333305  132.21000671    0.50000000    2.67000008
   16.04749870  131.37199402    0.51999998    2.67000008
   16.05055428  126.08799744    0.51999998    2.69000006
   16.05388832  133.66099548    0.50000000    2.67000008
   16.05638885  127.30999756    0.50000000    2.67000008
   16.05749893  126.68000031    0.50000000    2.67000008
   16.06083298  122.32399750    0.50000000    2.67000008
   16.06416512  127.80899811    0.50000000    2.67000008
   16.06722260  121.13300323    0.50000000    2.67000008
   16.07055664  130.27600098    0.50000000    2.67000008
   16.07361221  134.85200500    0.50000000    2.67000008
   16.07694626  124.19300079    0.50000000    2.67000008
   16.08027840  127.49800110    0.50000000    2.67000008
   16.08611107  127.49800110    0.55000001    2.69000006
   16.09027863  121.11199951    0.55000001    2.67000008
   16.09333420  124.80100250    0.52999997    2.67000008
   16.09666824  124.66200256    0.52999997    2.67000008
   16.10000038  122.75399780    0.52999997    2.69000006
   16.10305595  119.26999664    0.50000000    2.67000008
   16.10639000  125.90200043    0.50000000    2.67000008
   16.10972214  121.63400269    0.50000000    2.67000008
   16.11277771  117.95200348    0.76999998    2.67000008
   16.11611176  122.88300323    0.73000002    2.69000006
   16.11916733  116.63800049    4.90999985    2.44000006
   16.12249947  172.30700684    4.90999985    2.80999994
   16.12305641  106.82199860    4.90999985    2.57999992
   16.12888908  106.82199860    4.90999985    1.05999994
   16.13305473  124.95600128    4.90999985    2.53999996
   16.13638878  133.58500671    1.28999996    2.69000006
   16.13944435  129.32200623    1.09000003    2.67000008
   16.14277840  123.46600342    1.44000006    2.67000008
   16.14611053  129.16999817    4.90999985    2.69000006
   16.14916611  135.60800171    2.89000010    2.67000008
   16.15250015  122.17900085    0.55000001    2.67000008
   16.15555573  124.33399963    0.52999997    2.67000008
   16.15638924  132.37399292    0.52999997    2.67000008
   16.15944481  129.50799561    0.50000000    2.67000008
   16.16250038  133.47000122    0.51999998    2.69000006
   16.16583252  121.34700012    0.50000000    2.67000008
   16.17194366  121.34700012    0.51999998    2.67000008
   16.17583275  125.52400208    0.52999997    2.69000006
   16.17916679  131.75599670    0.52999997    2.69000006
   16.18249893  136.65499878    0.55000001    2.67000008
   16.18555450  132.85000610    4.90999985    2.69000006
   16.18888855  124.20099640    3.11999989    2.73000002
   16.18972206  128.42399597    0.69000000    2.71000004
   16.19249916  123.26499939    1.66999996    2.69000006
   16.19555473  128.07499695    1.33000004    2.67000008
   16.19888878  138.43499756    1.11000001    2.67000008
   16.20222282  119.59600067    0.75000000    2.69000006
   16.20527840  125.35299683    0.79000002    2.69000006
   16.20861244  114.21700287    0.76999998    2.67000008
   16.21472359  114.21700287    0.75000000    2.67000008
   16.21888924  119.73400116    0.73000002    2.67000008
   16.22194481  184.47999573    1.00000000    2.67000008
   16.22305679  141.98899841    1.21000004    2.67000008
   16.22583389  117.74900055    1.63000000    2.71000004
   16.22888947  113.08999634    0.80000001    2.67000008
   16.23222351  118.55799866    0.58999997    2.69000006
   16.23555565  122.20400238    0.55000001    2.67000008
   16.23861122  121.46099854    0.55000001    2.67000008
   16.24194527  120.58100128    0.56999999    2.67000008
   16.24500084  119.44899750    0.55000001    2.67000008
   16.24833298  117.58799744    0.52999997    2.67000008
   16.25166702  124.40699768    0.56999999    2.69000006
   16.25749969  124.40699768    0.88000000    2.67000008
   16.26166725  116.81700134    0.94000000    2.67000008
   16.26472282  117.47200012    1.26999998    2.69000006
   16.26805496  117.87400055    0.76999998    2.69000006
   16.27138901  123.26999664    0.76999998    2.69000006
   16.27444458  113.37300110    0.76999998    2.67000008
   16.27777672  119.51799774    0.76999998    2.67000008
   16.28111076  118.45899963    1.01999998    2.67000008
   16.28416634  122.92800140    0.79000002    2.67000008
   16.28750038  122.71299744    0.79000002    2.67000008
   16.28972244  120.77799988    0.75000000    2.67000008
   16.29111099  124.91899872    0.75000000    2.67000008
   16.29416656  112.36900330    0.61000001    2.67000008
   16.30027771  112.36900330    0.51999998    2.67000008
   16.30444336  117.99299622    0.50000000    2.69000006
   16.30777740  124.54000092    0.50000000    2.67000008
   16.31110954  120.61799622    0.50000000    2.67000008
   16.31416512  118.78500366    0.56999999    2.69000006
   16.31750107  120.90499878    0.50000000    2.67000008
   16.32055664  130.98399353    0.47999999    2.69000006
   16.32305717  133.32800293    0.47999999    2.69000006
   16.32444572  131.96800232    0.47999999    2.67000008
   16.32750130  149.85899353    0.47999999    2.69000006
   16.33083344  141.03999329    0.47999999    2.69000006
   16.33416748  143.30499268    0.47999999    2.69000006
   16.33722305  131.43600464    0.47999999    2.67000008
   16.34305573  131.43600464    0.47999999    2.67000008
   16.34722328  134.76400757    0.47999999    2.67000008
   16.35055542  137.41799927    0.47999999    2.67000008
   16.35388947  127.13899994    0.47999999    2.67000008
   16.35639000  129.70899963    0.47999999    2.69000006
   16.35750008  126.52300262    0.47999999    2.69000006
   16.36083412  137.14900208    0.47999999    2.69000006
   16.36388969  130.86099243    0.47999999    2.69000006
   16.36722183  138.92700195    0.47999999    2.69000006
   16.37027740  139.25500488    0.47999999    2.69000006
   16.37361145  132.49400330    0.47999999    2.69000006
   16.37694550  133.25000000    0.47999999    2.69000006
   16.38000107  134.07400513    0.47999999    2.67000008
   16.38611031  134.07400513    0.50000000    2.67000008
   16.39027786  143.91099548    0.50000000    2.67000008
   16.39333344  144.13200378    0.50000000    2.69000006
   16.39666748  135.23800659    0.50000000    2.69000006
   16.39972115  142.21499634    0.47999999    2.69000006
   16.40305519  142.00100708    0.47999999    2.69000006
   16.40638924  138.51199341    0.47999999    2.69000006
   16.40944481  146.11399841    0.47999999    2.71000004
   16.41277695  151.60400391    0.47999999    2.69000006
   16.41611099  165.25100708    0.50000000    2.67000008
   16.41916656  164.88000488    0.50000000    2.69000006
   16.42249870  169.76800537    0.50000000    2.69000006
   16.42305565  170.96299744    0.50000000    2.69000006
   16.42888832  170.96299744    0.50000000    2.69000006
   16.43305397  177.61500549    0.50000000    2.69000006
   16.43638802  167.62399292    0.50000000    2.69000006
   16.43944359  160.54699707    0.50000000    2.69000006
   16.44277763  155.16400146    0.50000000    2.69000006
   16.44610977  171.60299683    0.50000000    2.69000006
   16.44916534  171.34199524    0.50000000    2.69000006
   16.45250130  166.86999512    0.50000000    2.67000008
   16.45583344  186.74699402    0.50000000    2.67000008
   16.45639038  176.27900696    0.50000000    2.67000008
   16.45944595  157.32699585    0.50000000    2.67000008
   16.46250153  176.35000610    0.50000000    2.69000006
   16.46583366  168.10899353    0.50000000    2.69000006
   16.47166634  168.10899353    0.50000000    2.69000006
   16.47583389  192.22999573    0.50000000    2.69000006
   16.47916794  209.03199768    0.51999998    2.67000008
   16.48222351  197.89999390    0.51999998    2.67000008
   16.48555565  209.46499634    0.51999998    2.69000006
   16.48888969  187.68400574    0.51999998    2.67000008
   16.48999977  186.02200317    0.51999998    2.67000008
   16.49250031  195.96299744    0.52999997    2.69000006
   16.49583435  184.32800293    0.51999998    2.69000006
   16.49916649  189.42599487    0.51999998    2.69000006
   16.50222206  162.81100464    0.52999997    2.69000006
   16.50555611  229.62699890    0.61000001    2.69000006
   16.50888824  188.88099670    0.63000000    2.69000006
   16.51444435  188.88099670    0.70999998    2.69000006
   16.51861000  165.69700623    0.67000002    2.69000006
   16.52194405  180.08200073    0.67000002    2.67000008
   16.52305603  149.70100403    0.64999998    2.69000006
   16.52555466  163.82400513    0.63000000    2.69000006
   16.52861023  172.39100647    0.58999997    2.69000006
   16.53194427  178.49200439    0.61000001    2.69000006
   16.53527641  149.19599915    0.63000000    2.67000008
   16.53833199  168.58500671    0.64999998    2.67000008
   16.54166603  163.80799866    0.64999998    2.69000006
   16.54500008  179.22300720    0.64999998    2.69000006
   16.54805565  170.90299988    0.63000000    2.67000008
   16.55138779  168.21899414    0.64999998    2.67000008
   16.55749893  168.21899414    0.70999998    2.69000006
   16.56166649  161.20599365    0.63000000    2.69000006
   16.56472206  170.77799988    0.61000001    2.69000006
   16.56805611  172.24499512    0.64999998    2.69000006
   16.57139015  171.90600586    0.63000000    2.69000006
   16.57444572  167.18200684    0.63000000    2.69000006
   16.57777786  166.48500061    0.63000000    2.69000006
   16.58083344  180.01300049    0.64999998    2.69000006
   16.58416748  179.03999329    0.63000000    2.69000006
   16.58750153  135.29299927    0.64999998    2.69000006
   16.58972359  144.80700684    0.64999998    2.69000006
   16.59111214  186.22700500    0.67000002    2.69000006
   16.59416771  175.18099976    0.67000002    2.69000006
   16.60027885  175.18099976    0.67000002    2.69000006
   16.60444450  149.29200745    0.67000002    2.67000008
   16.60750008  176.13900757    0.67000002    2.69000006
   16.61083412  157.79800415    0.64999998    2.69000006
   16.61416626  185.32899475    0.64999998    2.67000008
   16.61722183  186.55599976    0.63000000    2.67000008
   16.62055588  161.61000061    0.64999998    2.67000008
   16.62305641  172.43299866    0.64999998    2.67000008
   16.62416649  182.67599487    0.64999998    2.67000008
   16.62722206  143.49400330    0.69000000    2.67000008
   16.63055611  161.93200684    0.75000000    2.69000006
   16.63388824  163.35000610    0.76999998    2.67000008
   16.63694382  163.37699890    0.79000002    2.67000008
   16.64305496  163.37699890    0.80000001    2.69000006
   16.64722252  175.06399536    0.83999997    2.69000006
   16.65055466  151.04400635    0.92000002    2.67000008
   16.65361023  160.93499756    1.13000000    2.67000008
   16.65638924  128.71299744    1.03999996    2.67000008
   16.65749931  158.52299500    1.00000000    2.67000008
   16.66055489  172.05299377    0.95999998    2.69000006
   16.66388893  149.77000427    0.95999998    2.67000008
   16.66722107  159.51300049    1.00000000    2.67000008
   16.67027664  162.38499451    0.98000002    2.67000008
   16.67361069  170.24200439    0.95999998    2.69000006
   16.67694473  166.93200684    0.95999998    2.67000008
   16.68000031  162.66400146    1.44000006    2.69000006
   16.68583298  162.66400146    0.94000000    2.69000006
   16.68999863  158.13900757    0.92000002    2.67000008
   16.69333267  157.65499878    0.92000002    2.67000008
   16.69638824  171.82200623    0.92000002    2.67000008
   16.69972038  154.38900757    0.94000000    2.67000008
   16.70305634  163.17500305    0.94000000    2.67000008
   16.70611191  153.49800110    0.94000000    2.67000008
   16.70944595  166.37899780    0.94000000    2.69000006
   16.71277809  149.37100220    0.94000000    2.67000008
   16.71583366  147.74099731    0.98000002    2.69000006
   16.71916771  162.82499695    4.90999985    2.76999998
   16.72222328  168.06500244    4.90999985    2.73000002
   16.72305679  166.58500671    4.90999985    2.76999998
   16.72888947  166.58500671    4.90999985    2.73000002
   16.73277855  146.20799255    4.61999989    2.71000004
   16.73611069  137.32600403    2.82999992    2.64000010
   16.73944473  146.30799866    1.94000006    2.69000006
   16.74250031  134.41400146    1.07000005    2.69000006
   16.74583435  132.30999756    1.13000000    2.69000006
   16.74916649  143.27000427    0.98000002    2.69000006
   16.75222206  135.84700012    0.88000000    2.69000006
   16.75555611  148.80099487    0.83999997    2.69000006
   16.75638962  136.94999695    0.83999997    2.67000008
   16.75916672  145.60800171    0.83999997    2.67000008
   16.76250076  143.57600403    0.81999999    2.67000008
   16.76555634  133.68400574    0.81999999    2.67000008
   16.77166557  133.68400574    2.13000011    2.69000006
   16.77583313  142.53799438    4.90999985    2.69000006
   16.77888870  161.08700562    4.90999985    2.69000006
   16.78222275  139.72300720    4.90999985    2.57999992
   16.78555489  151.19299316    4.90999985    2.53999996
   16.78861046  149.06500244    3.09999990    2.67000008
   16.78972244  138.78300476    1.36000001    2.67000008
   16.79222107  147.79400635    0.94000000    2.67000008
   16.79555511  133.39599609    0.92000002    2.67000008
   16.79861069  151.23699951    0.89999998    2.67000008
   16.80194283  152.51199341    0.92000002    2.67000008
   16.80499840  134.43299866    0.92000002    2.67000008
   16.80833244  157.31199646    0.98000002    2.67000008
   16.81444359  157.31199646    1.05999994    2.67000008
   16.81861115  149.24000549    1.28999996    2.67000008
   16.82194519  145.81900024    2.25000000    2.66000009
   16.82305717  130.38699341    2.32999992    2.66000009
   16.82555580  157.24800110    2.42000008    2.67000008
   16.82888985  128.98599243    2.13000011    2.67000008
   16.83194542  118.49900055    1.66999996    2.67000008
   16.83527756  129.91099548    1.36000001    2.67000008
   16.83833313  142.06500244    1.28999996    2.67000008
   16.84166718  138.67999268    1.21000004    2.69000006
   16.84500122  123.05599976    1.00000000    2.67000008
   16.84805679  118.02899933    1.00000000    2.67000008
   16.85138893  136.76899719    1.00000000    2.67000008
   16.85722351  136.76899719    1.00000000    2.67000008
   16.86138916  132.80000305    1.00000000    2.67000008
   16.86472321  129.54699707    1.01999998    2.67000008
   16.86777878  120.81300354    1.01999998    2.67000008
   16.87111092  123.39900208    1.14999998    2.67000008
   16.87444496  126.48400116    1.16999996    2.67000008
   16.87750053  117.34999847    1.16999996    2.67000008
   16.88083267  120.60500336    1.30999994    2.67000008
   16.88416672  130.82200623    1.30999994    2.69000006
   16.88722229  118.65000153    1.28999996    2.67000008
   16.88972282  119.13300323    1.28999996    2.67000008
   16.89083290  133.16600037    1.28999996    2.67000008
   16.89416695  124.49700165    1.28999996    2.67000008
   16.90027809  124.49700165    1.34000003    2.61999989
   16.90416718  120.00199890    4.90999985    2.69000006
   16.90749931  130.98399353    4.90999985    2.13000011
   16.91083336  114.50199890    3.07999992    2.69000006
   16.91388893  119.35399628    3.64000010    2.69000006
   16.91722107  122.08799744    4.21999979    2.71000004
   16.92055511  126.93699646    4.90999985    2.73000002
   16.92305565  216.10000610    4.90999985    2.61999989
   16.92416573  133.51600647    4.90999985    2.21000004
   16.92749977  126.15699768    4.90999985    2.51999998
   16.93055534  116.77200317    4.90999985    2.09999990
   16.93388748  126.50700378    4.90999985    1.73000002
   16.93722153  118.77200317    2.86999989    2.75000000
   16.94305420  118.77200317    4.90999985    2.75000000
   16.94722176  123.32700348    4.90999985    2.78999996
   16.95027924  131.69500732    4.90999985    2.86999989
   16.95361137   -1.00000000    4.90999985    2.03999996
   16.95639038  154.94099426    4.90999985    0.76999998
   16.95722389  158.07699585    4.90999985    1.30999994
   16.96055603  111.16100311    4.90999985    2.07999992
   16.96361160  142.79600525    4.90999985    2.23000002
   16.96694565  120.78900146    4.90999985    2.28999996
   16.97027779  207.37699890    4.90999985    1.91999996
   16.97333336  149.12199402    4.90999985    2.42000008
   16.97666740  168.54800415    4.90999985    2.55999994
   16.97972298  118.34200287    4.90999985    2.51999998
   16.98583412  118.34200287    4.90999985    2.76999998
   16.98999977  120.86900330    4.90999985    2.73000002
   16.99333382  122.41899872    3.41000009    2.69000006
   16.99638939  128.63299561    2.91000009    2.67000008
   16.99972153  123.81999969    3.01999998    2.69000006
   17.00277710  124.98999786    1.63000000    2.69000006
   17.00611115  119.49199677    1.86000001    2.69000006
   17.00944519  108.25000000    4.90999985    2.32999992
   17.01250076  129.48300171    4.90999985    2.39000010
   17.01583290  127.54299927    4.90999985    2.48000002
   17.01916695  126.05200195    1.21000004    2.69000006
   17.02222252  131.79499817    4.90999985    2.64000010
   17.02305603  158.47399902    4.90999985    2.17000008
   17.04388809  158.47399902    1.11000001    2.67000008
   17.04805565  117.04000092    1.48000002    2.67000008
   17.05138779  116.54900360    1.61000001    2.67000008
   17.05444336  116.79299927    1.41999996    2.67000008
   17.05666542  110.56800079    1.41999996    2.67000008
   17.05805397  104.88500214    1.30999994    2.67000008
   17.06138802  103.43000031    1.33000004    2.67000008
   17.06444359  104.82599640    1.51999998    2.67000008
   17.06777954  204.68200684    4.90999985    2.55999994
   17.07111168   -1.00000000    4.90999985    1.94000006
   17.07416725   -1.00000000    4.90999985    0.95999998
   17.07750130  123.51599884    4.90999985    1.58000004
   17.08083344   -1.00000000    4.90999985    0.89999998
   17.09055710   -1.00000000    4.90999985    0.31999999
   17.09388924  128.23300171    4.90999985    0.76999998
   17.09722328   -1.00000000    4.90999985    1.00000000
   17.10027885   -1.00000000    4.90999985    1.48000002
   17.10361099  119.13400269    4.90999985    1.48000002
   17.10694504  173.14999390    4.90999985    2.09999990
   17.11000061  139.41499329    4.90999985    2.76999998
   17.11333466  195.96400452    4.90999985    2.57999992
   17.11638832   -1.00000000    4.90999985    1.07000005
   17.11972237  301.40399170    4.90999985    1.38000000
   17.12305641  177.01699829    4.90999985    2.21000004
   17.12361145  168.03500366    4.90999985    2.46000004
   17.13361168   -1.00000000    4.90999985    0.73000002
   17.13666725   -1.00000000    4.90999985    0.56999999
   17.13999939   -1.00000000    4.90999985    0.41999999
   17.14333344   -1.00000000    4.90999985    0.52999997
   17.14638901   -1.00000000    4.90999985    1.13000000
   17.14972115   93.03659821    4.90999985    2.39000010
   17.15277672   61.42119980    4.90999985    2.67000008
   17.15611076   23.57019997    4.01999998    2.67000008
   17.15972137   -1.00000000    3.59999990    2.64000010
   17.16305542   -1.00000000    4.03999996    2.61999989
   17.16611099   -1.00000000    4.67999983    2.59999990
   17.17638779   -1.00000000    4.90999985    2.61999989
   17.17972183   -1.00000000    4.90999985    2.57999992
   17.18277740   -1.00000000    4.90999985    2.57999992
   17.18610954   -1.00000000    4.90999985    2.55999994
   17.18916512   -1.00000000    4.90999985    2.57999992
   17.19277763   -1.00000000    4.90999985    2.51999998
   17.19610977   -1.00000000    4.90999985    2.00000000
   17.19916534   -1.00000000    4.90999985    2.55999994
   17.20250130   -1.00000000    4.90999985    2.53999996
   17.20555687   -1.00000000    4.90999985    2.53999996
   17.20888901   -1.00000000    4.90999985    2.57999992
   17.21916771   -1.00000000    3.59999990    2.61999989
   17.22249985   -1.00000000    3.66000009    2.61999989
   17.22611237   -1.00000000    4.59999990    2.61999989
   17.22944450   -1.00000000    4.34999990    2.61999989
   17.23250008   -1.00000000    3.61999989    2.61999989
   17.23583412   -1.00000000    4.71999979    2.64000010
   17.23888969   -1.00000000    2.42000008    2.66000009
   17.24222183   -1.00000000    4.01999998    2.66000009
   17.24555588   -1.00000000    1.60000002    2.66000009
   17.24861145   -1.00000000    1.44000006    2.67000008
   17.25194359   -1.00000000    1.41999996    2.67000008
   17.26194382   -1.00000000    1.96000004    2.67000008
   17.26527786   -1.00000000    1.76999998    2.67000008
   17.26861000   -1.00000000    2.09999990    2.67000008
   17.27166557   -1.00000000    2.09999990    2.67000008
   17.27499962   -1.00000000    4.26000023    2.66000009
   17.27833366   -1.00000000    4.38999987    2.66000009
   17.28138924   -1.00000000    4.51000023    2.69000006
   17.28472137   -1.00000000    4.90999985    2.71000004
   17.28777695   -1.00000000    4.90999985    1.64999998
   17.29138756   -1.00000000    4.90999985    0.38000000
   17.29472160   -1.00000000    4.90999985    0.34000000
   17.30499840   -1.00000000    4.90999985    2.44000006
   17.30805397   -1.00000000    4.90999985    1.19000006
   17.31138802   -1.00000000    4.90999985    1.83000004
   17.31472206   -1.00000000    4.90999985    2.75000000
   17.31777954   -1.00000000    4.90999985    1.85000002
   17.32111168   -1.00000000    4.90999985    2.51999998
   17.32472229   -1.00000000    1.98000002    2.66000009
   17.32805634   -1.00000000    3.59999990    2.69000006
   17.33111191   -1.00000000    4.90999985    2.73000002
   17.33444595   -1.00000000    4.90999985    2.71000004
   17.33750153   -1.00000000    2.84999990    2.66000009
   17.34777832   -1.00000000    4.90999985    2.50000000
   17.35111237   -1.00000000    4.90999985    2.69000006
   17.35416794   -1.00000000    2.71000004    2.66000009
   17.35777855   -1.00000000    2.73000002    2.64000010
   17.36111069   -1.00000000    4.90999985    2.66000009
   17.36416626   -1.00000000    4.90999985    2.55999994
   17.36750031   -1.00000000    2.94000006    2.67000008
   17.37055588   -1.00000000    1.61000001    2.67000008
   17.37388992   -1.00000000    1.66999996    2.67000008
   17.37722206   -1.00000000    4.90999985    2.55999994
   17.38027763   -1.00000000    4.90999985    2.28999996
   17.39055634   -1.00000000    4.90999985    2.66000009
   17.39388847   -1.00000000    4.90999985    2.69000006
   17.39694405   -1.00000000    4.90999985    2.69000006
   17.40027809   -1.00000000    4.90999985    2.69000006
   17.40361023   -1.00000000    4.90999985    2.66000009
   17.40666580   -1.00000000    4.90999985    2.55999994
   17.40999985   -1.00000000    4.90999985    2.46000004
   17.41333389   -1.00000000    4.90999985    2.64000010
   17.41638756   -1.00000000    4.13999987    2.61999989
   17.41972160   -1.00000000    3.21000004    2.66000009
   17.42277718   -1.00000000    2.13000011    2.66000009
   17.43333244   -1.00000000    4.90999985    2.69000006
   17.43666649   -1.00000000    4.90999985    2.69000006
   17.43999863   -1.00000000    4.90999985    2.75000000
   17.44305420   -1.00000000    4.90999985    0.15000001
   17.44638824   -1.00000000    4.90999985    0.11000000
   17.44972038   -1.00000000    4.90999985    0.03000000
   17.45277786   -1.00000000    4.90999985    0.01000000
   17.45611191   -1.00000000    4.90999985    0.07000000
   17.45944595   -1.00000000    4.90999985    0.09000000
   17.46277809   -1.00000000    4.90999985    0.09000000
   17.46583366   -1.00000000    4.90999985    0.19000000
   17.47638893   -1.00000000    4.90999985    1.80999994
   17.47944450   -1.00000000    4.90999985    2.26999998
   17.48277855   -1.00000000    1.28999996    2.67000008
   17.48611069   -1.00000000    1.26999998    2.69000006
   17.48916626   -1.00000000    1.01999998    2.67000008
   17.49277878   -1.00000000    1.07000005    2.67000008
   17.49611092   -1.00000000    1.11000001    2.67000008
   17.49916649   -1.00000000    2.15000010    2.67000008
   17.50250053   -1.00000000    3.01999998    2.67000008
   17.50583267   -1.00000000    4.90999985    2.61999989
   17.50888824   -1.00000000    4.90999985    2.30999994
   17.51916695   -1.00000000    4.90999985    0.52999997
   17.52249908   -1.00000000    4.90999985    0.55000001
   17.52583313   -1.00000000    4.90999985    0.40000001
   17.52916718   -1.00000000    4.90999985    1.69000006
   17.53222275   -1.00000000    4.90999985    2.80999994
   17.53555489   -1.00000000    4.90999985    2.82999992
   17.53888893   -1.00000000    4.90999985    2.78999996
   17.54194450   -1.00000000    4.90999985    2.48000002
   17.54527664   -1.00000000    4.90999985    2.82999992
   17.54833221   -1.00000000    4.90999985    1.64999998
   17.55166626   -1.00000000    4.90999985    0.63000000
   17.56194305   -1.00000000    3.64000010    0.03000000
   17.56527710   -1.00000000    3.64000010    0.03000000
   17.56833458   -1.00000000    2.67000008    0.01000000
   17.57166672   -1.00000000    2.67000008    0.01000000
   17.57500076   -1.00000000    2.67000008    0.01000000
   17.57805634   -1.00000000    2.67000008    0.01000000
   17.58139038   -1.00000000    4.17999983    0.01000000
   17.58472252   -1.00000000    4.90999985    0.03000000
   17.58777809   -1.00000000    4.90999985    0.20999999
   17.59138870   -1.00000000    4.90999985    0.46000001
   17.59472275   -1.00000000    4.90999985    0.41999999
   17.60472298   -1.00000000    4.90999985    0.94000000
   17.60805511   -1.00000000    4.90999985    0.47999999
   17.61138916   -1.00000000    4.90999985    1.19000006
   17.61444473   -1.00000000    4.90999985    1.96000004
   17.61777878   -1.00000000    4.90999985    2.64000010
   17.62111092   -1.00000000    4.36999989    2.66000009
   17.62444496   -1.00000000    3.25000000    2.64000010
   17.62777710   -1.00000000    3.45000005    2.61999989
   17.63083267   -1.00000000    3.41000009    2.61999989
   17.63416672   -1.00000000    2.84999990    2.61999989
   17.63750076   -1.00000000    2.32999992    2.64000010
   17.64777756   -1.00000000    2.34999990    2.64000010
   17.65083313   -1.00000000    2.40000010    2.66000009
   17.65416718   -1.00000000    2.44000006    2.66000009
   17.65777779   -1.00000000    2.91000009    2.66000009
   17.66110992   -1.00000000    4.03999996    2.64000010
   17.66416550   -1.00000000    4.90999985    2.66000009
   17.66749954   -1.00000000    4.90999985    2.69000006
   17.67083359   -1.00000000    4.90999985    2.69000006
   17.67388916   -1.00000000    4.90999985    2.67000008
   17.67722130   -1.00000000    4.90999985    2.48000002
   17.68055534   -1.00000000    4.90999985    1.05999994
   17.69055557   -1.00000000    4.90999985    1.51999998
   17.69388771   -1.00000000    4.90999985    1.61000001
   17.69694328   -1.00000000    4.90999985    2.15000010
   17.70027924   -1.00000000    4.90999985    0.94000000
   17.70333481   -1.00000000    4.90999985    2.75000000
   17.70666695   -1.00000000    4.90999985    2.50000000
   17.71000099   -1.00000000    4.90999985    2.64000010
   17.71305656   -1.00000000    4.73999977    2.64000010
   17.71638870   -1.00000000    4.69999981    2.61999989
   17.71972275   -1.00000000    4.65999985    2.59999990
   17.72277832   -1.00000000    4.80999994    2.64000010
   17.73333359   -1.00000000    4.90999985    2.48000002
   17.73666763   -1.00000000    4.90999985    2.55999994
   17.73972321   -1.00000000    4.90999985    2.21000004
   17.74305534   -1.00000000    4.90999985    0.80000001
   17.74638939   -1.00000000    4.90999985    2.36999989
   17.74944496   -1.00000000    4.90999985    2.55999994
   17.75277710   -1.00000000    4.90999985    2.61999989
   17.75583267   -1.00000000    4.90999985    0.61000001
   17.75944519   -1.00000000    4.90999985    1.36000001
   17.76277733   -1.00000000    4.90999985    2.30999994
   17.76583290   -1.00000000    4.90999985    2.55999994
   17.77611160  127.10099792    4.90999985    2.57999992
   17.77944374  159.55799866    4.90999985    1.36000001
   17.78277779  134.22000122    4.90999985    2.44000006
   17.85416794  168.79899597    4.90999985    1.60000002
   17.85750008  175.18400574    4.90999985    2.15000010
   17.86055565  279.38101196    4.90999985    1.89999998
   17.86388969  187.89799500    4.90999985    2.13000011
   17.86722183  171.14300537    4.90999985    1.71000004
   17.87027740   -1.00000000    4.90999985    1.75000000
   17.87444496   -1.00000000    4.90999985    1.19000006
   17.87861061  187.83900452    4.90999985    2.00000000
   17.88194466  172.27600098    4.90999985    2.55999994
   17.88500023   -1.00000000    4.90999985    1.91999996
   17.88750076  123.47200012    4.90999985    0.61000001
   17.88888931  175.33799744    4.90999985    0.55000001
   17.89194489  118.26200104    4.90999985    2.61999989
   17.89527702  139.06100464    4.90999985    1.96000004
   17.89861107  158.27400208    4.90999985    2.51999998
   17.90166664  154.43299866    4.90999985    2.55999994
   17.90499878  173.52699280    4.90999985    2.46000004
   17.90805435  149.06300354    4.90999985    2.39000010
   17.91138840  124.99500275    4.90999985    2.40000010
   17.92138863   -1.00000000    4.90999985    0.05000000
   17.92444420   -1.00000000    4.90999985    0.50000000
   17.92777634   -1.00000000    4.90999985    0.79000002
   17.93111038   -1.00000000    4.90999985    0.15000001
   17.93416595   -1.00000000    4.90999985    0.11000000
   17.93750000   -1.00000000    4.90999985    0.28000000
   17.94083214   -1.00000000    4.90999985    0.19000000
   17.94388771   -1.00000000    4.90999985    0.23000000
   17.94722176   -1.00000000    4.90999985    0.50000000
   17.95027924  171.11599731    4.90999985    1.33000004
   17.95361137  154.25300598    4.90999985    2.23000002
   17.95416832  144.40199280    4.90999985    2.23000002
   17.96416664  144.88900757    4.90999985    2.40000010
   17.96750069  138.10699463    4.90999985    2.48000002
   17.97055626  152.11999512    4.90999985    2.55999994
   17.97389030  150.37100220    4.90999985    2.48000002
   17.97722244  154.67399597    4.90999985    2.50000000
   17.98027802  148.53999329    4.90999985    2.48000002
   17.98361206  145.12100220    4.90999985    2.48000002
   17.98666763  143.12100220    4.90999985    2.57999992
   17.98750114  145.50599670    4.90999985    2.59999990
   17.99055672  158.94900513    4.90999985    2.51999998
   17.99361229  146.45100403    4.90999985    2.53999996
   17.99694443  145.39100647    4.90999985    2.55999994
   18.00305557  145.39100647    4.90999985    1.88000000
   18.00722313  161.27400208    4.90999985    2.48000002
   18.01027870  153.55099487    4.90999985    2.46000004
   18.01361084  146.49400330    4.90999985    2.46000004
   18.01694489  175.31799316    4.90999985    2.34999990
   18.02000046  161.86500549    4.90999985    2.46000004
   18.02083397  131.64999390    4.90999985    2.50000000
   18.02388954  134.80299377    4.90999985    2.51999998
   18.02750015   -1.00000000    4.90999985    2.53999996
   18.03055573   -1.00000000    4.90999985    0.50000000
   18.03388786   -1.00000000    4.90999985    0.15000001
   18.03722191   -1.00000000    4.90999985    0.11000000
   18.04027748   -1.00000000    4.90999985    0.17000000
   18.04638863   -1.00000000    4.90999985    0.55000001
   18.05027771   -1.00000000    4.90999985    1.91999996
   18.05360985  142.77400208    4.90999985    0.67000002
   18.05472183  141.71200562    4.90999985    0.88000000
   18.05722237   -1.00000000    4.90999985    2.42000008
   18.06055450  102.94999695    4.90999985    1.34000003
   18.06361008  267.43301392    4.90999985    1.19000006
   18.06694603  160.48699951    4.90999985    1.34000003
   18.07027817  163.72999573    4.90999985    2.67000008
   18.07333374   83.42569733    4.90999985    2.55999994
   18.07666779  203.00999451    4.90999985    1.19000006
   18.08000183  142.00599670    4.90999985    2.46000004
   18.08305550  143.59100342    4.90999985    2.53999996
   18.08916664  143.59100342    4.90999985    2.48000002
   18.09333420  167.24200439    4.90999985    2.50000000
   18.09638977  171.17199707    4.90999985    2.44000006
   18.09972191  151.37699890    4.90999985    2.48000002
   18.10305595  149.99699402    4.90999985    2.55999994
   18.10611153  136.51499939    4.90999985    2.57999992
   18.10944557  162.71400452    4.90999985    2.59999990
   18.11222267  187.48800659    4.90999985    2.57999992
   18.11555672  162.89399719    4.90999985    2.48000002
   18.11861038  164.83299255    4.90999985    2.40000010
   18.12083435  152.26400757    4.90999985    2.44000006
   18.12249947  159.56900024    4.90999985    2.48000002
   18.12555504  193.59700012    4.90999985    2.46000004
   18.13555527   -1.00000000    4.90999985    0.47999999
   18.13888931   -1.00000000    4.90999985    0.88000000
   18.14194489   -1.00000000    4.90999985    1.16999996
   18.14527702   -1.00000000    4.90999985    0.83999997
   18.14861107  185.75599670    4.90999985    1.66999996
   18.15166664  157.29600525    4.90999985    2.51999998
   18.15416718  158.65299988    4.90999985    2.50000000
   18.15555573  157.41200256    4.90999985    2.36999989
   18.15861130  165.34300232    4.90999985    2.40000010
   18.16194344  180.66299438    4.90999985    2.17000008
   18.16527748  195.72900391    4.90999985    2.21000004
   18.16833305  198.59800720    4.90999985    2.19000006
   18.17444420  198.59800720    4.90999985    2.61999989
   18.17860985   -1.00000000    4.90999985    0.73000002
   18.18166542   -1.00000000    4.90999985    0.51999998
   18.18499947   -1.00000000    4.90999985    0.38000000
   18.18833160   -1.00000000    4.90999985    0.34000000
   18.19166565   -1.00000000    4.90999985    0.69000000
   18.19499969   -1.00000000    4.90999985    0.63000000
   18.19805527   -1.00000000    4.90999985    0.13000000
   18.20138931   -1.00000000    4.17999983    0.03000000
   18.20472336   -1.00000000    4.17999983    0.03000000
   18.20777893   -1.00000000    4.17999983    0.03000000
   18.21111107   -1.00000000    4.17999983    0.03000000
   18.22138977   -1.00000000    4.17999983    0.03000000
   18.22444534   -1.00000000    3.14000010    0.01000000
   18.22777748   -1.00000000    4.90999985    0.03000000
   18.23083305   -1.00000000    4.90999985    0.07000000
   18.23416710   -1.00000000    4.90999985    0.17000000
   18.23750114   59.39490128    4.90999985    0.92000002
   18.24055672   -1.00000000    4.90999985    0.67000002
   18.24388885   -1.00000000    4.90999985    0.36000001
   18.24722290   -1.00000000    4.90999985    0.28000000
   18.25027847   -1.00000000    4.90999985    0.38000000
   18.25361061   -1.00000000    4.90999985    0.79000002
   18.25416756   69.38980103    4.90999985    1.58000004
   18.26416588   -1.00000000    4.90999985    0.70999998
   18.26722145   -1.00000000    4.90999985    0.17000000
   18.27055550   -1.00000000    4.90999985    0.25000000
   18.27388954  154.43099976    4.90999985    1.21000004
   18.27694511  206.00500488    4.90999985    2.09999990
   18.28027725   -1.00000000    4.90999985    1.53999996
   18.28361130   -1.00000000    4.90999985    1.71000004
   18.28666687   -1.00000000    4.90999985    0.75000000
   18.28999901   -1.00000000    4.90999985    0.34000000
   18.29333305   -1.00000000    4.90999985    0.28000000
   18.29666710   -1.00000000    4.90999985    0.36000001
   18.30305481   -1.00000000    4.90999985    2.13000011
   18.30694389  185.12399292    4.90999985    2.53999996
   18.31027794  137.16400146    4.90999985    1.91999996
   18.31361008  143.66900635    4.90999985    2.50000000
   18.31694603  140.83299255    4.90999985    2.55999994
   18.32000160   -1.00000000    4.90999985    2.57999992
   18.32361221   -1.00000000    4.90999985    0.83999997
   18.32666779   -1.00000000    4.90999985    0.47999999
   18.33000183   -1.00000000    4.90999985    0.31999999
   18.33305550   -1.00000000    4.90999985    0.17000000
   18.33638954   -1.00000000    4.90999985    0.13000000
   18.33972359   -1.00000000    4.90999985    0.05000000
   18.34972191   -1.00000000    4.90999985    0.05000000
   18.35305595   -1.00000000    4.90999985    0.05000000
   18.35666656   -1.00000000    4.90999985    0.05000000
   18.35972214   -1.00000000    4.90999985    0.05000000
   18.36305618   -1.00000000    4.90999985    0.05000000
   18.36611176   -1.00000000    4.90999985    0.05000000
   18.36944389   -1.00000000    4.90999985    0.05000000
   18.37277794   -1.00000000    4.90999985    0.05000000
   18.37583351   -1.00000000    4.90999985    0.05000000
   18.37916756   -1.00000000    4.17999983    0.01000000
   18.38249969   -1.00000000    4.90999985    0.03000000
   18.39277840   -1.00000000    4.90999985    0.36000001
   18.39583397   -1.00000000    4.90999985    0.64999998
   18.39916611   53.51419830    4.90999985    1.07000005
   18.40222168   -1.00000000    4.90999985    1.09000003
   18.40555573   -1.00000000    4.90999985    1.25000000
   18.40888786   -1.00000000    4.90999985    1.21000004
   18.41194344   -1.00000000    4.90999985    0.30000001
   18.41527748   -1.00000000    4.90999985    0.25999999
   18.41860962   -1.00000000    4.90999985    0.23000000
   18.42194366   -1.00000000    4.90999985    0.30000001
   18.42527771   -1.00000000    4.90999985    0.47999999
   18.43555450   -1.00000000    4.90999985    0.40000001
   18.43861008   -1.00000000    4.90999985    0.19000000
   18.44194412   -1.00000000    4.90999985    0.07000000
   18.44527626   -1.00000000    4.90999985    0.03000000
   18.44833183   -1.00000000    2.82999992    0.01000000
   18.45166779   -1.00000000    4.90999985    0.03000000
   18.45527840   -1.00000000    4.90999985    0.05000000
   18.45833397   -1.00000000    4.90999985    0.19000000
   18.46166801   -1.00000000    4.90999985    0.31999999
   18.46472359   -1.00000000    4.90999985    0.31999999
   18.46805573   -1.00000000    4.90999985    0.11000000
   18.47833443   -1.00000000    4.90999985    0.01000000
   18.48166656   -1.00000000    3.41000009    0.01000000
   18.48472214   -1.00000000    2.40000010    0.01000000
   18.48861122   -1.00000000    4.90999985    0.01000000
   18.49166679   -1.00000000    4.90999985    0.03000000
   18.49500084   -1.00000000    4.90999985    0.05000000
   18.49805641   -1.00000000    4.90999985    0.05000000
   18.50138855   -1.00000000    4.90999985    0.07000000
   18.50472260   -1.00000000    4.90999985    0.15000001
   18.50777817   -1.00000000    4.90999985    0.38000000
   18.51111031   -1.00000000    4.90999985    0.55000001
   18.52111053   -1.00000000    4.90999985    0.11000000
   18.52444458   -1.00000000    4.90999985    0.07000000
   18.52777672   -1.00000000    4.90999985    0.05000000
   18.53083229   -1.00000000    4.90999985    0.07000000
   18.53416634   -1.00000000    4.90999985    0.07000000
   18.53722191   -1.00000000    4.90999985    0.05000000
   18.54055595   -1.00000000    4.90999985    0.03000000
   18.54388809   -1.00000000    4.90999985    0.01000000
   18.54694366   -1.00000000    4.90999985    0.03000000
   18.55027771   -1.00000000    4.90999985    0.34000000
   18.55333328   -1.00000000    4.90999985    0.09000000
   18.56388855   -1.00000000    4.90999985    0.52999997
   18.56722260   -1.00000000    4.90999985    0.31999999
   18.57055664   -1.00000000    4.90999985    0.03000000
   18.57361221   -1.00000000    4.90999985    0.01000000
   18.57694626   -1.00000000    4.90999985    0.01000000
   18.58000183   -1.00000000    4.90999985    0.01000000
   18.58333397   -1.00000000    4.90999985    0.01000000
   18.58666801   -1.00000000    4.90999985    0.01000000
   18.59027863   -1.00000000    4.90999985    0.01000000
   18.59333420   -1.00000000    4.90999985    0.01000000
   18.59666824   -1.00000000    4.90999985    0.01000000
   18.60694504   -1.00000000    4.90999985    0.01000000
   18.61000061   -1.00000000    4.90999985    0.01000000
