    HOUR (UT)   FLARE FACTOR    SKY TESTER    SUN TESTER
   10.45583344   -1.00000000   -1.00000000   -1.00000000
   10.50388908  187.22099304    3.14000010    1.64999998
   10.51000023  173.20799255    3.11999989    1.66999996
   10.51361084  195.05999756    3.11999989    1.66999996
   10.51694393  170.61700439    3.11999989    1.66999996
   10.52027798  199.94799805    3.09999990    1.69000006
   10.52333355  176.02699280    3.07999992    1.69000006
   10.52666664  234.58999634    3.07999992    1.69000006
   10.52972221  179.55599976    3.05999994    1.71000004
   10.53305531  224.75700378    3.05999994    1.71000004
   10.53638935  219.89500427    3.03999996    1.71000004
   10.53722286  190.03799438    3.03999996    1.71000004
   10.54000092  203.14300537    3.01999998    1.71000004
   10.54305553  216.11999512    3.00000000    1.71000004
   10.54638958  184.86900330    3.00000000    1.71000004
   10.54972267  225.37199402    3.00000000    1.73000002
   10.55277824  219.73599243    2.96000004    1.73000002
   10.55611134  217.39999390    2.94000006    1.73000002
   10.55944443  248.02400208    2.93000007    1.73000002
   10.56277752  228.89300537    2.91000009    1.75000000
   10.56583309  224.25300598    2.89000010    1.75000000
   10.56916618  235.91299438    2.89000010    1.75000000
   10.57055569  238.47500610    2.86999989    1.75000000
   10.57277775  288.22399902    2.86999989    1.76999998
   10.57583332  266.01300049    2.84999990    1.76999998
   10.57916641  254.49400330    2.82999992    1.76999998
   10.58249950  275.11999512    2.80999994    1.76999998
   10.58555508  326.91101074    2.80999994    1.76999998
   10.58888817  271.20498657    2.78999996    1.76999998
   10.59222221  286.98300171    2.76999998    1.78999996
   10.59527779  312.97500610    2.75000000    1.78999996
   10.59861088  352.04800415    2.73000002    1.78999996
   10.60166740  306.22698975    2.71000004    1.78999996
   10.60388947  330.32000732    2.71000004    1.80999994
   10.60555553  303.24099731    2.71000004    1.78999996
   10.60861111  330.75799561    2.67000008    1.80999994
   10.61194515  337.85800171    2.66000009    1.80999994
   10.61527824  338.36199951    2.64000010    1.80999994
   10.61833382  367.27301025    2.64000010    1.83000004
   10.62166691  341.17999268    2.61999989    1.83000004
   10.62500000  365.05700684    2.59999990    1.83000004
   10.62805557  333.67898560    2.57999992    1.83000004
   10.63138866  379.72100830    2.57999992    1.85000002
   10.63444424  368.12701416    2.55999994    1.85000002
   10.63722229  374.55499268    2.53999996    1.85000002
   10.63833332  357.96200562    2.55999994    1.85000002
   10.64166641  312.86300659    2.51999998    1.85000002
   10.64472198  350.18099976    2.51999998    1.85000002
   10.64805508  345.54098511    2.51999998    1.85000002
   10.65111065  352.22299194    2.50000000    1.86000001
   10.65444374  389.98400879    2.48000002    1.86000001
   10.65777779  329.14199829    2.48000002    1.86000001
   10.66083336  386.38598633    2.48000002    1.86000001
   10.66416645  350.05099487    2.46000004    1.86000001
   10.66750050  424.20300293    2.44000006    1.88000000
   10.66944504  447.86099243    2.44000006    1.88000000
   10.67055607  366.40798950    2.42000008    1.88000000
   10.67194462  400.80999756    2.42000008    1.88000000
   10.67333412  379.39001465    2.42000008    1.88000000
   10.67472267  395.65600586    2.42000008    1.88000000
   10.67611122  433.13198853    2.42000008    1.89999998
   10.67750072  428.83898926    2.42000008    1.89999998
   10.67888927  386.29098511    2.42000008    1.89999998
   10.68027782  350.53799438    2.42000008    1.89999998
   10.68166733  378.21398926    2.42000008    1.89999998
   10.68305588  350.26199341    2.42000008    1.89999998
   10.68444443  378.49398804    2.42000008    1.89999998
   10.68583298  396.91799927    2.42000008    1.89999998
   10.68722248  372.92700195    2.40000010    1.89999998
   10.68861103  361.37500000    2.40000010    1.89999998
   10.69000053  409.46301270    2.40000010    1.89999998
   10.69138908  343.67001343    2.40000010    1.89999998
   10.69166660  329.14199829    2.48000002    1.86000001
   10.69166660  386.38598633    2.48000002    1.86000001
   10.69194412  350.05099487    2.46000004    1.86000001
   10.69194412  424.20300293    2.44000006    1.88000000
   10.69194412  312.86300659    2.51999998    1.85000002
   10.69222260  350.18099976    2.51999998    1.85000002
   10.69222260  345.54098511    2.51999998    1.85000002
   10.69222260  352.22299194    2.50000000    1.86000001
   10.69250011  389.98400879    2.48000002    1.86000001
   10.69305515  375.24099731    2.40000010    1.89999998
   10.69611073  391.77899170    2.39000010    1.89999998
   10.69944477  389.29598999    2.40000010    1.91999996
   10.70249939  415.57501221    2.39000010    1.91999996
   10.70472240  402.41198730    2.39000010    1.91999996
   10.70583344  341.26000977    2.39000010    1.94000006
   10.70611095  375.24099731    2.40000010    1.89999998
   10.70611095  391.77899170    2.39000010    1.89999998
   10.70638847  389.29598999    2.40000010    1.91999996
   10.70638847  415.57501221    2.39000010    1.91999996
   10.70749950  399.72900391    2.39000010    1.91999996
   10.71055508  372.95999146    2.36999989    1.94000006
   10.71388912  341.11599731    2.39000010    1.91999996
   10.71722221  358.35598755    2.39000010    1.94000006
   10.72027779  338.42300415    2.39000010    1.94000006
   10.72666645  338.42300415    2.36999989    1.94000006
   10.73083305  291.97399902    2.39000010    1.96000004
   10.73416710  325.17300415    2.36999989    1.94000006
   10.73750019  355.96200562    2.36999989    1.96000004
   10.73972225  353.10000610    2.36999989    1.96000004
   10.74111176  327.58401489    2.36999989    1.96000004
   10.74444485  303.87200928    2.36999989    1.96000004
   10.74750042  350.59600830    2.36999989    1.96000004
   10.75083351  329.62200928    2.36999989    1.98000002
   10.75416660  360.27999878    2.34999990    1.98000002
   10.75722218  350.23999023    2.34999990    1.98000002
   10.76055527  311.15701294    2.34999990    1.98000002
   10.76361084  351.73400879    2.32999992    1.98000002
   10.76972198  351.73400879    2.32999992    1.98000002
   10.77388859  314.46200562    2.30999994    2.00000000
   10.77694416  310.75000000    2.30999994    2.00000000
   10.78027725  314.59201050    2.28999996    2.01999998
   10.78333378  301.73199463    2.28999996    2.00000000
   10.78666687  325.29199219    2.28999996    2.00000000
   10.79000092  325.49398804    2.26999998    2.00000000
   10.79305553  269.19601440    2.26999998    2.01999998
   10.79638958  299.87701416    2.26999998    2.01999998
   10.79972267  306.45300293    2.25000000    2.01999998
   10.80277824  328.24398804    2.23000002    2.01999998
   10.80611134  303.37500000    2.23000002    2.01999998
   10.80666733  315.33099365    2.23000002    2.01999998
   10.81250000  315.33099365    2.23000002    2.05999994
   10.81666660  284.34399414    2.19000006    2.03999996
   10.81972218  316.31900024    2.19000006    2.03999996
   10.82305527  267.10198975    2.17000008    2.03999996
   10.82638836  316.41000366    2.17000008    2.03999996
   10.82944393  307.09100342    2.15000010    2.03999996
   10.83277798  350.52499390    2.15000010    2.03999996
   10.83583260  324.92001343    2.13000011    2.05999994
   10.83916664  321.03500366    2.13000011    2.05999994
   10.84000015  302.52301025    2.13000011    2.05999994
   10.84277725  335.23001099    2.11999989    2.05999994
   10.84611034  302.52200317    2.11999989    2.05999994
   10.84944439  353.78399658    2.11999989    2.05999994
   10.85527802  353.78399658    2.11999989    2.07999992
   10.85944462  356.98199463    2.09999990    2.07999992
   10.86277771  289.07598877    2.09999990    2.07999992
   10.86583328  278.32598877    2.09999990    2.07999992
   10.86916637  301.64300537    2.09999990    2.07999992
   10.87250042  292.85800171    2.07999992    2.07999992
   10.87333393  301.52801514    2.09999990    2.07999992
   10.87583351  278.27099609    2.07999992    2.09999990
   10.87916660  297.32699585    2.07999992    2.09999990
   10.88249969  303.83999634    2.07999992    2.09999990
   10.88555527  337.31799316    2.07999992    2.09999990
   10.88888836  318.96798706    2.07999992    2.09999990
   10.89194393  300.95700073    2.07999992    2.09999990
   10.89805508  300.95700073    2.07999992    2.09999990
   10.90222168  325.55599976    2.07999992    2.11999989
   10.90555477  312.81900024    2.05999994    2.11999989
   10.90666676  306.94400024    2.05999994    2.11999989
   10.90916634  302.89599609    2.05999994    2.11999989
   10.91249943  283.60900879    2.03999996    2.11999989
   10.91583252  294.34399414    2.03999996    2.11999989
   10.91888905  305.14199829    2.03999996    2.11999989
   10.92222214  316.76098633    2.03999996    2.13000011
   10.92527771  291.45999146    2.03999996    2.11999989
   10.92861176  306.20300293    2.01999998    2.13000011
   10.93194485  283.49700928    2.00000000    2.13000011
   10.93500042  292.91500854    2.00000000    2.13000011
   10.94111156  292.91500854    1.98000002    2.13000011
   10.94499969  308.67700195    1.98000002    2.13000011
   10.94833374  279.16900635    2.00000000    2.15000010
   10.95166683  270.64001465    1.98000002    2.15000010
   10.95472240  295.53298950    1.98000002    2.15000010
   10.95805550  299.24398804    1.96000004    2.17000008
   10.96138859  298.52700806    1.96000004    2.17000008
   10.96444416  314.47198486    1.94000006    2.15000010
   10.96777725  293.54998779    1.94000006    2.15000010
   10.97083282  288.39498901    1.94000006    2.17000008
   10.97333336  280.52499390    1.91999996    2.17000008
   10.97444439  264.65600586    1.91999996    2.17000008
   10.97777748  281.97500610    1.91999996    2.17000008
   10.98388958  281.97500610    1.91999996    2.17000008
   10.98805618  289.65301514    1.89999998    2.17000008
   10.99111176  265.90200806    1.89999998    2.17000008
   10.99444485  291.39801025    1.89999998    2.17000008
   10.99777794  275.96099854    1.89999998    2.19000006
   11.00083351  295.87600708    1.89999998    2.19000006
   11.00416660  294.77700806    1.89999998    2.19000006
   11.00666714  298.48800659    1.89999998    2.19000006
   11.00777817  285.23901367    1.89999998    2.19000006
   11.01111126  281.99301147    1.89999998    2.19000006
   11.01444435  273.47000122    1.88000000    2.19000006
   11.01749992  305.14199829    1.89999998    2.19000006
   11.02083302  301.57598877    1.88000000    2.21000004
   11.02666664  301.57598877    1.88000000    2.21000004
   11.03083324  280.49600220    1.88000000    2.21000004
   11.03416729  261.39498901    1.88000000    2.21000004
   11.03722286  279.96899414    1.88000000    2.21000004
   11.04000092  285.75698853    1.88000000    2.21000004
   11.04083347  293.52600098    1.88000000    2.21000004
   11.04416752  258.54699707    1.88000000    2.23000002
   11.04750061  264.96701050    1.88000000    2.23000002
   11.05055618  268.57299805    1.88000000    2.21000004
   11.05388927  284.84500122    1.88000000    2.23000002
   11.05722237  279.16699219    1.88000000    2.23000002
   11.06027794  306.06698608    1.88000000    2.23000002
   11.06361103  276.88000488    1.88000000    2.23000002
   11.06944466  276.88000488    1.88000000    2.23000002
   11.07361126  258.50500488    1.88000000    2.23000002
   11.07694435  259.69799805    1.88000000    2.23000002
   11.07999992  300.54000854    1.89999998    2.23000002
   11.08333302  275.72399902    1.88000000    2.23000002
   11.08666611  282.02301025    1.88000000    2.25000000
   11.09000015  280.90798950    1.88000000    2.25000000
   11.09305477  263.94900513    1.88000000    2.25000000
   11.09638882  282.65200806    1.88000000    2.25000000
   11.09972191  261.67300415    1.86000001    2.25000000
   11.10277843  264.19799805    1.86000001    2.25000000
   11.10611153  279.84201050    1.85000002    2.25000000
   11.10666752  287.05899048    1.85000002    2.25000000
   11.11250019  287.05899048    1.85000002    2.26999998
   11.11666679  270.23800659    1.85000002    2.26999998
   11.11972237  271.79998779    1.85000002    2.26999998
   11.12305546  277.78500366    1.85000002    2.26999998
   11.12611103  273.42800903    1.83000004    2.26999998
   11.12944412  277.35900879    1.83000004    2.26999998
   11.13277817  277.55899048    1.83000004    2.26999998
   11.13583279  277.82400513    1.80999994    2.26999998
   11.13916683  278.80801392    1.80999994    2.28999996
   11.14000034  270.10800171    1.80999994    2.28999996
   11.14305496  286.34698486    1.80999994    2.28999996
   11.14611053  276.12399292    1.78999996    2.28999996
   11.14944458  282.07000732    1.78999996    2.28999996
   11.15527725  282.07000732    1.76999998    2.28999996
   11.15944386  262.85000610    1.78999996    2.28999996
   11.16249943  271.50399780    1.76999998    2.28999996
   11.16583252  270.95401001    1.76999998    2.28999996
   11.16916656  253.85299683    1.76999998    2.30999994
   11.17222214  264.39999390    1.76999998    2.30999994
   11.17333412  256.76699829    1.76999998    2.30999994
   11.17611122  258.01800537    1.76999998    2.30999994
   11.17916679  247.77400208    1.76999998    2.30999994
   11.18249989  257.79501343    1.76999998    2.30999994
   11.18555546  283.08999634    1.75000000    2.30999994
   11.18888855  264.34600830    1.75000000    2.30999994
   11.19222260  286.03601074    1.76999998    2.30999994
   11.19805527  286.03601074    1.75000000    2.32999992
   11.20222187  279.53698730    1.75000000    2.30999994
   11.20555496  287.98699951    1.75000000    2.30999994
   11.20666695  276.32199097    1.75000000    2.32999992
   11.20916653  251.80200195    1.75000000    2.32999992
   11.21222210  260.17001343    1.73000002    2.30999994
   11.21555519  272.66799927    1.73000002    2.30999994
   11.21888828  275.36700439    1.73000002    2.32999992
   11.22194386  273.50698853    1.71000004    2.32999992
   11.22527695  260.58599854    1.71000004    2.32999992
   11.22861099  260.22500610    1.71000004    2.32999992
   11.23166656  271.86199951    1.71000004    2.32999992
   11.23500061  265.62200928    1.69000006    2.32999992
   11.24083328  265.62200928    1.63000000    2.34999990
   11.24499989  288.57199097    1.63000000    2.32999992
   11.24833393  250.12100220    1.63000000    2.34999990
   11.25138855  243.86099243    1.63000000    2.34999990
   11.25472260  267.92599487    1.58000004    2.34999990
   11.25805569  257.79501343    1.55999994    2.34999990
   11.26111126  270.94500732    1.53999996    2.34999990
   11.26444435  246.29800415    1.53999996    2.34999990
   11.26777744  238.39700317    1.53999996    2.36999989
   11.27083302  261.27801514    1.51999998    2.36999989
   11.27333355  252.76499939    1.51999998    2.36999989
   11.27472210  242.46899414    1.50000000    2.34999990
   11.27861118  293.61199951    1.50000000    2.36999989
   11.28388977  293.61199951    1.50000000    2.36999989
   11.28777790  271.51501465    1.48000002    2.36999989
   11.29111195  259.85198975    1.48000002    2.36999989
   11.29444504  258.93499756    1.48000002    2.36999989
   11.29750061  245.17100525    1.50000000    2.36999989
   11.30083370  246.04800415    1.48000002    2.36999989
   11.30416679  250.82099915    1.48000002    2.36999989
   11.30666733  254.16400146    1.48000002    2.36999989
   11.30777836  257.19500732    1.48000002    2.36999989
   11.31083393  255.08299255    1.46000004    2.36999989
   11.31416702  250.87500000    1.46000004    2.36999989
   11.31722260  253.06100464    1.44000006    2.36999989
   11.32055569  245.72300720    1.44000006    2.36999989
   11.32666683  245.72300720    1.39999998    2.39000010
   11.33083344  248.48599243    1.39999998    2.39000010
   11.33388901  239.26300049    1.39999998    2.39000010
   11.33722210  240.54699707    1.41999996    2.39000010
   11.34000015  248.16700745    1.41999996    2.40000010
   11.34083271  262.47601318    1.41999996    2.39000010
   11.34388828  245.89900208    1.41999996    2.39000010
   11.34722233  266.01699829    1.41999996    2.39000010
   11.35027790  258.62399292    1.41999996    2.39000010
   11.35361195  260.97399902    1.41999996    2.39000010
   11.35694504  251.33599854    1.39999998    2.39000010
   11.36000061  267.57000732    1.39999998    2.39000010
   11.36333370  264.91500854    1.39999998    2.39000010
   11.36944485  264.91500854    1.39999998    2.40000010
   11.37361145  229.61199951    1.39999998    2.40000010
   11.37694454  230.23100281    1.39999998    2.40000010
   11.38000011  243.83799744    1.38000000    2.40000010
   11.38333321  267.10998535    1.36000001    2.40000010
   11.38666630  246.89999390    1.30999994    2.40000010
   11.38972187  252.61099243    1.28999996    2.40000010
   11.39305496  249.61500549    1.30999994    2.40000010
   11.39611053  246.54100037    1.30999994    2.40000010
   11.39944458  241.64999390    1.26999998    2.40000010
   11.40277767  235.58599854    1.25000000    2.42000008
   11.40583324  267.52200317    1.23000002    2.42000008
   11.40666676  241.39300537    1.23000002    2.42000008
   11.41222191  241.39300537    1.23000002    2.40000010
   11.41638851  234.38600159    1.19000006    2.42000008
   11.41972256  221.89599609    1.14999998    2.42000008
   11.42277813  243.08599854    1.13000000    2.42000008
   11.42611122  230.36500549    1.09000003    2.42000008
   11.42944431  248.80900574    1.09000003    2.42000008
   11.43249989  245.28900146    1.09000003    2.42000008
   11.43583298  241.88800049    1.09000003    2.44000006
   11.43916702  248.63600159    1.07000005    2.42000008
   11.44000053  236.96499634    1.07000005    2.42000008
   11.44277763  248.54699707    1.03999996    2.44000006
   11.44583321  232.83399963    1.03999996    2.44000006
   11.44916630  239.73599243    1.03999996    2.44000006
   11.45527744  239.73599243    1.01999998    2.44000006
   11.45916653  234.98100281    1.01999998    2.44000006
   11.46249962  220.08900452    0.98000002    2.44000006
   11.46583271  235.67500305    0.98000002    2.46000004
   11.46888828  209.41600037    0.98000002    2.44000006
   11.47222137  228.98500061    0.98000002    2.44000006
   11.47333336  234.88900757    0.98000002    2.44000006
   11.47583294  203.89900208    0.98000002    2.44000006
   11.47888851  253.59599304    0.98000002    2.44000006
   11.48222160  249.56399536    0.95999998    2.44000006
   11.48555565  240.13499451    0.98000002    2.44000006
   11.48861122  252.56700134    1.00000000    2.46000004
   11.49194431  223.16499329    1.01999998    2.46000004
   11.49805546  223.16499329    1.01999998    2.46000004
   11.50222206  244.10299683    1.01999998    2.46000004
   11.52083302  246.52699280    1.01999998    2.46000004
   11.52194405  238.62899780    1.01999998    2.46000004
   11.52499962  226.53999329    1.01999998    2.46000004
   11.52833271  221.07400513    1.01999998    2.46000004
   11.53166676  232.91999817    1.01999998    2.46000004
   11.53472233  215.50900269    1.01999998    2.46000004
   11.54111195  215.50900269    1.01999998    2.48000002
   11.54527855  240.58299255    1.01999998    2.46000004
   11.54833412  244.20199585    1.00000000    2.48000002
   11.55166721  219.11199951    1.00000000    2.48000002
   11.55416679  252.14799500    1.00000000    2.48000002
   11.55555534  229.51800537    1.00000000    2.48000002
   11.55861092  243.87899780    1.00000000    2.48000002
   11.56194496  245.27200317    0.98000002    2.48000002
   11.56500053  236.53300476    0.98000002    2.48000002
   11.56833363  241.06799316    0.98000002    2.48000002
   11.57166672  225.42100525    0.98000002    2.48000002
   11.57472229  224.04499817    1.01999998    2.50000000
   11.57805538  222.65100098    1.01999998    2.48000002
   11.58388901  222.65100098    1.03999996    2.48000002
   11.58805561  207.76100159    1.05999994    2.48000002
   11.59138870  206.39999390    1.01999998    2.50000000
   11.59444427  232.18099976    1.01999998    2.50000000
   11.59777737  208.92799377    1.00000000    2.50000000
   11.60083389  223.81199646    1.00000000    2.50000000
   11.60416698  227.12899780    1.00000000    2.50000000
   11.60750008  207.43299866    1.00000000    2.50000000
   11.61055565  242.74800110    1.00000000    2.50000000
   11.61388969  224.69799805    1.01999998    2.50000000
   11.61722279  242.40299988    1.01999998    2.50000000
   11.62027836  216.32899475    1.01999998    2.51999998
   11.62083340  202.15699768    1.01999998    2.51999998
   11.62666702  202.15699768    1.03999996    2.50000000
   11.63083363  213.83799744    1.03999996    2.50000000
   11.63416672  226.86599731    1.03999996    2.50000000
   11.63722229  229.19999695    1.01999998    2.50000000
   11.64055538  215.96000671    1.01999998    2.50000000
   11.64388847  217.17799377    1.01999998    2.50000000
   11.64694405  198.60400391    1.01999998    2.50000000
   11.65027714  220.58299255    0.98000002    2.50000000
   11.65361118  202.33200073    0.95999998    2.51999998
   11.65416622  208.39999390    0.95999998    2.51999998
   11.65722179  213.27299500    0.95999998    2.50000000
   11.66027737  201.39599609    0.95999998    2.50000000
   11.66361046  210.49499512    0.95999998    2.51999998
   11.66972256  210.49499512    0.94000000    2.51999998
   11.67361164  203.28399658    0.94000000    2.51999998
   11.67694473  221.32299805    0.94000000    2.51999998
   11.68027782  212.61799622    0.94000000    2.51999998
   11.68333340  199.43299866    0.95999998    2.51999998
   11.68666649  218.97399902    0.94000000    2.51999998
   11.68750000  228.51199341    0.94000000    2.51999998
   11.69027805  203.43400574    0.94000000    2.51999998
   11.69333363  212.91299438    0.95999998    2.53999996
   11.69666672  220.02099609    0.94000000    2.51999998
   11.69999981  208.40100098    0.94000000    2.51999998
   11.70305538  216.88000488    0.92000002    2.51999998
   11.70638847  209.45199585    0.89999998    2.53999996
   11.71249962  209.45199585    0.88000000    2.51999998
   11.71666622  213.63600159    0.86000001    2.53999996
   11.71972179  221.17500305    0.86000001    2.53999996
   11.72083282  215.70399475    0.86000001    2.53999996
   11.72361088  204.93499756    0.86000001    2.53999996
   11.72666645  219.04400635    0.88000000    2.53999996
   11.72999954  226.71600342    0.88000000    2.53999996
   11.73333359  231.82200623    0.88000000    2.53999996
   11.73638916  219.79299927    0.88000000    2.53999996
   11.73972225  216.45899963    0.88000000    2.53999996
   11.74305534  222.87699890    0.88000000    2.53999996
   11.74611092  203.71600342    0.88000000    2.53999996
   11.74944496  233.97000122    0.88000000    2.53999996
   11.75527763  233.97000122    0.88000000    2.53999996
   11.75944424  229.94799805    0.88000000    2.53999996
   11.76277733  210.22599792    0.88000000    2.55999994
   11.76583290  225.92799377    0.88000000    2.53999996
   11.76916599  199.36000061    0.88000000    2.53999996
   11.77222157  205.58999634    0.88000000    2.55999994
   11.77555561  220.45700073    0.83999997    2.55999994
   11.77888870  203.53199768    0.83999997    2.55999994
   11.78194427  213.25599670    0.83999997    2.53999996
   11.78527832  215.81100464    0.83999997    2.55999994
   11.78750038  185.20500183    0.86000001    2.55999994
   11.78888893  208.84700012    0.86000001    2.55999994
   11.79194450  220.89199829    0.86000001    2.55999994
   11.79805565  220.89199829    0.86000001    2.55999994
   11.80222225  209.71600342    0.86000001    2.55999994
   11.80555534  190.17700195    0.86000001    2.55999994
   11.80888939  202.49099731    0.86000001    2.55999994
   11.81194496  195.75799561    0.86000001    2.55999994
   11.81527805  209.92799377    0.81999999    2.55999994
   11.81833363  194.38299561    0.80000001    2.55999994
   11.82083321  202.60899353    0.79000002    2.55999994
   11.82222176  183.09300232    0.79000002    2.55999994
   11.82555580  196.39500427    0.76999998    2.55999994
   11.82861137  203.01300049    0.75000000    2.57999992
   11.83194447  210.49699402    0.75000000    2.57999992
   11.83500004  207.73800659    0.75000000    2.57999992
   11.84111118  207.73800659    0.75000000    2.57999992
   11.84499931  205.06700134    0.75000000    2.57999992
   11.84833336  194.76499939    0.73000002    2.57999992
   11.85166740  191.64700317    0.73000002    2.57999992
   11.85416698  206.03500366    0.75000000    2.57999992
   11.85527802  212.73100281    0.75000000    2.57999992
   11.85833359  205.53500366    0.75000000    2.59999990
   11.86166668  198.57600403    0.75000000    2.57999992
   11.86500072  194.58200073    0.75000000    2.59999990
   11.86805534  194.30599976    0.75000000    2.57999992
   11.87138939  201.37100220    0.75000000    2.57999992
   11.87472248  199.15899658    0.76999998    2.57999992
   11.87777805  213.66000366    0.79000002    2.57999992
   11.88388920  213.66000366    0.76999998    2.57999992
   11.88805580  194.77000427    0.79000002    2.57999992
   11.89111137  200.06599426    0.79000002    2.57999992
   11.89444447  194.99899292    0.79000002    2.57999992
   11.89777756  207.87899780    0.79000002    2.59999990
   11.90083313  199.24400330    0.76999998    2.59999990
   11.90416622  195.52000427    0.76999998    2.59999990
   11.90749931  187.31300354    0.79000002    2.59999990
   11.91055489  190.68499756    0.79000002    2.59999990
   11.91388893  195.59399414    0.76999998    2.59999990
   11.91694450  204.70300293    0.73000002    2.59999990
   11.92027855  197.32499695    0.75000000    2.59999990
   11.92083359  190.94099426    0.75000000    2.59999990
   11.92666721  190.94099426    0.73000002    2.59999990
   11.93083382  195.52400208    0.73000002    2.59999990
   11.93416691  190.43400574    0.73000002    2.61999989
   11.93722248  196.12600708    0.73000002    2.61999989
   11.94055557  200.93499756    0.70999998    2.59999990
   11.94361115  193.33900452    0.67000002    2.59999990
   11.94694424  193.21600342    0.64999998    2.59999990
   11.95027733  199.26600647    0.67000002    2.61999989
   11.95333290  202.69400024    0.67000002    2.59999990
   11.95416641  186.50799561    0.67000002    2.59999990
   11.95694447  195.16400146    0.67000002    2.59999990
   11.96027756  199.04299927    0.69000000    2.61999989
   11.96333313  195.14399719    0.70999998    2.61999989
   11.96944427  195.14399719    0.70999998    2.61999989
   11.97361088  203.18699646    0.73000002    2.61999989
   11.97694397  194.15100098    0.75000000    2.61999989
   11.97999954  196.85899353    0.75000000    2.61999989
   11.98333359  191.95300293    0.75000000    2.61999989
   11.98666668  198.08200073    0.75000000    2.61999989
   11.98750019  183.24200439    0.76999998    2.61999989
   11.99027824  190.63400269    0.75000000    2.61999989
   11.99361134  194.07000732    0.76999998    2.61999989
   11.99666691  189.22700500    0.75000000    2.64000010
   12.00000000  190.14999390    0.75000000    2.64000010
   12.00305557  170.12899780    0.75000000    2.64000010
   12.00638866  192.71800232    0.75000000    2.61999989
   12.01222229  192.71800232    0.75000000    2.61999989
   12.01638889  188.01800537    0.75000000    2.61999989
   12.01972198  167.34100342    0.75000000    2.61999989
   12.02083302  189.92900085    0.73000002    2.64000010
   12.02333355  180.99499512    0.73000002    2.64000010
   12.02666664  185.12899780    0.73000002    2.64000010
   12.02972221  195.00399780    0.70999998    2.64000010
   12.03305531  183.50199890    0.69000000    2.64000010
   12.03638935  189.21600342    0.70999998    2.61999989
   12.03944492  183.49099731    0.70999998    2.61999989
   12.04277802  190.06399536    0.70999998    2.61999989
   12.04583359  183.56700134    0.70999998    2.59999990
   12.04916668  180.63800049    0.73000002    2.61999989
   12.05527782  180.63800049    0.75000000    2.64000010
   12.05944443  174.90199280    0.73000002    2.64000010
   12.06250000  166.40100098    0.73000002    2.64000010
   12.06583309  168.89999390    0.73000002    2.64000010
   12.06916618  164.34700012    0.73000002    2.64000010
   12.07222176  174.23699951    0.70999998    2.64000010
   12.07555580  181.80999756    0.70999998    2.64000010
   12.07861137  181.58200073    0.73000002    2.64000010
   12.08194447  183.61799622    0.73000002    2.64000010
   12.08527756  179.17799377    0.73000002    2.64000010
   12.08749962  188.10899353    0.73000002    2.66000009
   12.08888817  183.25599670    0.73000002    2.66000009
   12.09222221  175.07699585    0.70999998    2.64000010
   12.09805489  175.07699585    0.70999998    2.64000010
   12.10222244  170.85600281    0.70999998    2.66000009
   12.10527802  184.70199585    0.70999998    2.64000010
   12.10861111  166.59500122    0.70999998    2.64000010
   12.11194515  175.38099670    0.70999998    2.64000010
   12.11500072  169.05000305    0.70999998    2.66000009
   12.11833382  193.48500061    0.70999998    2.66000009
   12.12083340  237.83799744    0.70999998    2.66000009
   12.12194443  240.58599854    0.70999998    2.66000009
   12.12527752  312.27899170    0.70999998    2.66000009
   12.12833309  424.92498779    0.73000002    2.64000010
   12.13055611  447.99099731    0.73000002    2.64000010
   12.13166714  439.29598999    0.73000002    2.64000010
   12.13305569  391.97000122    0.73000002    2.64000010
   12.13444424  416.97198486    0.73000002    2.64000010
   12.13583279  390.79299927    0.75000000    2.66000009
   12.13722229  371.23400879    0.75000000    2.66000009
   12.13861084  405.67199707    0.75000000    2.66000009
   12.14000034  384.35998535    0.75000000    2.66000009
   12.14138889  384.89498901    0.75000000    2.66000009
   12.14277744  416.23800659    0.75000000    2.66000009
   12.14416695  342.28100586    0.75000000    2.66000009
   12.14444447  424.92498779    0.73000002    2.64000010
   12.14444447  170.85600281    0.70999998    2.66000009
   12.14472198  184.70199585    0.70999998    2.64000010
   12.14472198  166.59500122    0.70999998    2.64000010
   12.14472198  175.38099670    0.70999998    2.64000010
   12.14499950  169.05000305    0.70999998    2.66000009
   12.14499950  193.48500061    0.70999998    2.66000009
   12.14499950  240.58599854    0.70999998    2.66000009
   12.14527798  312.27899170    0.70999998    2.66000009
   12.14583302  345.52700806    0.75000000    2.66000009
   12.14888859  345.53601074    0.73000002    2.66000009
   12.15222168  333.36898804    0.70999998    2.66000009
   12.15555477  326.01098633    0.70999998    2.66000009
   12.15861034  317.06600952    0.70999998    2.66000009
   12.16499996  317.06600952    0.73000002    2.66000009
   12.16916656  286.54800415    0.73000002    2.66000009
   12.17250061  283.68200684    0.73000002    2.67000008
   12.17555618  293.98901367    0.73000002    2.66000009
   12.17805576  279.70901489    0.73000002    2.66000009
   12.17944431  277.34799194    0.73000002    2.66000009
   12.18277836  291.71499634    0.73000002    2.66000009
   12.18583298  274.45001221    0.73000002    2.66000009
   12.18916702  263.21899414    0.73000002    2.66000009
   12.19250011  237.76300049    0.73000002    2.66000009
   12.19555569  254.29400635    0.75000000    2.66000009
   12.19888878  243.78300476    0.75000000    2.66000009
   12.20194435  261.04800415    0.75000000    2.67000008
   12.20805550  261.04800415    0.75000000    2.67000008
   12.21194458  233.89199829    0.75000000    2.66000009
   12.21527767  221.89199829    0.75000000    2.67000008
   12.21861076  216.32000732    0.75000000    2.66000009
   12.22166634  212.95899963    0.75000000    2.66000009
   12.22499943  210.10299683    0.75000000    2.67000008
   12.22833252  217.12300110    0.76999998    2.67000008
   12.23138809  225.59199524    0.76999998    2.67000008
   12.23472214  182.15100098    0.79000002    2.67000008
   12.23777771  217.12300110    0.79000002    2.67000008
   12.24111176  206.17300415    0.79000002    2.67000008
   12.24444485  181.43400574    0.79000002    2.67000008
   12.24499989  205.13600159    0.76999998    2.67000008
   12.25083351  205.13600159    0.76999998    2.67000008
   12.25500011  207.73800659    0.76999998    2.67000008
   12.25805569  197.52699280    0.76999998    2.67000008
   12.26138878  194.66799927    0.76999998    2.66000009
   12.26472187  170.88000488    0.76999998    2.67000008
   12.26777744  185.48199463    0.76999998    2.67000008
   12.27111053  178.80000305    0.76999998    2.67000008
   12.27416611  177.40199280    0.75000000    2.67000008
   12.27750015  176.73300171    0.75000000    2.67000008
   12.27833271  180.66799927    0.75000000    2.67000008
   12.28111076  169.83299255    0.75000000    2.67000008
   12.28444481  170.51499939    0.75000000    2.67000008
   12.28777790  161.71699524    0.75000000    2.67000008
   12.29361153  161.71699524    0.75000000    2.67000008
   12.29777813  134.72999573    0.75000000    2.67000008
   12.30111122  170.24299622    0.75000000    2.67000008
   12.30416679  173.75399780    0.75000000    2.67000008
   12.30749989  154.20399475    0.76999998    2.67000008
   12.31083393  158.04600525    0.76999998    2.69000006
   12.31166649  177.41200256    0.76999998    2.69000006
   12.31444454  163.63600159    0.76999998    2.69000006
   12.31777763  158.80299377    0.76999998    2.67000008
   12.32111073  165.00300598    0.76999998    2.67000008
   12.32416630  165.59899902    0.76999998    2.69000006
   12.32750034  165.05000305    0.76999998    2.69000006
   12.33055592  169.15800476    0.76999998    2.69000006
   12.33638859  169.15800476    0.75000000    2.69000006
   12.34055519  171.32400513    0.75000000    2.69000006
   12.34388828  167.14900208    0.75000000    2.69000006
   12.34499931  176.74000549    0.75000000    2.69000006
   12.34749985  182.01100159    0.75000000    2.69000006
   12.35083389  168.66099548    0.73000002    2.69000006
   12.35416698  164.67300415    0.70999998    2.69000006
   12.35722256  174.58500671    0.70999998    2.69000006
   12.36055565  174.78399658    0.70999998    2.69000006
   12.36361122  169.51100159    0.70999998    2.71000004
   12.36694431  169.01600647    0.70999998    2.69000006
   12.37027836  169.17399597    0.70999998    2.69000006
   12.37333393  160.84300232    0.70999998    2.69000006
   12.37944412  160.84300232    0.73000002    2.69000006
   12.38333321  159.21699524    0.73000002    2.69000006
   12.38666630  177.14700317    0.73000002    2.71000004
   12.39000034  174.50599670    0.73000002    2.69000006
   12.39333344  167.39900208    0.70999998    2.69000006
   12.39638901  184.84500122    0.70999998    2.69000006
   12.39972210  175.88499451    0.69000000    2.69000006
   12.40277767  184.23100281    0.63000000    2.69000006
   12.40611076  188.69900513    0.64999998    2.71000004
   12.40944386  178.79800415    0.63000000    2.69000006
   12.41166592  191.44599915    0.63000000    2.69000006
   12.41277695  179.86000061    0.64999998    2.71000004
   12.41611099  150.03900146    0.69000000    2.71000004
   12.42222214  150.03900146    0.69000000    2.69000006
   12.42638874  169.86300659    0.69000000    2.69000006
   12.42944431  181.31300354    0.67000002    2.71000004
   12.43277836  178.50599670    0.67000002    2.71000004
   12.43611145  187.85699463    0.67000002    2.71000004
   12.43916702  173.13699341    0.64999998    2.69000006
   12.44250011  187.71499634    0.64999998    2.71000004
   12.44499969  172.34500122    0.64999998    2.71000004
   12.44611073  184.17999268    0.64999998    2.71000004
   12.44944477  178.35499573    0.64999998    2.71000004
   12.45277786  174.02499390    0.69000000    2.71000004
   12.45583344  177.16499329    0.69000000    2.71000004
   12.45916653  172.22900391    0.70999998    2.71000004
   12.46500015  172.22900391    0.79000002    2.71000004
   12.46916580  193.96600342    0.80000001    2.69000006
   12.47249985  199.68200684    0.89999998    2.71000004
   12.47555542  169.70399475    0.89999998    2.71000004
   12.47833252  190.32800293    0.89999998    2.71000004
   12.47916603  184.88400269    0.89999998    2.71000004
   12.48249912  190.99499512    0.89999998    2.69000006
   12.48583317  192.26400757    0.92000002    2.69000006
   12.48888874  175.02299500    0.92000002    2.69000006
   12.49222279  180.66299438    0.92000002    2.71000004
   12.49527836  173.02400208    0.88000000    2.71000004
   12.49861145  192.45500183    0.88000000    2.69000006
   12.50194454  179.55299377    0.89999998    2.71000004
   12.50777817  179.55299377    0.88000000    2.71000004
   12.51194477  183.70799255    0.86000001    2.73000002
   12.51527786  179.70599365    0.81999999    2.71000004
   12.51833344  180.05200195    0.81999999    2.71000004
   12.53777790  181.38600159    0.79000002    2.71000004
   12.54111195  179.50799561    0.76999998    2.73000002
   12.54444504  173.07899475    0.76999998    2.71000004
   12.54500008  175.62699890    0.76999998    2.71000004
   12.55083370  175.62699890    0.76999998    2.73000002
   12.55500031  174.01600647    0.81999999    2.73000002
   12.55833340  191.55200195    0.81999999    2.71000004
   12.56166649  197.80900574    0.81999999    2.71000004
   12.56472206  158.70199585    0.83999997    2.73000002
   12.56805515  181.84500122    0.81999999    2.73000002
   12.57111073  174.44500732    0.79000002    2.73000002
   12.57444477  180.09300232    0.79000002    2.71000004
   12.57777786  191.96800232    0.79000002    2.71000004
   12.57833290  156.33599854    0.79000002    2.71000004
   12.58138847  167.26300049    0.79000002    2.71000004
   12.58472157  186.63200378    0.76999998    2.71000004
   12.58777714  175.08200073    0.79000002    2.73000002
   12.59388828  175.08200073    0.75000000    2.73000002
   12.59805489  188.31100464    0.69000000    2.73000002
   12.60111141  184.02999878    0.69000000    2.73000002
   12.60444450  191.35600281    0.69000000    2.73000002
   12.60750008  185.87699890    0.70999998    2.73000002
   12.61083412  183.57699585    0.70999998    2.73000002
   12.61166668  173.88800049    0.70999998    2.73000002
   12.61444473  174.37500000    0.69000000    2.73000002
   12.61777782  169.63499451    0.73000002    2.73000002
   12.62083340  164.45399475    0.73000002    2.73000002
   12.62416649  176.83799744    0.73000002    2.73000002
   12.62750053  161.34199524    0.73000002    2.73000002
   12.63055611  181.64500427    0.73000002    2.73000002
   12.63666630  181.64500427    0.75000000    2.73000002
   12.64083290  173.96499634    0.75000000    2.73000002
   12.64388847  199.45799255    0.75000000    2.73000002
   12.64499950  205.92300415    0.76999998    2.73000002
   12.64750004  173.09700012    0.79000002    2.75000000
   12.65083313  180.20500183    0.79000002    2.73000002
   12.65388870  185.73199463    0.76999998    2.73000002
   12.65722179  187.57899475    0.76999998    2.75000000
   12.66055489  184.31399536    0.76999998    2.73000002
   12.66361046  185.65499878    0.76999998    2.73000002
   12.66694450  162.75900269    0.76999998    2.73000002
   12.67000008  188.68200684    0.76999998    2.73000002
   12.67333412  166.03799438    0.75000000    2.73000002
   12.67944431  166.03799438    0.76999998    2.71000004
   12.68361092  183.44200134    0.79000002    2.73000002
   12.68694496  175.26899719    0.79000002    2.73000002
   12.69000053  170.85800171    0.80000001    2.75000000
   12.69333363  179.11199951    0.79000002    2.73000002
   12.69638920  181.08700562    0.80000001    2.75000000
   12.69972229  187.96299744    0.81999999    2.75000000
   12.70305538  166.16499329    0.81999999    2.73000002
   12.70611095  191.35299683    0.81999999    2.73000002
   12.70944405  175.98699951    0.83999997    2.75000000
   12.71166611  177.41999817    0.75000000    2.75000000
   12.71305561  180.07099915    0.75000000    2.73000002
   12.71638870  172.70300293    0.75000000    2.75000000
   12.72222137  172.70300293    0.75000000    2.75000000
   12.72638798  183.10299683    0.75000000    2.75000000
   12.72972202  158.41900635    0.75000000    2.75000000
   12.73277760  173.08999634    0.75000000    2.75000000
   12.73611164  178.38400269    0.73000002    2.75000000
   12.73944473  170.72399902    0.75000000    2.75000000
   12.74250031  177.28500366    0.75000000    2.75000000
   12.74499989  169.39100647    0.73000002    2.73000002
   12.74611092  169.68099976    0.73000002    2.73000002
   12.74944496  180.46800232    0.73000002    2.75000000
   12.75249958  176.26699829    0.75000000    2.75000000
   12.75583363  180.88800049    0.73000002    2.75000000
   12.75916672  170.17500305    0.73000002    2.75000000
   12.76527786  170.17500305    0.73000002    2.75000000
   12.76916599  169.24800110    0.73000002    2.75000000
   12.77250004  170.96499634    0.73000002    2.75000000
   12.77583313  187.43499756    0.73000002    2.75000000
   12.77833271  178.20500183    0.73000002    2.75000000
   12.77944374  169.99499512    0.73000002    2.75000000
   12.78277779  182.85899353    0.73000002    2.75000000
   12.78583336  185.72099304    0.75000000    2.75000000
   12.78916740  190.15299988    0.73000002    2.75000000
   12.79250050  172.50799561    0.73000002    2.75000000
   12.79555607  174.71000671    0.73000002    2.75000000
   12.79888916  183.68800354    0.73000002    2.75000000
   12.80194473  175.30499268    0.70999998    2.75000000
   12.80805588  175.30499268    0.70999998    2.76999998
   12.81222248  200.41200256    0.73000002    2.75000000
   12.81527805  189.60200500    0.73000002    2.75000000
   12.81861115  175.00999451    0.73000002    2.75000000
   12.82194424  200.58000183    0.75000000    2.75000000
   12.82499981  184.60600281    0.75000000    2.76999998
   12.82833290  178.64999390    0.76999998    2.76999998
   12.83166695  184.40199280    0.76999998    2.76999998
   12.83472157  189.55099487    0.76999998    2.75000000
   12.83805561  186.33999634    0.76999998    2.75000000
   12.84138870  182.64300537    0.76999998    2.75000000
   12.84444427  189.33500671    0.79000002    2.76999998
   12.84527779  183.71499634    0.79000002    2.75000000
   12.85083389  183.71499634    0.79000002    2.76999998
   12.85500050  186.13099670    0.79000002    2.75000000
   12.85833359  181.85099792    0.79000002    2.76999998
   12.86138916  185.55700684    0.79000002    2.76999998
   12.86472225  172.30499268    0.79000002    2.75000000
   12.86833382  183.51199341    0.79000002    2.76999998
   12.87138939  186.59500122    0.79000002    2.76999998
   12.87472248  178.89700317    0.75000000    2.76999998
   12.87777805  176.85000610    0.75000000    2.75000000
   12.87861156  179.04699707    0.75000000    2.75000000
   12.88138866  184.33900452    0.73000002    2.76999998
   12.88472176  186.37399292    0.70999998    2.76999998
   12.88777733  177.93699646    0.70999998    2.75000000
   12.89361095  177.93699646    0.69000000    2.76999998
   12.89777756  175.54800415    0.69000000    2.76999998
   12.90111065  178.17999268    0.69000000    2.76999998
   12.90416622  192.58299255    0.70999998    2.76999998
   12.90749931  176.06199646    0.70999998    2.76999998
   12.91083336  181.47700500    0.70999998    2.75000000
   12.91194439  197.03999329    0.70999998    2.76999998
   12.91444397  177.00599670    0.70999998    2.76999998
   12.91777802  176.58299255    0.73000002    2.76999998
   12.92083359  192.44599915    0.73000002    2.76999998
   12.92416668  194.77400208    0.70999998    2.76999998
   12.92750072  190.44599915    0.70999998    2.76999998
   12.93055630  173.89100647    0.73000002    2.75000000
   12.93666649  173.89100647    0.75000000    2.76999998
   12.94083309  159.50100708    0.75000000    2.76999998
   12.94416714  176.03199768    0.76999998    2.75000000
   12.94527817  180.31500244    0.76999998    2.75000000
   12.94777775  181.24600220    0.76999998    2.75000000
   12.95111084  170.37600708    0.80000001    2.76999998
   12.95444393  190.63299561    0.80000001    2.76999998
   12.95749950  175.30499268    0.80000001    2.76999998
   12.96083355  175.95399475    0.80000001    2.75000000
   12.96388912  181.57400513    0.76999998    2.76999998
   12.96722221  154.03399658    0.79000002    2.76999998
   12.97055531  174.42999268    0.80000001    2.76999998
   12.97361088  177.09100342    0.80000001    2.76999998
   12.97944355  177.09100342    0.83999997    2.76999998
   12.98361111  169.67300415    0.83999997    2.76999998
   12.98666668  188.17700195    0.83999997    2.76999998
   12.99000072  158.63200378    0.83999997    2.76999998
   12.99333382  179.91099548    0.83999997    2.76999998
   12.99638939  175.92199707    0.83999997    2.78999996
   12.99972248  177.21899414    0.86000001    2.78999996
   13.00277805  169.77499390    0.86000001    2.76999998
   13.00611115  164.81199646    0.83999997    2.76999998
   13.00944424  171.41600037    0.83999997    2.76999998
   13.01194477  179.28900146    0.81999999    2.78999996
   13.01305580  175.13299561    0.81999999    2.78999996
   13.01638889  169.47099304    0.81999999    2.76999998
   13.02222157  169.47099304    0.81999999    2.76999998
   13.02638817  173.20100403    0.81999999    2.78999996
   13.02972221  188.09899902    0.81999999    2.76999998
   13.03277779  175.33599854    0.81999999    2.78999996
   13.03611183  171.87399292    0.81999999    2.78999996
   13.03916740  172.56300354    0.80000001    2.78999996
   13.04250050  178.02200317    0.80000001    2.78999996
   13.04527855  171.81500244    0.80000001    2.78999996
   13.04611111  170.15499878    0.80000001    2.78999996
   13.04944515  181.07699585    0.81999999    2.78999996
   13.05277824  173.74400330    0.81999999    2.78999996
   13.05583382  193.99099731    0.81999999    2.76999998
   13.05916691  172.72300720    0.80000001    2.76999998
   13.06500053  172.72300720    0.79000002    2.78999996
   13.06916618  182.60600281    0.79000002    2.78999996
   13.07250023  167.06300354    0.79000002    2.76999998
   13.07555580  170.31500244    0.79000002    2.78999996
   13.07861137  184.62800598    0.79000002    2.78999996
   13.07916641  178.22900391    0.76999998    2.78999996
   13.08249950  167.05799866    0.76999998    2.78999996
   13.08555508  179.94400024    0.75000000    2.78999996
   13.08888817  172.06300354    0.73000002    2.78999996
   13.09222221  196.19400024    0.73000002    2.78999996
   13.09527779  178.21299744    0.73000002    2.78999996
   13.09861088  167.64500427    0.73000002    2.78999996
   13.10194492  179.39100647    0.75000000    2.80999994
   13.10805607  179.39100647    0.75000000    2.78999996
   13.11194515  185.08000183    0.75000000    2.78999996
   13.11527824  187.93600464    0.73000002    2.78999996
   13.11861134  181.76600647    0.70999998    2.78999996
   13.12166691  171.48599243    0.70999998    2.78999996
   13.12500000  176.81300354    0.69000000    2.78999996
   13.12833309  166.34800720    0.69000000    2.78999996
   13.13138866  166.47099304    0.67000002    2.78999996
   13.13472176  171.76300049    0.69000000    2.80999994
   13.13777733  180.62800598    0.70999998    2.78999996
   13.14111137  161.24000549    0.70999998    2.78999996
   13.14444447  171.58500671    0.70999998    2.78999996
   13.14527798  168.14900208    0.69000000    2.78999996
   13.15083313  168.14900208    0.70999998    2.80999994
   13.15499973  173.47200012    0.73000002    2.78999996
   13.15805531  172.01199341    0.73000002    2.78999996
   13.16138840  178.05700684    0.75000000    2.78999996
   13.16472149  174.48599243    0.75000000    2.78999996
   13.16777802  158.35800171    0.76999998    2.80999994
   13.17111111  154.26400757    0.76999998    2.80999994
   13.17444515  192.99800110    0.76999998    2.80999994
   13.17750072  197.27600098    0.76999998    2.80999994
   13.17861176  165.11700439    0.76999998    2.78999996
   13.18111134  178.10800171    0.73000002    2.78999996
   13.18444443  164.05900574    0.73000002    2.80999994
   13.18777752  175.35699463    0.69000000    2.78999996
   13.19361115  175.35699463    0.70999998    2.80999994
   13.19777775  178.05400085    0.70999998    2.78999996
   13.20111084  183.95399475    0.70999998    2.78999996
   13.20416641  172.85600281    0.70999998    2.78999996
   13.20749950  188.94799805    0.73000002    2.80999994
   13.21055508  174.90499878    0.73000002    2.78999996
   13.21194458  168.83999634    0.73000002    2.78999996
   13.21416664  185.46299744    0.69000000    2.80999994
   13.21749973  179.40400696    0.69000000    2.80999994
   13.22083282  169.56599426    0.69000000    2.80999994
   13.22388840  175.44000244    0.67000002    2.80999994
   13.22722149  168.70199585    0.67000002    2.80999994
   13.23027706  166.30000305    0.69000000    2.80999994
   13.23638916  166.30000305    0.67000002    2.80999994
   13.24055576  161.27999878    0.67000002    2.80999994
   13.24388885  168.97700500    0.67000002    2.80999994
   13.24527836  173.38999939    0.67000002    2.80999994
   13.24750042  163.33200073    0.67000002    2.80999994
   13.25083351  184.02699280    0.63000000    2.80999994
   13.25416660  175.75500488    0.58999997    2.82999992
   13.25722218  186.64599609    0.61000001    2.80999994
   13.26055527  182.50399780    0.61000001    2.80999994
   13.26388931  172.88099670    0.61000001    2.78999996
   13.26694393  199.38200378    0.61000001    2.80999994
   13.27027798  174.46099854    0.61000001    2.80999994
   13.27333355  176.72900391    0.58999997    2.80999994
   13.27944374  176.72900391    0.61000001    2.80999994
   13.28333378  173.75500488    0.64999998    2.80999994
   13.28666687  167.34399414    0.64999998    2.80999994
   13.29000092  163.33099365    0.63000000    2.82999992
   13.29305553  173.26199341    0.61000001    2.80999994
   13.29638958  186.12800598    0.61000001    2.80999994
   13.29972267  183.12699890    0.63000000    2.80999994
   13.30277824  171.90499878    0.63000000    2.80999994
   13.30611134  154.50999451    0.63000000    2.78999996
   13.30916691  171.78100586    0.63000000    2.78999996
   13.31194496  167.98500061    0.64999998    2.80999994
   13.31277752  166.03199768    0.64999998    2.80999994
   13.31611156  162.42999268    0.64999998    2.80999994
   13.32222176  162.42999268    0.64999998    2.82999992
   13.32638836  176.71000671    0.64999998    2.80999994
   13.32944393  169.38099670    0.64999998    2.80999994
   13.33277798  172.46800232    0.63000000    2.80999994
   13.33611107  168.75999451    0.64999998    2.80999994
   13.33916664  183.40299988    0.64999998    2.80999994
   13.34249973  178.24200439    0.64999998    2.82999992
   13.34527779  178.19400024    0.64999998    2.80999994
   13.34611034  172.12600708    0.64999998    2.80999994
   13.34944439  167.95899963    0.64999998    2.80999994
   13.35277843  178.93099976    0.67000002    2.80999994
   13.35583401  159.55000305    0.67000002    2.80999994
   13.35916710  171.11700439    0.67000002    2.80999994
   13.36500072  171.11700439    0.69000000    2.80999994
   13.36916637  153.04400635    0.67000002    2.80999994
   13.37222195  150.72200012    0.67000002    2.80999994
   13.37555599  159.10600281    0.69000000    2.80999994
   13.37861156  164.53199768    0.69000000    2.80999994
   13.37916660  148.86300659    0.69000000    2.80999994
   13.38249969  163.01800537    0.69000000    2.80999994
   13.38583279  154.64199829    0.69000000    2.80999994
   13.38888836  169.32200623    0.70999998    2.82999992
   13.39222240  170.94400024    0.70999998    2.82999992
   13.39555550  160.35000610    0.70999998    2.82999992
   13.39861107  157.11799622    0.70999998    2.80999994
   13.40194416  184.95899963    0.73000002    2.80999994
   13.40777779  184.95899963    0.70999998    2.80999994
   13.41194439  171.53500366    0.69000000    2.80999994
   13.41527748  171.85200500    0.70999998    2.82999992
   13.41833401  173.42999268    0.69000000    2.80999994
   13.42166710  175.35400391    0.69000000    2.82999992
   13.42500019  177.66299438    0.70999998    2.82999992
   13.42805576  181.43400574    0.70999998    2.82999992
   13.43138885  203.37199402    0.70999998    2.82999992
   13.43444443  186.21299744    0.70999998    2.80999994
   13.43777752  176.69599915    0.69000000    2.82999992
   13.44111156  171.23599243    0.67000002    2.82999992
   13.44416714  172.75799561    0.67000002    2.82999992
   13.44527817  175.06399536    0.67000002    2.82999992
   13.45055580  175.06399536    0.63000000    2.82999992
   13.45472240  177.06100464    0.63000000    2.82999992
   13.45805550  157.98300171    0.63000000    2.82999992
   13.46138859  156.50399780    0.63000000    2.84999990
   13.46444416  156.02699280    0.58999997    2.82999992
   13.46777725  164.97700500    0.58999997    2.82999992
   13.47083282  156.26800537    0.58999997    2.82999992
   13.47416592  160.45100403    0.58999997    2.82999992
   13.47749996  162.87100220    0.61000001    2.82999992
   13.47861099  167.56900024    0.61000001    2.80999994
   13.48083305  166.44200134    0.61000001    2.82999992
   13.48416710  153.78900146    0.61000001    2.82999992
   13.48750019  151.66700745    0.61000001    2.82999992
   13.49361134  151.66700745    0.63000000    2.80999994
   13.49777794  169.83200073    0.64999998    2.82999992
   13.50083351  166.01300049    0.67000002    2.82999992
   13.50416660  164.44799805    0.67000002    2.84999990
   13.50749969  170.91000366    0.67000002    2.84999990
   13.51055527  165.84500122    0.67000002    2.82999992
   13.51194477  160.44500732    0.67000002    2.82999992
   13.51416683  181.88600159    0.67000002    2.82999992
   13.51749992  159.74899292    0.67000002    2.82999992
   13.52083302  170.22999573    0.64999998    2.82999992
   13.52388859  169.50500488    0.64999998    2.82999992
   13.52722168  160.96899414    0.64999998    2.82999992
   13.53055573  168.38800049    0.64999998    2.82999992
   13.53638935  168.38800049    0.63000000    2.82999992
   13.55500031  171.58000183    0.63000000    2.82999992
   13.55833340  169.59800720    0.61000001    2.84999990
   13.56138897  159.27400208    0.61000001    2.82999992
   13.56472206  171.09500122    0.61000001    2.84999990
   13.56805515  174.53100586    0.63000000    2.84999990
   13.57111073  169.21699524    0.61000001    2.82999992
   13.57444477  167.47300720    0.61000001    2.82999992
   13.69000053   -1.00000000   -1.00000000   -1.00000000
   13.78638935   -1.00000000   -1.00000000   -1.00000000
   13.88472176   -1.00000000   -1.00000000   -1.00000000
   13.91138840  140.74499512    0.75000000    2.84999990
   13.91472149  277.39401245    0.73000002    2.84999990
   13.91777802  240.52999878    0.73000002    2.84999990
   13.92111111  276.63299561    0.73000002    2.86999989
   13.92416668  293.14599609    0.73000002    2.84999990
   13.92750072  273.02200317    0.73000002    2.84999990
   13.93166733  273.02200317    0.69000000    2.84999990
   13.93583298  278.81698608    0.67000002    2.86999989
   13.93888855  254.32400513    0.67000002    2.84999990
   13.94222260  269.74499512    0.67000002    2.84999990
   13.94472218  272.93798828    0.67000002    2.84999990
   13.94583321  269.82901001    0.69000000    2.84999990
   13.94916630  246.66700745    0.69000000    2.84999990
   13.95249939  280.36999512    0.64999998    2.86999989
   13.95555496  259.13800049    0.64999998    2.86999989
   13.95888901  230.42700195    0.64999998    2.86999989
   13.96194458  233.84899902    0.64999998    2.86999989
   13.96527767  256.32998657    0.69000000    2.84999990
   13.96861076  266.74798584    0.70999998    2.86999989
   13.97444439  266.74798584    0.75000000    2.84999990
   13.97861099  256.92898560    0.76999998    2.84999990
   13.98194408  239.37500000    0.76999998    2.86999989
   13.98500061  226.43400574    0.76999998    2.84999990
   13.98833370  239.58200073    0.79000002    2.84999990
   13.99166679  225.52799988    0.79000002    2.84999990
   13.99472237  224.62699890    0.79000002    2.84999990
   13.99805546  222.56599426    0.80000001    2.86999989
   14.00111103  219.82800293    0.80000001    2.86999989
   14.00444412  246.24600220    0.79000002    2.84999990
   14.00777817  228.25799561    0.75000000    2.86999989
   14.01083374  210.97500610    0.73000002    2.86999989
   14.01138878  224.75900269    0.73000002    2.86999989
   14.01722240  224.75900269    0.79000002    2.84999990
   14.02138901  239.84100342    0.76999998    2.84999990
   14.02472210  229.30900574    0.76999998    2.84999990
   14.02805519  235.77000427    0.76999998    2.84999990
   14.03111076  237.54200745    0.86000001    2.84999990
   14.03444481  251.70500183    0.83999997    2.84999990
   14.03750038  242.23699951    0.81999999    2.84999990
   14.04083347  245.12100220    0.80000001    2.84999990
   14.04416752  242.70599365    0.80000001    2.84999990
   14.04472256  260.98599243    0.80000001    2.84999990
   14.04777813  259.88198853    0.80000001    2.84999990
   14.05111122  259.57800293    0.79000002    2.86999989
   14.05416679  261.60101318    0.76999998    2.84999990
   14.06027794  261.60101318    0.76999998    2.86999989
   14.06444454  273.63101196    0.76999998    2.86999989
   14.06750011  291.98098755    0.76999998    2.86999989
   14.07083321  293.00500488    0.79000002    2.86999989
   14.07388878  296.08801270    0.79000002    2.86999989
   14.07722187  258.73901367    0.76999998    2.84999990
   14.07805538  289.60101318    0.76999998    2.84999990
   14.08083344  288.07400513    0.73000002    2.84999990
   14.08416653  252.34199524    0.73000002    2.84999990
   14.08722210  255.30499268    0.75000000    2.86999989
   14.09055519  250.16499329    0.75000000    2.86999989
   14.09361076  263.56298828    0.75000000    2.86999989
   14.09694386  247.11900330    0.73000002    2.86999989
   14.10305595  247.11900330    0.58999997    2.86999989
   14.10722256  239.87399292    0.61000001    2.84999990
   14.11027813  253.30000305    0.63000000    2.86999989
   14.11138916  247.78399658    0.63000000    2.84999990
   14.11416721  244.58999634    0.63000000    2.84999990
   14.11750031  250.52499390    0.63000000    2.86999989
   14.12055588  232.54299927    0.63000000    2.84999990
   14.12388897  231.94299316    0.61000001    2.84999990
   14.12694454  240.56599426    0.56999999    2.86999989
   14.13027763  238.60200500    0.56999999    2.86999989
   14.13361073  258.38900757    0.55000001    2.86999989
   14.13666630  234.99000549    0.56999999    2.86999989
   14.14000034  252.28799438    0.55000001    2.86999989
   14.14583302  252.28799438    0.55000001    2.86999989
   14.14999962  238.54100037    0.55000001    2.86999989
   14.15333271  230.36500549    0.55000001    2.86999989
   14.15638828  240.06399536    0.55000001    2.86999989
   14.15972137  258.91400146    0.55000001    2.86999989
   14.16305542  238.62500000    0.55000001    2.86999989
   14.16611099  235.50000000    0.55000001    2.86999989
   14.16944504  228.21800232    0.56999999    2.86999989
   14.17250061  237.76499939    0.56999999    2.86999989
   14.17583370  243.35400391    0.61000001    2.86999989
   14.17805576  234.30900574    0.58999997    2.86999989
   14.17944431  237.75900269    0.58999997    2.86999989
   14.18277836  238.22599792    0.58999997    2.86999989
   14.18861103  238.22599792    0.58999997    2.86999989
   14.19277763  246.54699707    0.58999997    2.86999989
   14.19611073  255.75900269    0.58999997    2.89000010
   14.19944477  239.58200073    0.55000001    2.86999989
   14.20249939  232.03300476    0.55000001    2.86999989
   14.20583344  216.96200562    0.55000001    2.86999989
   14.20888901  224.88400269    0.55000001    2.86999989
   14.21138859  221.66799927    0.56999999    2.86999989
   14.21277714  232.14999390    0.56999999    2.86999989
   14.21611118  217.71600342    0.56999999    2.86999989
   14.21916580  226.11599731    0.73000002    2.86999989
   14.22249985  234.82699585    0.75000000    2.86999989
   14.22583294  214.82099915    0.75000000    2.86999989
   14.23166656  214.82099915    0.73000002    2.86999989
   14.23583317  226.53599548    0.73000002    2.86999989
   14.23888874  238.03399658    0.69000000    2.86999989
   14.24222279  215.64500427    0.70999998    2.86999989
   14.24472237  228.53399658    0.70999998    2.84999990
   14.24583340  232.98899841    0.70999998    2.84999990
   14.24916649  227.23500061    0.69000000    2.86999989
   14.25222206  232.00199890    0.69000000    2.86999989
   14.25555515  222.42799377    0.69000000    2.86999989
   14.25888920  213.45599365    0.67000002    2.86999989
   14.26194477  234.72700500    0.67000002    2.86999989
   14.26527786  239.17599487    0.64999998    2.86999989
   14.26861095  223.92700195    0.67000002    2.86999989
   14.27444458  223.92700195    0.73000002    2.84999990
   14.27861118  218.53300476    0.73000002    2.84999990
   14.28166676  221.45599365    0.75000000    2.86999989
   14.28500080  228.36199951    0.83999997    2.86999989
   14.28833389  226.73399353    0.83999997    2.86999989
   14.29138947  224.63499451    0.83999997    2.86999989
   14.29472256  226.57400513    0.86000001    2.86999989
   14.29805565  230.03999329    0.86000001    2.86999989
   14.30111122  215.79499817    0.88000000    2.86999989
   14.30444431  221.04800415    0.88000000    2.86999989
   14.30777836  222.72099304    0.89999998    2.86999989
   14.31083393  220.91999817    0.80000001    2.86999989
   14.31138897  209.73100281    0.80000001    2.86999989
   14.31722260  209.73100281    0.80000001    2.86999989
   14.32138920  238.72999573    0.79000002    2.84999990
   14.32472229  217.64300537    0.76999998    2.86999989
   14.32777786  227.49000549    0.76999998    2.86999989
   14.33111095  216.70399475    0.76999998    2.86999989
   14.33444405  224.53500366    0.81999999    2.86999989
   14.33749962  209.41400146    0.81999999    2.86999989
   14.34083271  219.58200073    0.89999998    2.89000010
   14.34388828  216.39900208    0.98000002    2.86999989
   14.34472179  226.34800720    0.98000002    2.86999989
   14.34749985  221.99400330    1.09000003    2.86999989
   14.35083389  204.79299927    1.14999998    2.86999989
   14.35388947  215.75900269    1.11000001    2.86999989
   14.36000061  215.75900269    0.98000002    2.86999989
   14.36416721  201.25700378    0.88000000    2.86999989
   14.36750031  218.31799316    0.88000000    2.86999989
   14.37083340  220.36000061    0.81999999    2.86999989
   14.37388897  215.76100159    0.80000001    2.86999989
   14.37722206  218.57099915    0.81999999    2.86999989
   14.37805557  215.78999329    0.81999999    2.86999989
   14.38083363  213.11000061    0.83999997    2.86999989
   14.38416672  231.54200745    0.83999997    2.86999989
   14.38722229  212.43899536    0.83999997    2.86999989
   14.39055538  227.77000427    0.88000000    2.86999989
   14.39388847  200.86399841    0.92000002    2.86999989
   14.39694405  211.02200317    0.92000002    2.86999989
   14.40305519  211.02200317    0.92000002    2.86999989
   14.40722179  220.41400146    0.98000002    2.86999989
   14.41027737  226.81700134    0.98000002    2.86999989
   14.41138840  222.95500183    0.98000002    2.86999989
   14.41388893  219.91999817    0.98000002    2.86999989
   14.41722298  218.08900452    1.00000000    2.86999989
   14.42027855  205.81900024    1.00000000    2.86999989
   14.42361164  219.47599792    0.98000002    2.89000010
   14.42694473  219.96699524    0.98000002    2.89000010
   14.43000031  214.06399536    0.94000000    2.86999989
   14.43333340  216.15699768    0.94000000    2.86999989
   14.43666649  219.56700134    0.79000002    2.86999989
   14.43972206  219.89999390    0.79000002    2.86999989
   14.44583321  219.89999390    0.80000001    2.89000010
   14.44999981  217.13699341    0.67000002    2.89000010
   14.45305538  240.40100098    0.58999997    2.89000010
   14.45638847  227.76400757    0.55000001    2.89000010
   14.45972157  237.30000305    0.52999997    2.89000010
   14.46277714  219.42399597    0.52999997    2.89000010
   14.46611118  232.33900452    0.51999998    2.86999989
   14.46944427  216.95799255    0.55000001    2.86999989
   14.47249985  227.61999512    0.55000001    2.86999989
   14.47583294  220.72500610    0.55000001    2.86999989
   14.47805500  234.12899780    0.58999997    2.89000010
   14.47944355  223.73100281    0.58999997    2.89000010
   14.48277760  216.62100220    0.61000001    2.86999989
   14.48861122  216.62100220    0.56999999    2.89000010
   14.49277782  215.75500488    0.56999999    2.89000010
   14.49611092  200.56700134    0.58999997    2.89000010
   14.49916649  212.49400330    0.61000001    2.86999989
   14.50249958  223.89399719    0.63000000    2.89000010
   14.50583363  213.41700745    0.63000000    2.89000010
   14.50888920  224.80299377    0.69000000    2.86999989
   14.51138878  214.30200195    0.61000001    2.89000010
   14.51249981  215.53399658    0.61000001    2.89000010
   14.51583290  221.81100464    0.61000001    2.89000010
   14.51888847  226.62100220    0.61000001    2.86999989
   14.52222157  214.11799622    0.58999997    2.86999989
   14.52555561  194.48500061    0.58999997    2.86999989
   14.53166676  194.48500061    0.61000001    2.89000010
   14.53555584  195.88200378    0.61000001    2.86999989
   14.53888893  221.34300232    0.63000000    2.86999989
   14.54222298  200.32299805    0.63000000    2.86999989
   14.54472256  209.83399963    0.64999998    2.89000010
   14.54583359  223.91799927    0.64999998    2.89000010
   14.54916668  202.23500061    0.64999998    2.89000010
   14.55222225  214.70100403    0.70999998    2.89000010
   14.55555534  210.24099731    0.69000000    2.89000010
   14.55888939  228.30400085    0.69000000    2.89000010
   14.56194496  213.00399780    0.64999998    2.86999989
   14.56527805  220.03500366    0.64999998    2.86999989
   14.56833363  210.15199280    0.73000002    2.86999989
   14.57444477  210.15199280    0.83999997    2.89000010
   14.57861137  212.45199585    0.83999997    2.86999989
   14.58166695  222.07099915    0.89999998    2.89000010
   14.58500004  206.99600220    0.89999998    2.86999989
   14.58805561  216.21000671    0.89999998    2.86999989
   14.59138870  220.92399597    0.94000000    2.86999989
   14.59472179  217.20599365    0.92000002    2.86999989
   14.59777737  209.43899536    0.88000000    2.86999989
   14.60111141  215.87699890    0.86000001    2.89000010
   14.60444450  214.67900085    0.88000000    2.89000010
   14.60750008  203.15800476    0.88000000    2.86999989
   14.61083412  199.59300232    0.88000000    2.86999989
   14.61166668  209.60299683    0.88000000    2.86999989
   14.61722279  209.60299683    0.86000001    2.86999989
   14.62138939  208.56900024    0.83999997    2.86999989
   14.62444496  189.97200012    0.83999997    2.89000010
   14.62777805  216.20100403    0.88000000    2.86999989
   14.63111115  197.81199646    0.89999998    2.89000010
   14.63416672  200.68899536    0.86000001    2.86999989
   14.63749981  224.25700378    0.80000001    2.86999989
   14.64083290  197.29600525    0.80000001    2.86999989
   14.64388847  195.31300354    0.79000002    2.86999989
   14.64499950  219.15299988    0.76999998    2.86999989
   14.64750004  218.56799316    0.79000002    2.89000010
   14.65083313  178.52299500    0.79000002    2.89000010
   14.65388870  198.87899780    0.79000002    2.89000010
   14.65999985  198.87899780    0.81999999    2.89000010
   14.66416645  201.01800537    0.80000001    2.89000010
   14.66750050  210.57800293    0.79000002    2.86999989
   14.67055607  221.39700317    0.79000002    2.89000010
   14.67388916  218.06300354    0.76999998    2.89000010
   14.67722225  216.26899719    0.76999998    2.89000010
   14.67833328  207.75300598    0.76999998    2.89000010
   14.68055630  209.11000061    0.79000002    2.86999989
   14.68388939  211.65400696    0.79000002    2.86999989
   14.68722248  188.22999573    0.81999999    2.89000010
   14.69027805  200.27099609    0.81999999    2.91000009
   14.69361115  218.04299927    0.81999999    2.91000009
   14.69694424  205.31100464    0.80000001    2.89000010
   14.70277786  205.31100464    0.61000001    2.91000009
   14.70694447  201.16499329    0.51999998    2.89000010
   14.71027756  222.62300110    0.51999998    2.86999989
   14.71166611  211.36000061    0.51999998    2.86999989
   14.71388912  205.29100037    0.51999998    2.89000010
   14.71722221  211.91499329    0.51999998    2.91000009
   14.72055531  213.19299316    0.63000000    2.86999989
   14.72361088  196.93400574    0.64999998    2.86999989
   14.72694397  193.36399841    0.64999998    2.89000010
   14.72999954  209.59300232    0.63000000    2.86999989
   14.73333359  166.04699707    0.67000002    2.89000010
   14.73666668  202.83000183    0.64999998    2.89000010
   14.73972225  200.35299683    0.64999998    2.89000010
   14.74583340  200.35299683    0.64999998    2.89000010
   14.75000000  200.54299927    0.64999998    2.89000010
   14.75305557  194.63200378    0.69000000    2.89000010
   14.75638866  197.23300171    0.73000002    2.89000010
   14.75972176  196.89500427    0.73000002    2.89000010
   14.76305580  203.64799500    0.79000002    2.86999989
   14.76611137  200.34700012    0.79000002    2.89000010
   14.76944447  208.43299866    0.79000002    2.89000010
   14.77277756  197.08999634    0.79000002    2.89000010
   14.77583313  190.25599670    0.81999999    2.89000010
   14.77833271  205.32000732    0.88000000    2.89000010
   14.77944374  206.31100464    0.89999998    2.89000010
   14.78277779  202.89700317    0.89999998    2.89000010
   14.78861141  202.89700317    1.03999996    2.86999989
   14.79277802  201.53300476    1.05999994    2.89000010
   14.79583359  200.81799316    1.09000003    2.89000010
   14.79916668  189.82699585    1.07000005    2.89000010
   14.80249977  195.77400208    1.01999998    2.89000010
   14.80555534  200.89399719    1.00000000    2.86999989
   14.80888939  190.00399780    0.98000002    2.89000010
   14.81166649  189.26600647    0.94000000    2.89000010
   14.81250000  204.63200378    0.94000000    2.89000010
   14.81583309  223.31900024    0.94000000    2.86999989
   14.81916618  198.18499756    0.92000002    2.89000010
   14.82222176  204.37800598    0.92000002    2.89000010
   14.82555580  185.96899414    1.00000000    2.89000010
   14.83138847  185.96899414    1.00000000    2.89000010
   14.83555508  193.56700134    0.98000002    2.86999989
   14.83888817  171.76499939    0.92000002    2.89000010
   14.84194374  192.99400330    0.88000000    2.89000010
   14.84499931  175.05099487    0.86000001    2.89000010
   14.84555531  196.22099304    0.86000001    2.89000010
   14.84888840  191.80299377    0.86000001    2.89000010
   14.85222244  188.76600647    0.86000001    2.89000010
   14.85527802  193.93299866    0.83999997    2.89000010
   14.85861111  200.50000000    0.70999998    2.89000010
   14.86166668  188.81599426    0.73000002    2.89000010
   14.86500072  181.73100281    0.73000002    2.89000010
   14.86833382  187.28799438    0.75000000    2.89000010
   14.87416649  187.28799438    0.73000002    2.89000010
   14.87833309  191.12300110    0.70999998    2.89000010
   14.88166714  178.10899353    0.70999998    2.89000010
   14.88500023  185.13999939    0.73000002    2.89000010
   14.88805580  189.39599609    0.75000000    2.89000010
   14.89138889  193.99299622    0.75000000    2.89000010
   14.89444447  196.42700195    0.75000000    2.89000010
   14.89777756  204.98300171    0.70999998    2.89000010
   14.90111065  198.88699341    0.67000002    2.89000010
   14.90416622  177.15400696    0.64999998    2.89000010
   14.90749931  206.39599609    0.64999998    2.89000010
   14.91083336  188.17900085    0.63000000    2.89000010
   14.91166592  191.51899719    0.63000000    2.89000010
   14.93222237  191.51899719    0.56999999    2.89000010
   14.93638897  180.71000671    0.58999997    2.89000010
   14.93972206  188.63800049    0.63000000    2.89000010
   14.94277763  184.87800598    0.63000000    2.89000010
   14.94499969  164.56700134    0.63000000    2.89000010
   14.94666672  185.68299866    0.63000000    2.89000010
   14.94972229  185.88900757    0.63000000    2.89000010
   14.95305538  199.81700134    0.63000000    2.89000010
   14.95611095  185.04899597    0.63000000    2.91000009
   14.95944405  189.53700256    0.61000001    2.89000010
   14.96277714  189.24899292    0.61000001    2.89000010
   14.96583271  181.61700439    0.63000000    2.89000010
   14.96916580  195.74000549    0.69000000    2.89000010
   14.97499943  195.74000549    0.75000000    2.91000009
   14.97916603  181.04899597    0.73000002    2.89000010
   14.98249912  193.77400208    0.70999998    2.89000010
   14.98555565  161.25999451    0.67000002    2.91000009
   14.98888874  178.61999512    0.75000000    2.89000010
   14.99194431  175.70199585    0.75000000    2.89000010
   14.99527836  185.40299988    0.75000000    2.89000010
   14.99861145  175.06199646    0.75000000    2.89000010
   15.00194454  179.44400024    0.75000000    2.86999989
   15.00527763  170.12399292    0.76999998    2.91000009
   15.00833321  194.21600342    0.76999998    2.91000009
   15.01166630  184.52000427    0.76999998    2.91000009
   15.01194477  194.44799805    0.76999998    2.91000009
   15.01777744  194.44799805    0.76999998    2.89000010
   15.02194405  168.80400085    0.76999998    2.91000009
   15.02527714  188.64799500    0.76999998    2.91000009
   15.02833271  175.53199768    0.81999999    2.91000009
   15.03166676  172.12500000    0.86000001    2.89000010
   15.03500080  182.29400635    0.83999997    2.91000009
   15.03833389  181.31300354    0.83999997    2.91000009
   15.04138947  193.36500549    0.83999997    2.91000009
   15.04472256  192.32400513    0.88000000    2.89000010
   15.04527855  153.69099426    0.88000000    2.89000010
   15.04833412  176.64199829    0.89999998    2.89000010
   15.05166721  177.44700623    1.00000000    2.89000010
   15.05500031  175.96499634    1.00000000    2.89000010
   15.06083393  175.96499634    1.00000000    2.89000010
   15.06472206  166.92300415    1.00000000    2.89000010
   15.06805515  190.07699585    0.98000002    2.89000010
   15.07138920  185.19599915    0.95999998    2.89000010
   15.07444477  193.32899475    0.94000000    2.89000010
   15.07777786  179.67500305    0.89999998    2.89000010
   15.07861137  175.32299805    0.89999998    2.89000010
   15.08138847  185.36000061    0.83999997    2.91000009
   15.08472157  179.16299438    0.80000001    2.89000010
   15.08805561  179.20799255    0.80000001    2.89000010
   15.09111118  187.02400208    0.79000002    2.89000010
   15.09444427  182.13900757    0.76999998    2.91000009
   15.09777737  176.17399597    0.76999998    2.91000009
   15.10361195  176.17399597    0.73000002    2.91000009
   15.10777855  168.91200256    0.73000002    2.91000009
   15.11083412  183.87500000    0.69000000    2.91000009
   15.11194515  174.16400146    0.69000000    2.91000009
   15.11444473  168.38600159    0.50000000    2.91000009
   15.11777782  175.14399719    0.50000000    2.91000009
   15.12111092  187.20300293    0.50000000    2.91000009
   15.12416649  187.57699585    0.50000000    2.91000009
   15.12750053  174.72000122    0.50000000    2.91000009
   15.13083363  186.23399353    0.50000000    2.91000009
   15.13388920  183.49600220    0.51999998    2.89000010
   15.13722229  190.90499878    0.51999998    2.91000009
   15.14027786  170.07600403    0.52999997    2.91000009
   15.14638901  170.07600403    0.58999997    2.89000010
   15.15055561  173.88299561    0.64999998    2.91000009
   15.15361118  179.93499756    0.64999998    2.91000009
   15.15694427  170.50300598    0.67000002    2.91000009
   15.16027737  181.82600403    0.67000002    2.91000009
   15.16333294  193.08099365    0.69000000    2.89000010
   15.16666698  170.84199524    0.55000001    2.89000010
   15.17000008  179.09500122    0.50000000    2.91000009
   15.17305565  175.76699829    0.47999999    2.91000009
   15.17638874  180.40400696    0.47999999    2.91000009
   15.17861176  192.78799438    0.47999999    2.91000009
   15.17972279  179.80799866    0.47999999    2.91000009
   15.18305588  166.91799927    0.47999999    2.91000009
   15.18916702  166.91799927    0.51999998    2.89000010
   15.19333363  176.50500488    0.51999998    2.91000009
   15.19666672  181.90100098    0.51999998    2.91000009
   15.19972229  177.73800659    0.51999998    2.91000009
   15.20305538  179.41299438    0.51999998    2.91000009
   15.20638847  163.58599854    0.52999997    2.91000009
   15.20944405  186.67500305    0.52999997    2.91000009
   15.21194458  164.95500183    0.56999999    2.91000009
   15.21305561  180.33700562    0.56999999    2.91000009
   15.21638870  165.68299866    0.56999999    2.91000009
   15.21972179  168.57200623    0.55000001    2.91000009
   15.22277737  165.83099365    0.55000001    2.91000009
   15.22611046  169.49299622    0.52999997    2.91000009
   15.23222160  169.49299622    0.52999997    2.91000009
   15.23611164  157.53599548    0.52999997    2.91000009
   15.23944473  180.39300537    0.52999997    2.91000009
   15.24277782  176.12500000    0.51999998    2.91000009
   15.24527836  160.55700684    0.51999998    2.91000009
   15.24638939  169.15899658    0.51999998    2.91000009
   15.24972248  181.77000427    0.52999997    2.93000007
   15.25277805  176.50799561    0.55000001    2.89000010
   15.25611115  157.80900574    0.56999999    2.91000009
   15.25944424  162.93600464    0.61000001    2.91000009
   15.26249981  152.56500244    0.61000001    2.91000009
   15.26583290  165.92500305    0.61000001    2.91000009
   15.26888847  182.78199768    0.61000001    2.91000009
   15.27499962  182.78199768    0.61000001    2.91000009
   15.27916622  172.73100281    0.61000001    2.91000009
   15.28222179  180.63499451    0.63000000    2.91000009
   15.28555584  164.83700562    0.67000002    2.91000009
   15.28888893  160.22099304    0.67000002    2.91000009
   15.29194450  177.41999817    0.73000002    2.91000009
   15.29527855  169.55400085    0.76999998    2.89000010
   15.29833412  164.35800171    0.86000001    2.89000010
   15.30166721  156.31500244    0.88000000    2.89000010
   15.30500031  169.49200439    0.88000000    2.89000010
   15.30805588  175.68800354    0.88000000    2.89000010
   15.31138897  158.83200073    1.28999996    2.89000010
   15.31194496  163.48699951    1.28999996    2.89000010
   15.31777763  163.48699951    1.41999996    2.91000009
   15.32194424  167.23599243    1.46000004    2.89000010
   15.32527733  156.57899475    1.55999994    2.91000009
   15.32833290  163.24299622    1.55999994    2.89000010
   15.33166695  169.46099854    1.46000004    2.89000010
   15.33500004  159.15100098    1.46000004    2.89000010
   15.33805561  163.23699951    1.36000001    2.89000010
   15.34138870  152.39700317    1.36000001    2.89000010
   15.34444427  163.12399292    1.34000003    2.89000010
   15.34527779  165.44900513    1.34000003    2.89000010
   15.34833336  163.34300232    1.33000004    2.89000010
   15.35138893  170.53799438    1.33000004    2.89000010
   15.35472298  160.12399292    1.16999996    2.91000009
   15.36055565  160.12399292    1.05999994    2.89000010
   15.36472225  166.04400635    1.05999994    2.89000010
   15.36805534  162.13299561    1.03999996    2.89000010
   15.37111092  162.63099670    0.95999998    2.89000010
   15.37444496  168.57200623    0.88000000    2.89000010
   15.37777805  153.12100220    0.86000001    2.91000009
   15.37861156  154.68099976    0.86000001    2.91000009
   15.38138866  174.41099548    0.86000001    2.91000009
   15.38444424  156.99899292    0.88000000    2.89000010
   15.38777733  169.80499268    0.88000000    2.89000010
   15.39083290  156.40600586    0.86000001    2.89000010
   15.39416695  161.82899475    0.89999998    2.91000009
   15.39750004  172.61199951    0.95999998    2.91000009
   15.40333271  172.61199951    1.03999996    2.89000010
   15.40749931  166.50799561    1.05999994    2.91000009
   15.41083336  175.63600159    1.01999998    2.89000010
   15.41194439  156.32899475    1.01999998    2.89000010
   15.41444397  162.92300415    0.98000002    2.89000010
   15.41750050  170.99699402    0.89999998    2.91000009
   15.42083359  165.10400391    0.89999998    2.91000009
   15.42388916  164.00900269    0.89999998    2.91000009
   15.42722225  159.30200195    0.89999998    2.91000009
   15.43055630  178.58399963    0.81999999    2.91000009
   15.43361092  172.33700562    0.81999999    2.91000009
   15.43694496  170.55900574    0.81999999    2.91000009
   15.44027805  175.76199341    0.80000001    2.91000009
   15.44638920  175.76199341    0.86000001    2.91000009
   15.45055580  159.36399841    0.88000000    2.91000009
   15.45361137  158.60699463    0.88000000    2.89000010
   15.45694447  160.08200073    0.88000000    2.89000010
   15.46027756  153.97099304    0.83999997    2.91000009
   15.46333313  141.61099243    0.83999997    2.91000009
   15.46666622  168.95500183    0.92000002    2.91000009
   15.46972179  149.45799255    0.92000002    2.91000009
   15.47305489  162.21800232    0.98000002    2.91000009
   15.47638798  160.38099670    0.95999998    2.91000009
   15.47861099  158.02900696    0.95999998    2.91000009
   15.47999954  144.70100403    1.19000006    2.89000010
   15.48305511  157.73699951    1.19000006    2.89000010
   15.48916721  157.73699951    1.69000006    2.89000010
   15.49333382  160.31300354    1.69000006    2.89000010
   15.49638939  154.33500671    1.71000004    2.89000010
   15.49972248  153.31599426    1.71000004    2.89000010
   15.50305557  152.88200378    1.46000004    2.89000010
   15.50611115  154.70700073    1.53999996    2.91000009
   15.50944424  156.40899658    1.53999996    2.89000010
   15.51194477  162.12100220    1.51999998    2.89000010
   15.51333332  163.27000427    1.51999998    2.89000010
   15.51638889  143.07499695    1.50000000    2.89000010
   15.51972198  161.39500427    1.53999996    2.89000010
   15.52277756  153.71499634    1.53999996    2.89000010
   15.52611065  157.30000305    1.53999996    2.89000010
   15.53194427  157.30000305    1.41999996    2.89000010
   15.53611183  128.20700073    1.44000006    2.89000010
   15.53944492  140.21600342    1.41999996    2.89000010
   15.54250050  156.16700745    1.41999996    2.89000010
   15.54527855  160.15400696    1.38000000    2.89000010
   15.54638958  154.38999939    1.63000000    2.89000010
   15.54944515  163.91000366    1.64999998    2.89000010
   15.55277824  150.65800476    1.64999998    2.89000010
   15.55611134  148.02200317    1.64999998    2.86999989
   15.55916691  147.40499878    1.53999996    2.91000009
   15.56250000  138.44500732    1.53999996    2.89000010
   15.56555557  149.70899963    1.50000000    2.89000010
   15.56888866  160.05099487    1.50000000    2.89000010
   15.57472229  160.05099487    1.38000000    2.91000009
   15.57888889  141.21000671    1.36000001    2.89000010
   15.58222198  156.55999756    1.36000001    2.89000010
   15.58555508  162.63600159    1.46000004    2.89000010
   15.58861065  161.25199890    1.48000002    2.89000010
   15.59194374  155.74600220    1.63000000    2.89000010
   15.59499931  134.93200684    1.64999998    2.89000010
   15.59833336  149.82699585    1.64999998    2.89000010
   15.60166740  143.23500061    1.60000002    2.91000009
   15.60472298  153.08799744    1.53999996    2.91000009
   15.60805607  161.30099487    1.58000004    2.91000009
   15.61138916  166.30799866    1.53999996    2.89000010
   15.61194515  155.72300720    1.53999996    2.89000010
   15.61777782  155.72300720    1.44000006    2.89000010
   15.62194443  149.16799927    1.51999998    2.89000010
   15.62500000  151.14300537    1.41999996    2.89000010
   15.62833309  163.03799438    1.41999996    2.89000010
   15.63138866  151.59599304    1.39999998    2.89000010
   15.63472176  152.10499573    1.23000002    2.91000009
   15.63805580  144.16799927    1.34000003    2.91000009
   15.64138889  153.80700684    1.34000003    2.89000010
   15.64444447  146.90299988    1.33000004    2.89000010
   15.64527798  145.66299438    1.33000004    2.89000010
   15.64833355  152.18099976    1.23000002    2.91000009
   15.65138817  151.60400391    1.23000002    2.91000009
   15.65472221  143.23300171    1.21000004    2.89000010
   15.66055489  143.23300171    1.13000000    2.89000010
   15.66472149  159.94500732    1.05999994    2.91000009
   15.66805553  148.14799500    1.09000003    2.91000009
   15.67111111  148.77299500    1.09000003    2.91000009
   15.67444515  137.62699890    1.09000003    2.91000009
   15.67750072  150.00599670    1.03999996    2.91000009
   15.67861176  147.37600708    1.00000000    2.91000009
   15.68138885  156.02299500    1.00000000    2.91000009
   15.68444443  159.48899841    0.95999998    2.91000009
   15.68777752  147.44599915    0.79000002    2.89000010
   15.69111156  152.78999329    0.76999998    2.91000009
   15.69416714  148.13499451    0.76999998    2.91000009
   15.69750023  141.19999695    0.76999998    2.91000009
   15.70333290  141.19999695    0.76999998    2.91000009
   15.70749950  174.12300110    0.80000001    2.91000009
   15.71083355  154.37699890    0.81999999    2.91000009
   15.71194458  154.58399963    0.81999999    2.91000009
   15.71444416  177.62699890    0.81999999    2.91000009
   15.71749973  148.97099304    0.88000000    2.91000009
   15.72083282  169.64500427    1.00000000    2.91000009
   15.72416592  162.22900391    1.11000001    2.91000009
   15.72722149  161.66799927    1.11000001    2.91000009
   15.73055553  159.10800171    1.13000000    2.89000010
   15.73361111  172.50599670    1.21000004    2.91000009
   15.73694515  142.61000061    1.21000004    2.91000009
   15.74027824  165.16499329    1.26999998    2.91000009
   15.74611092  165.16499329    1.23000002    2.91000009
   15.75027752  142.28799438    1.09000003    2.89000010
   15.75361156  160.23800659    1.09000003    2.89000010
   15.75694466  147.61199951    1.09000003    2.91000009
   15.76000023  153.84199524    1.07000005    2.89000010
   15.76333332  156.58700562    1.09000003    2.91000009
   15.76666641  146.63600159    1.09000003    2.91000009
   15.76999950  143.79600525    1.09000003    2.91000009
   15.77305508  154.79400635    1.09000003    2.91000009
   15.77638817  141.79699707    1.07000005    2.89000010
   15.77861118  125.10900116    1.05999994    2.91000009
   15.77999973  152.75300598    1.05999994    2.91000009
   15.78305531  149.13900757    1.05999994    2.89000010
   15.78916740  149.13900757    1.07000005    2.91000009
   15.79333401  140.15199280    1.13000000    2.93000007
   15.79638958  140.72300720    1.13000000    2.93000007
   15.79972267  149.52799988    1.16999996    2.91000009
   15.80277824  133.63099670    1.25000000    2.91000009
   15.80611134  131.03999329    1.25000000    2.91000009
   15.80944443  133.20399475    1.25000000    2.93000007
   15.81194496  140.48100281    1.25000000    2.93000007
   15.81305599  136.98100281    1.25000000    2.91000009
   15.81611156  128.82899475    1.25000000    2.91000009
   15.81944466  134.77900696    1.26999998    2.89000010
   15.82277775  141.50300598    1.26999998    2.89000010
   15.82583332  138.00900269    1.26999998    2.89000010
   15.83194447  138.00900269    1.23000002    2.91000009
   15.83611107  124.05100250    1.19000006    2.91000009
   15.83944416  148.30799866    1.21000004    2.89000010
   15.84249973  137.93600464    1.21000004    2.89000010
   15.84527779  138.50500488    1.26999998    2.89000010
   15.84638882  135.63600159    1.26999998    2.89000010
   15.84944439  141.70399475    1.30999994    2.91000009
   15.85277843  141.64999390    1.38000000    2.89000010
   15.85611153  124.77899933    1.46000004    2.89000010
   15.85916710  133.27999878    1.46000004    2.89000010
   15.86250019  150.16799927    1.46000004    2.91000009
   15.86555576  130.52999878    1.51999998    2.89000010
   15.86888885  161.42900085    1.53999996    2.89000010
   15.87472248  161.42900085    1.50000000    2.89000010
   15.87888908  147.99299622    1.39999998    2.89000010
   15.88222218  162.53100586    1.39999998    2.89000010
   15.88527775  136.07899475    1.39999998    2.91000009
   15.88861084  152.34399414    1.39999998    2.89000010
   15.89194393  136.93400574    1.46000004    2.91000009
   15.89499950  161.53999329    1.48000002    2.89000010
   15.89833355  155.77900696    1.44000006    2.89000010
   15.90138817  152.74000549    1.38000000    2.89000010
   15.90472221  158.08900452    1.36000001    2.91000009
   15.90805531  153.85400391    1.28999996    2.91000009
   15.91111088  145.78199768    1.26999998    2.91000009
   15.91194439  141.13499451    1.28999996    2.91000009
   15.91750050  141.13499451    1.34000003    2.91000009
   15.92166710  154.13699341    1.34000003    2.91000009
   15.92500019  145.07800293    1.34000003    2.91000009
   15.92833328  143.24899292    1.34000003    2.91000009
   15.94583321  146.81300354    1.36000001    2.91000009
   15.94805527  132.13200378    1.41999996    2.89000010
   15.95138836  144.74800110    1.46000004    2.91000009
   15.95472240  138.27600098    1.46000004    2.91000009
   15.96055508  138.27600098    1.44000006    2.89000010
   15.96472168  138.62300110    1.26999998    2.89000010
   15.96805477  139.98599243    1.26999998    2.89000010
   15.97111034  137.63000488    1.26999998    2.91000009
   15.97444439  125.61699677    1.26999998    2.91000009
   15.97777748  143.42399597    1.25000000    2.89000010
   15.97888851  132.68699646    1.26999998    2.91000009
   15.98138809  139.59899902    1.26999998    2.91000009
   15.98472214  136.98699951    1.26999998    2.89000010
   15.98805618  142.57899475    1.28999996    2.89000010
   15.99111176  135.15100098    1.28999996    2.91000009
   15.99444485  147.85000610    1.28999996    2.91000009
   15.99750042  131.67500305    1.28999996    2.91000009
   16.00361061  131.67500305    1.28999996    2.91000009
   16.00749969  143.85800171    1.25000000    2.91000009
   16.01083374  156.06300354    1.28999996    2.89000010
   16.01222229  143.86900330    1.26999998    2.91000009
   16.01444435  143.58999634    1.26999998    2.91000009
   16.01777840  156.00900269    1.23000002    2.91000009
   16.02083397  144.75500488    1.25000000    2.91000009
   16.02416611  144.89700317    1.25000000    2.91000009
   16.02750015  163.47399902    1.48000002    2.89000010
   16.03055573  144.88000488    1.51999998    2.91000009
   16.03388786  144.60200500    1.51999998    2.89000010
   16.03694344  150.09399414    1.51999998    2.89000010
   16.04027748  143.65600586    1.60000002    2.89000010
   16.04638863  143.65600586    1.51999998    2.91000009
   16.05055428  136.48500061    1.48000002    2.89000010
   16.05360985  135.88600159    1.48000002    2.89000010
   16.05694389  128.04400635    1.50000000    2.89000010
   16.06027794  138.25799561    1.58000004    2.89000010
   16.06333351  147.17399597    1.58000004    2.91000009
   16.06666756  128.32899475    1.63000000    2.89000010
   16.06972313  139.52900696    1.64999998    2.91000009
   16.07305717  133.90800476    1.66999996    2.89000010
   16.07638931  131.01199341    1.69000006    2.89000010
   16.07888985  132.62399292    1.71000004    2.89000010
   16.08000183  134.46400452    1.69000006    2.89000010
   16.08333397  131.18400574    1.64999998    2.91000009
   16.08916664  131.18400574    1.60000002    2.91000009
   16.09333420  144.47300720    1.51999998    2.91000009
   16.09666824  169.53500366    1.51999998    2.89000010
   16.09972191  148.22200012    1.51999998    2.89000010
   16.10305595  134.22599792    1.50000000    2.89000010
   16.10611153  121.84700012    1.46000004    2.89000010
   16.10944557  144.05299377    1.46000004    2.91000009
   16.11222267  146.15800476    1.48000002    2.91000009
   16.11305618  144.87699890    1.48000002    2.91000009
   16.11638832  146.04499817    1.55999994    2.89000010
   16.11944389  154.08099365    1.63000000    2.91000009
   16.12277794  136.14799500    1.63000000    2.91000009
   16.12611198  140.73500061    1.73000002    2.91000009
   16.13194466  140.73500061    1.85000002    2.89000010
   16.13611031  147.22399902    1.85000002    2.89000010
   16.13944435  154.02299500    1.83000004    2.89000010
   16.14249992  142.65699768    1.80999994    2.89000010
   16.14555550  147.04400635    1.86000001    2.89000010
   16.14611053  136.77000427    1.86000001    2.89000010
   16.14944458  150.68600464    1.86000001    2.89000010
   16.15277672  173.43400574    1.89999998    2.91000009
   16.15583229  181.82200623    1.89999998    2.91000009
   16.15916634  168.72200012    1.91999996    2.91000009
   16.16222191  192.32099915    1.96000004    2.89000010
   16.16555595  186.79600525    1.96000004    2.91000009
   16.16888809  195.52299500    1.83000004    2.91000009
   16.17499924  195.52299500    1.75000000    2.89000010
   16.17888832  178.20100403    1.69000006    2.91000009
   16.18222237  202.07400513    1.60000002    2.89000010
   16.18555450  160.97799683    1.60000002    2.89000010
   16.18861008  210.78199768    1.50000000    2.91000009
   16.19194412  183.80599976    1.48000002    2.91000009
   16.19527626  198.66200256    1.39999998    2.91000009
   16.19833183  176.17999268    1.39999998    2.91000009
   16.20166779  185.51300049    1.39999998    2.91000009
   16.20499992  222.15600586    1.38000000    2.91000009
   16.20805550  186.92199707    1.13000000    2.93000007
   16.21138954  216.83399963    1.13000000    2.91000009
   16.21222305  184.77900696    1.13000000    2.91000009
   16.21777916  184.77900696    1.09000003    2.91000009
   16.22194481  212.75500488    1.03999996    2.93000007
   16.22500038  223.74200439    1.03999996    2.93000007
   16.22833443  197.73100281    1.01999998    2.91000009
   16.23166656  210.59100342    1.00000000    2.91000009
   16.23472214  212.50300598    1.01999998    2.91000009
   16.23805618  168.30999756    1.01999998    2.91000009
   16.24111176  197.92700195    1.01999998    2.91000009
   16.24444389  219.75799561    1.01999998    2.91000009
   16.24583435  208.39199829    1.01999998    2.91000009
   16.24805641  195.75999451    1.01999998    2.91000009
   16.25138855  208.19500732    1.05999994    2.91000009
   16.25472260  209.69700623    0.98000002    2.93000007
   16.26055527  209.69700623    0.98000002    2.93000007
   16.26472282  194.29699707    0.98000002    2.91000009
   16.26805496  191.44900513    1.03999996    2.91000009
   16.27111053  186.03700256    1.03999996    2.91000009
   16.27444458  182.26100159    1.03999996    2.91000009
   16.27750015  191.69599915    1.03999996    2.91000009
   16.27888870  173.64300537    1.03999996    2.91000009
   16.28111076  175.55599976    1.03999996    2.91000009
   16.28444481  166.21099854    1.03999996    2.93000007
   16.28750038  186.95100403    1.07000005    2.91000009
   16.29083252  197.31599426    1.09000003    2.91000009
   16.29416656  176.36099243    1.09000003    2.91000009
   16.29722214  164.40699768    1.13000000    2.91000009
   16.30333328  164.40699768    1.11000001    2.91000009
   16.30749893  174.23599243    1.13000000    2.91000009
   16.31083298  191.06300354    1.14999998    2.91000009
   16.31250000  169.81500244    1.14999998    2.91000009
   16.31444359  191.60499573    1.14999998    2.91000009
   16.31777954  191.54499817    1.14999998    2.91000009
   16.32083511  187.90299988    1.14999998    2.91000009
   16.32416725  190.96899414    1.07000005    2.91000009
   16.32750130  193.36300659    1.07000005    2.91000009
   16.33055687  184.77799988    1.07000005    2.91000009
   16.33388901  180.92199707    1.07000005    2.93000007
   16.33722305  163.60600281    1.09000003    2.91000009
   16.34027863  200.96200562    1.09000003    2.91000009
   16.34611130  200.96200562    1.09000003    2.91000009
   16.35027885  195.62699890    1.16999996    2.91000009
   16.35361099  172.37399292    1.16999996    2.91000009
   16.35694504  178.76800537    1.21000004    2.91000009
   16.36000061  185.35400391    1.23000002    2.91000009
   16.36333466  181.66999817    1.26999998    2.91000009
   16.36638832  189.13600159    1.28999996    2.91000009
   16.36972237  170.34899902    1.28999996    2.91000009
   16.37305641  193.30499268    1.30999994    2.91000009
   16.37611198  198.18200684    1.30999994    2.91000009
   16.37916756  202.50500488    1.36000001    2.91000009
   16.37972260  152.36999512    1.36000001    2.91000009
   16.38305473  194.26100159    1.36000001    2.89000010
   16.38916588  194.26100159    1.38000000    2.91000009
   16.39333344  219.14799500    1.53999996    2.91000009
   16.39638901  170.49200439    1.60000002    2.89000010
   16.39972115  165.00799561    1.60000002    2.89000010
   16.40277672  177.81500244    1.60000002    2.89000010
   16.40611076  185.75900269    1.58000004    2.91000009
   16.40944481  170.02200317    1.60000002    2.89000010
   16.41250038  183.20899963    1.58000004    2.91000009
   16.41305542  173.58900452    1.58000004    2.91000009
   16.41638756  143.79800415    1.53999996    2.89000010
   16.41972160  170.69400024    1.46000004    2.91000009
   16.42277718  138.15400696    1.46000004    2.91000009
   16.42611122  173.72399902    1.38000000    2.91000009
   16.43194389  173.72399902    1.36000001    2.91000009
   16.43610954  160.99600220    1.51999998    2.91000009
   16.43916512  135.24099731    1.51999998    2.91000009
   16.44249916  133.74699402    1.51999998    2.91000009
   16.44583321  135.87600708    1.51999998    2.91000009
   16.44610977  142.15800476    1.51999998    2.91000009
   16.44944382  144.44000244    1.55999994    2.89000010
   16.45250130  133.09500122    1.51999998    2.91000009
   16.45583344  121.52600098    1.48000002    2.91000009
   16.45916748  131.95399475    1.46000004    2.89000010
   16.46222305  145.39399719    1.46000004    2.91000009
   16.46555710  149.24600220    1.46000004    2.91000009
   16.46888924  152.13099670    1.48000002    2.91000009
   16.47472191  152.13099670    1.51999998    2.91000009
   16.47888947  156.54100037    1.51999998    2.91000009
   16.47944450  136.48199463    1.53999996    2.91000009
   16.48277855  161.66900635    1.53999996    2.91000009
   16.48583412  156.37100220    1.55999994    2.91000009
   16.48916626  150.50599670    1.53999996    2.89000010
   16.49250031  146.96800232    1.51999998    2.91000009
   16.49555588  174.89300537    1.50000000    2.91000009
   16.49888992  177.19900513    1.53999996    2.91000009
   16.50222206  151.86599731    1.53999996    2.91000009
   16.50527763  157.18400574    1.58000004    2.91000009
   16.50861168  155.38499451    1.55999994    2.91000009
   16.51166725  133.46000671    1.58000004    2.91000009
   16.51277733  149.38000488    1.58000004    2.91000009
   16.51749992  149.38000488    1.58000004    2.91000009
   16.52166557  167.04499817    1.60000002    2.91000009
   16.52499962  163.26600647    1.50000000    2.89000010
   16.52833366  164.14300537    1.50000000    2.91000009
   16.53138924  154.90400696    1.48000002    2.89000010
   16.53472137  141.88600159    1.46000004    2.91000009
   16.53777695  150.32099915    1.41999996    2.91000009
   16.54111099  159.37800598    1.41999996    2.91000009
   16.54444313  149.30599976    1.44000006    2.91000009
   16.54611015  141.47999573    1.46000004    2.91000009
   16.54805565  146.65400696    1.44000006    2.91000009
   16.55111122  151.85400391    1.41999996    2.91000009
   16.55444336  174.99899292    1.36000001    2.91000009
   16.56055450  174.99899292    1.36000001    2.89000010
   16.56472206  153.96600342    1.36000001    2.91000009
   16.56777954  171.13999939    1.34000003    2.91000009
   16.57111168  168.16000366    1.34000003    2.91000009
   16.57416725  167.38099670    1.33000004    2.91000009
   16.57750130  181.38999939    1.33000004    2.91000009
   16.57944489  156.89399719    1.33000004    2.91000009
   16.58111191  177.99699402    1.30999994    2.91000009
   16.58416748  180.62500000    1.30999994    2.91000009
   16.58750153  171.11099243    1.30999994    2.93000007
   16.59083366  161.24800110    1.28999996    2.91000009
   16.59388924  184.39700317    1.28999996    2.91000009
   16.59722328  151.69799805    1.30999994    2.91000009
   16.60361099  151.69799805    1.30999994    2.91000009
   16.60777855  154.16799927    1.28999996    2.91000009
   16.61083412  155.29200745    1.28999996    2.91000009
   16.61277771  167.27299500    1.30999994    2.91000009
   16.61444473  154.68800354    1.30999994    2.91000009
   16.61750031  149.25999451    1.30999994    2.91000009
   16.62083435  154.38299561    1.30999994    2.91000009
   16.62416649  159.06500244    1.26999998    2.91000009
   16.62722206  158.30400085    1.28999996    2.91000009
   16.63055611  157.16299438    1.34000003    2.91000009
   16.63388824  150.67799377    1.34000003    2.91000009
   16.63694382  177.82200623    1.36000001    2.91000009
   16.64027786  166.94099426    1.38000000    2.91000009
   16.64611053  166.94099426    1.51999998    2.91000009
   16.65027809  156.76499939    1.51999998    2.91000009
   16.65361023  162.92900085    1.51999998    2.91000009
   16.65666580  164.12600708    1.50000000    2.91000009
   16.65999985  135.65299988    1.48000002    2.91000009
   16.66333389  146.42500305    1.48000002    2.91000009
   16.66638756  131.42199707    1.48000002    2.89000010
   16.66972160  152.88400269    1.46000004    2.91000009
   16.67277718  174.55799866    1.44000006    2.89000010
   16.67611122  164.22599792    1.44000006    2.91000009
   16.67944336  154.49000549    1.44000006    2.91000009
   16.68111038  143.82299805    1.44000006    2.91000009
   16.68305397  154.06900024    1.44000006    2.91000009
   16.68888855  154.06900024    1.44000006    2.91000009
   16.69305420  170.30099487    1.44000006    2.93000007
   16.69638824  181.91799927    1.41999996    2.91000009
   16.69972038  153.66900635    1.41999996    2.91000009
   16.70277786  151.32600403    1.39999998    2.91000009
   16.70611191  155.03100586    1.44000006    2.91000009
   16.70916748  160.66999817    1.44000006    2.91000009
   16.71250153  148.02600098    1.44000006    2.91000009
   16.71444511  135.72000122    1.44000006    2.91000009
   16.71611214  135.43800354    1.44000006    2.91000009
   16.71944427  137.45399475    1.38000000    2.91000009
   16.72249985  140.48399353    1.33000004    2.91000009
   16.72583389  131.58299255    1.33000004    2.91000009
   16.73194504  131.58299255    1.30999994    2.91000009
   16.73611069  134.67700195    1.30999994    2.91000009
   16.73916626  145.11199951    1.30999994    2.91000009
   16.74250031  144.83599854    1.30999994    2.91000009
   16.74555588  132.91799927    1.30999994    2.91000009
   16.74805641  150.03500366    1.30999994    2.91000009
   16.74944496  145.73500061    1.25000000    2.91000009
   16.75250053  137.53999329    1.25000000    2.91000009
   16.75583267  144.83900452    1.19000006    2.91000009
   16.75916672  140.49899292    1.19000006    2.91000009
   16.76222229  154.01100159    1.16999996    2.91000009
   16.76555634  141.23599243    1.16999996    2.91000009
   16.76888847  171.37199402    1.16999996    2.91000009
   16.77472115  171.37199402    1.16999996    2.91000009
   16.77888870  142.83999634    1.25000000    2.91000009
   16.78138924  143.44500732    1.25000000    2.91000009
   16.78249931  138.73599243    1.25000000    2.91000009
   16.78555489  152.30400085    1.25000000    2.91000009
   16.78888893  135.58500671    1.26999998    2.91000009
   16.79222107  141.34199524    1.34000003    2.91000009
   16.79527664  149.96099854    1.34000003    2.91000009
   16.79861069  165.72399902    1.38000000    2.91000009
   16.80194283  144.66799927    1.34000003    2.91000009
   16.80499840  162.65499878    1.34000003    2.91000009
   16.80833244  150.09100342    1.34000003    2.91000009
   16.81138802  164.87199402    1.36000001    2.91000009
   16.81750107  164.87199402    1.34000003    2.91000009
   16.82166672  159.69500732    1.36000001    2.91000009
   16.82500076  191.61799622    1.38000000    2.91000009
   16.82805634  199.90800476    1.39999998    2.93000007
   16.83139038  167.26499939    1.39999998    2.93000007
   16.83472252  207.32800293    1.41999996    2.91000009
   16.83777809  192.15899658    1.36000001    2.89000010
   16.84111214  187.75799561    1.38000000    2.91000009
   16.84444427  208.63800049    1.39999998    2.91000009
   16.84749985  171.46400452    1.39999998    2.91000009
   16.84833336  231.26699829    1.39999998    2.91000009
   16.85111237  157.82800293    1.39999998    2.91000009
   16.85444450  224.31199646    1.48000002    2.91000009
   16.86027908  224.31199646    1.48000002    2.89000010
   16.86444473  230.06599426    1.48000002    2.89000010
   16.86777878  242.54200745    1.50000000    2.89000010
   16.87111092  229.57699585    1.51999998    2.89000010
   16.87416649  192.27699280    1.53999996    2.89000010
   16.87750053  244.64900208    1.58000004    2.89000010
   16.88055611  267.28500366    1.58000004    2.89000010
   16.88166618  232.05400085    1.58000004    2.89000010
   16.88416672  280.36999512    1.58000004    2.89000010
   16.88750076  230.35299683    1.60000002    2.91000009
   16.89055634  170.05999756    1.61000001    2.91000009
   16.89388847  230.71400452    1.61000001    2.89000010
   16.89722252  170.51400757    1.60000002    2.89000010
   16.90333366  170.51400757    1.58000004    2.91000009
   16.90749931  246.20500183    1.55999994    2.91000009
   16.91055489  245.32400513    1.53999996    2.91000009
   16.91388893  233.23800659    1.53999996    2.89000010
   16.91527748  234.24800110    1.51999998    2.91000009
   16.91749954  277.53399658    1.60000002    2.91000009
   16.92055511  229.76499939    1.61000001    2.91000009
   16.92388916  228.32499695    1.60000002    2.91000009
   16.92722130  220.84800720    1.60000002    2.91000009
   16.93027687  224.17300415    1.60000002    2.91000009
   16.93361092  228.62800598    1.55999994    2.91000009
   16.93694305  213.38099670    1.55999994    2.91000009
   16.93999863  233.98100281    1.55999994    2.91000009
   16.94610977  233.98100281    1.53999996    2.89000010
   16.96444511  223.39199829    1.61000001    2.91000009
   16.96777916  223.77299500    1.61000001    2.91000009
   16.97083473  237.64399719    1.61000001    2.91000009
   16.97416687  216.29499817    1.58000004    2.89000010
   16.97750092  232.64599609    1.58000004    2.91000009
   16.98055649  203.40299988    1.55999994    2.91000009
   16.98388863  230.44599915    1.55999994    2.91000009
   16.98916626  230.44599915    1.55999994    2.89000010
   16.99333382  208.22200012    1.53999996    2.89000010
   16.99666786  214.16499329    1.53999996    2.91000009
   16.99749947  252.22500610    1.53999996    2.91000009
   17.00027847  213.57000732    1.53999996    2.91000009
   17.00333405  204.37500000    1.53999996    2.91000009
   17.00666618  188.58900452    1.51999998    2.89000010
   17.01000023  204.92500305    1.51999998    2.89000010
   17.01305580  215.94700623    1.51999998    2.89000010
   17.01638794  195.35400391    1.55999994    2.91000009
   17.01972198  234.79100037    1.58000004    2.91000009
   17.02277756  188.53199768    1.60000002    2.91000009
   17.02611160  168.91400146    1.60000002    2.91000009
   17.03194427  168.91400146    1.58000004    2.89000010
   17.03610992  193.21099854    1.58000004    2.89000010
   17.03944397  189.02299500    1.64999998    2.91000009
   17.04277802  197.61700439    1.66999996    2.91000009
   17.04583359  192.87899780    1.66999996    2.91000009
   17.04916573  192.44900513    1.64999998    2.91000009
   17.05249977  190.60699463    1.60000002    2.89000010
   17.05555534  205.50199890    1.60000002    2.91000009
   17.05888748  192.56300354    1.64999998    2.91000009
   17.06194305  191.72300720    1.64999998    2.91000009
   17.06416512  207.81100464    1.64999998    2.91000009
   17.06583214  193.29899597    1.64999998    2.91000009
   17.06888962  210.21699524    1.69000006    2.89000010
   17.07500076  210.21699524    1.73000002    2.91000009
   17.07916832  182.99200439    1.73000002    2.89000010
   17.08222389  196.93299866    1.76999998    2.89000010
   17.08555603  181.28500366    1.76999998    2.89000010
   17.08861160  169.04899597    1.73000002    2.89000010
   17.09194565  175.49099731    1.73000002    2.89000010
   17.09527779  168.38499451    1.73000002    2.86999989
   17.09749985  200.27600098    1.73000002    2.89000010
   17.09889030  187.05700684    1.73000002    2.89000010
   17.10194397  185.74099731    1.73000002    2.91000009
   17.10527802  171.96200562    1.73000002    2.91000009
   17.10861206  182.17500305    1.73000002    2.91000009
   17.11166763  172.73300171    1.76999998    2.89000010
   17.11777878  172.73300171    1.73000002    2.89000010
   17.12194443  193.66700745    1.71000004    2.89000010
   17.12500000  184.25500488    1.71000004    2.89000010
   17.12833405  202.59899902    1.69000006    2.89000010
   17.13083267  194.27299500    1.69000006    2.91000009
   17.13194466  194.46299744    1.69000006    2.89000010
   17.13500023  192.05400085    1.69000006    2.89000010
   17.13833237  170.60299683    1.71000004    2.89000010
   17.14166641  181.07200623    1.75000000    2.91000009
   17.14472198  188.22700500    1.76999998    2.89000010
   17.14805603  199.17100525    1.78999996    2.89000010
   17.15138817  155.07699585    1.78999996    2.89000010
   17.15444374  163.96000671    1.80999994    2.91000009
   17.16055489  163.96000671    1.80999994    2.89000010
   17.16472244  160.28599548    1.78999996    2.89000010
   17.16805458  170.51100159    1.78999996    2.89000010
   17.17111015  181.88800049    1.78999996    2.89000010
   17.17444420  166.55000305    1.78999996    2.89000010
   17.17749977  170.25300598    1.78999996    2.89000010
   17.18083191  172.20199585    1.80999994    2.89000010
   17.18416595  171.70599365    1.80999994    2.89000010
   17.18722153  181.48199463    1.83000004    2.89000010
   17.19055557  158.04100037    1.83000004    2.91000009
   17.19388771  170.81500244    1.83000004    2.89000010
   17.19694328  159.27099609    1.83000004    2.89000010
   17.19749832  163.01499939    1.83000004    2.89000010
   17.20333481  163.01499939    1.83000004    2.91000009
   17.20750046  166.92900085    1.85000002    2.89000010
   17.21083450  164.22300720    1.80999994    2.91000009
   17.21416664  170.66600037    1.80999994    2.89000010
   17.21722221  173.08999634    1.80999994    2.89000010
   17.22055626  175.09599304    1.80999994    2.89000010
   17.22361183  162.04400635    1.78999996    2.89000010
   17.22694588  168.32200623    1.76999998    2.89000010
   17.23027802  165.61000061    1.75000000    2.89000010
   17.23083305  165.07400513    1.75000000    2.89000010
   17.23388863  178.41600037    1.75000000    2.89000010
   17.23722267  164.05299377    1.73000002    2.89000010
   17.24027824  179.27000427    1.73000002    2.89000010
   17.24638939  179.27000427    1.71000004    2.89000010
   17.25027847  152.61399841    1.71000004    2.89000010
   17.25361061  151.89100647    1.39999998    2.91000009
   17.25694466  155.12800598    1.34000003    2.91000009
   17.26000023  146.09500122    1.33000004    2.91000009
   17.26333427  155.11000061    1.33000004    2.91000009
   17.26416588  154.72200012    1.33000004    2.91000009
   17.26694489  152.70199585    1.25000000    2.91000009
   17.27027702  155.83799744    1.23000002    2.91000009
   17.27333260  142.58200073    1.21000004    2.91000009
   17.27666664  158.67599487    1.23000002    2.93000007
   17.28000069  156.56399536    1.21000004    2.91000009
   17.28305435  143.48899841    1.21000004    2.93000007
   17.28916550  143.48899841    1.21000004    2.91000009
   17.29333305  153.39900208    1.21000004    2.93000007
   17.29638863  149.01699829    1.21000004    2.91000009
   17.29749870  150.33399963    1.21000004    2.91000009
   17.29999924  159.43899536    1.21000004    2.89000010
   17.30333328  157.47700500    1.21000004    2.91000009
   17.30638885  173.25399780    1.21000004    2.91000009
   17.30972099  161.42900085    1.19000006    2.91000009
   17.31277657  152.28700256    1.16999996    2.93000007
   17.31611061  153.77699280    1.14999998    2.91000009
   17.31944466  168.27600098    1.14999998    2.91000009
   17.32250023  151.64999390    1.14999998    2.91000009
   17.32583427  157.77699280    1.14999998    2.91000009
   17.33194542  157.77699280    1.01999998    2.91000009
   17.33611107  171.04899597    1.01999998    2.93000007
   17.33944511  149.86700439    1.01999998    2.91000009
   17.34250069  159.92599487    1.00000000    2.91000009
   17.34583473  147.74400330    1.00000000    2.91000009
   17.34916687  170.90800476    1.00000000    2.93000007
   17.35222244  164.14700317    1.05999994    2.93000007
   17.35555649  160.96099854    1.14999998    2.93000007
   17.35888863  171.11399841    1.28999996    2.91000009
   17.36194420  153.44599915    1.33000004    2.91000009
   17.36416626  165.86399841    1.33000004    2.91000009
   17.36555672  151.28300476    1.33000004    2.91000009
   17.36888885  165.58500671    1.36000001    2.91000009
   17.37472153  165.58500671    1.51999998    2.91000009
   17.37888908  137.52200317    1.51999998    2.91000009
   17.38222313  145.49600220    1.51999998    2.91000009
   17.38555527  167.27200317    1.51999998    2.91000009
   17.38861084  164.07600403    1.60000002    2.91000009
   17.39194489  150.67900085    1.60000002    2.89000010
   17.39500046  170.50399780    1.61000001    2.89000010
   17.39749908  160.09100342    1.61000001    2.89000010
   17.39888954  155.91200256    1.60000002    2.91000009
   17.40222168  144.12100220    1.60000002    2.91000009
   17.40527725  160.78999329    1.61000001    2.89000010
   17.40861130  144.49800110    1.63000000    2.89000010
   17.41194344  153.34199524    1.64999998    2.89000010
   17.41777802  153.34199524    1.64999998    2.91000009
   17.42194366  150.63400269    1.64999998    2.89000010
   17.42499924  152.91600037    1.69000006    2.91000009
   17.42833328  143.53999329    1.71000004    2.89000010
   17.43083191  148.16600037    1.71000004    2.89000010
   17.43194389  144.05000305    1.71000004    2.89000010
   17.43527603  146.45199585    1.75000000    2.91000009
   17.43833160  152.43899536    1.76999998    2.89000010
   17.44166565  148.49499512    1.76999998    2.91000009
   17.44499969  157.27999878    1.76999998    2.91000009
   17.44805527  154.41400146    1.76999998    2.89000010
   17.45138931  155.94599915    1.80999994    2.89000010
   17.45444489  160.31700134    1.78999996    2.91000009
   17.46055603  160.31700134    1.78999996    2.89000010
   17.46472359  156.08099365    1.78999996    2.89000010
   17.46777916  160.12699890    1.76999998    2.91000009
   17.47111130  150.76199341    1.76999998    2.89000010
   17.47444534  164.62600708    1.78999996    2.89000010
   17.47750092  157.31100464    1.80999994    2.91000009
   17.48083305  159.25199890    1.83000004    2.89000010
   17.48416710  146.11099243    1.83000004    2.89000010
   17.48722267  138.78599548    1.86000001    2.86999989
   17.49055672  159.90899658    1.86000001    2.89000010
   17.49361229  138.61700439    1.88000000    2.89000010
   17.49694443  152.34599304    1.89999998    2.89000010
   17.49749947  159.08799744    1.89999998    2.89000010
   17.50333405  159.08799744    1.91999996    2.89000010
   17.50749969  150.48699951    1.91999996    2.89000010
   17.51083374  131.87800598    1.94000006    2.89000010
   17.51388931  141.94000244    1.96000004    2.89000010
   17.51722145  139.96600342    1.94000006    2.89000010
   17.52055550  152.99099731    1.94000006    2.89000010
   17.52361107  145.30799866    1.94000006    2.91000009
   17.52694511  149.10000610    1.94000006    2.89000010
   17.53027725  150.71899414    1.96000004    2.89000010
   17.53083229  155.17999268    1.98000002    2.89000010
   17.53388786  151.69999695    1.98000002    2.89000010
   17.53722191  149.49600220    1.98000002    2.89000010
   17.54027748  164.33999634    2.01999998    2.89000010
   17.54611015  164.33999634    2.07999992    2.86999989
   17.55027771  174.80700684    2.09999990    2.89000010
   17.55360985  162.27699280    2.11999989    2.89000010
   17.55666542  168.89399719    4.90999985    2.94000006
   17.55999947  166.13900757    0.38000000    0.79000002
   17.56333351  152.77000427    0.17000000    0.41999999
   17.56416512  153.03999329    0.13000000    0.17000000
   17.56694603  155.31799316    0.11000000    0.11000000
   17.57027817  156.64599609    0.11000000    0.11000000
   17.57333374  150.73199463    0.11000000    0.11000000
   17.57666779  140.22300720    0.11000000    0.11000000
   17.58000183  142.29800415    0.11000000    0.11000000
   17.58305550  147.22099304    0.11000000    0.11000000
   17.58916664  147.22099304    0.11000000    0.11000000
   17.59305573  158.42500305    0.11000000    0.11000000
   17.59638977  151.13200378    0.11000000    0.11000000
   17.59749985  159.80799866    0.11000000    0.11000000
   17.60000038  155.21499634    0.11000000    0.11000000
   17.60333443  136.84199524    0.11000000    0.11000000
   17.60666656  142.89599609    0.11000000    0.11000000
   17.60972214  157.78599548    0.11000000    0.11000000
   17.61305618  145.16099548    0.11000000    0.11000000
   17.61611176  155.73300171    0.11000000    0.11000000
   17.61944389  142.89500427    0.11000000    0.11000000
   17.62277794  146.41999817    0.11000000    0.11000000
   17.62583351  139.82299805    0.11000000    0.11000000
   17.63194466  139.82299805    0.11000000    0.11000000
   17.63611031  142.21600342    0.11000000    0.11000000
   17.63916588  150.39599609    0.11000000    0.11000000
   17.64249992  143.42199707    0.11000000    0.11000000
   17.64583397  159.72000122    0.11000000    0.11000000
   17.64888954  148.77999878    0.11000000    0.11000000
   17.65222168  154.15499878    0.11000000    0.11000000
   17.65527725  150.32499695    0.11000000    0.11000000
   17.65861130  161.88900757    0.11000000    0.11000000
   17.66194344  140.89199829    0.11000000    0.11000000
   17.66416550  146.69400024    0.11000000    0.11000000
   17.66555595  144.03999329    0.11000000    0.11000000
   17.66888809  150.03599548    0.11000000    0.11000000
   17.67472076  150.03599548    0.11000000    0.11000000
   17.67888832  147.49499512    0.11000000    0.11000000
   17.68222237  147.06599426    0.11000000    0.11000000
   17.68527603  142.40800476    0.11000000    0.11000000
   17.68861008  148.00199890    0.11000000    0.11000000
   17.69166565  156.45899963    0.11000000    0.11000000
   17.69499969  150.65100098    0.11000000    0.11000000
   17.69749832  137.05999756    0.11000000    0.11000000
   17.69861031  147.35600281    0.11000000    0.11000000
   17.70194435  146.40299988    0.11000000    0.11000000
   17.70499992  142.14999390    0.11000000    0.11000000
   17.70833397  142.82000732    0.11000000    0.11000000
   17.71166801  148.93899536    0.11000000    0.11000000
   17.71750069  148.93899536    0.11000000    0.11000000
   17.72166634  151.72399902    0.11000000    0.11000000
   17.72500038  157.62800598    0.11000000    0.11000000
   17.72805595  146.72500610    0.11000000    0.11000000
   17.73083305  148.21600342    0.11000000    0.11000000
   17.73166656  143.51100159    0.11000000    0.11000000
   17.73500061  144.81199646    0.11000000    0.11000000
   17.73805618  149.40699768    0.11000000    0.11000000
   17.74138832  138.55900574    0.11000000    0.11000000
   17.74472237  153.52999878    0.11000000    0.11000000
   17.74777794  137.53500366    0.11000000    0.11000000
   17.75111198  133.41700745    0.11000000    0.11000000
   17.75444412  141.31900024    0.11000000    0.11000000
   17.76055527  141.31900024    0.11000000    0.11000000
   17.76444435  145.99200439    0.11000000    0.11000000
   17.76777840  150.25700378    0.11000000    0.11000000
   17.77111053  144.12600708    0.11000000    0.11000000
   17.77416611  140.36900330    0.11000000    0.11000000
   17.77750015  157.43899536    0.11000000    0.11000000
   17.78083229  152.81500244    0.11000000    0.11000000
   17.78388786  144.69900513    0.11000000    0.11000000
   17.78722191  160.17100525    0.11000000    0.11000000
   17.79027748  139.41799927    0.11000000    0.11000000
   17.79361153  147.72500610    0.11000000    0.11000000
   17.79694366  152.27900696    0.11000000    0.11000000
   17.79777718  152.06900024    0.11000000    0.11000000
   17.80333328  152.06900024    0.11000000    0.11000000
   17.80749893  141.75900269    0.11000000    0.11000000
   17.81055450  139.34899902    0.11000000    0.11000000
   17.81388855  146.70599365    0.11000000    0.11000000
   17.81722260  155.59100342    0.11000000    0.11000000
   17.82027817  148.06100464    0.11000000    0.11000000
   17.82361221  145.66400146    0.11000000    0.11000000
   17.82666779  147.58799744    0.11000000    0.11000000
   17.83000183  137.95199585    0.11000000    0.11000000
   17.83111191  146.94500732    0.11000000    0.11000000
   17.83361244  150.63200378    0.11000000    0.11000000
   17.83694458  126.84400177    0.11000000    0.11000000
   17.84000015  133.76400757    0.11000000    0.11000000
   17.84611130  133.76400757    0.11000000    0.11000000
   17.85027885  145.08799744    0.11000000    0.11000000
   17.85361099  139.02400208    0.11000000    0.11000000
   17.85666656  133.69700623    0.11000000    0.11000000
   17.86000061  137.10499573    0.11000000    0.11000000
   17.86333466  143.83999634    0.11000000    0.11000000
   17.86444473  138.62100220    0.11000000    0.11000000
   17.86666679  135.60299683    0.11000000    0.11000000
   17.87000084  133.66499329    0.11000000    0.11000000
   17.87305641  139.80499268    0.11000000    0.11000000
   17.87638855  142.51800537    0.11000000    0.11000000
   17.87972260  142.12800598    0.11000000    0.11000000
   17.88277817  138.33500671    0.11000000    0.11000000
   17.88888931  138.33500671    0.11000000    0.11000000
   17.89305496  141.16000366    0.11000000    0.11000000
   17.89638901  141.76600647    0.11000000    0.11000000
   17.89777756  153.96899414    0.11000000    0.11000000
   17.89999962  154.58299255    0.11000000    0.11000000
   17.90333366  149.59700012    0.11000000    0.11000000
   17.90666580  148.48699951    0.11000000    0.11000000
   17.90972137  150.81199646    0.11000000    0.11000000
   17.91305542  135.83000183    0.11000000    0.11000000
   17.91611099  137.37899780    0.11000000    0.11000000
   17.91944313  142.85600281    0.11000000    0.11000000
   17.92277718  145.19500732    0.11000000    0.11000000
   17.92583275  138.60200500    0.11000000    0.11000000
   17.93194389  138.60200500    0.11000000    0.11000000
   17.93583298  143.19900513    0.11000000    0.11000000
   17.93916512  143.09899902    0.11000000    0.11000000
   17.94249916  146.94700623    0.11000000    0.11000000
   17.94555473  149.69099426    0.11000000    0.11000000
   17.94888878  153.51199341    0.11000000    0.11000000
   17.95222282  146.11300659    0.11000000    0.11000000
   17.95527840  130.99400330    0.11000000    0.11000000
   17.95861244  147.45700073    0.11000000    0.11000000
   17.96166801  140.26400757    0.11000000    0.11000000
   17.96444511  122.79900360    0.11000000    0.11000000
   17.98500061  122.79900360    0.11000000    0.11000000
   17.98916626  147.17799377    0.11000000    0.11000000
   17.99222183  132.52600098    0.11000000    0.11000000
   17.99555588  134.21899414    0.11000000    0.11000000
   17.99777794  132.75900269    0.11000000    0.11000000
   17.99916649  135.06799316    0.11000000    0.11000000
   18.00250053  134.32099915    0.11000000    0.11000000
   18.00583267  145.04400635    0.11000000    0.11000000
   18.00888824  147.95899963    0.11000000    0.11000000
   18.01222229  131.43400574    0.11000000    0.11000000
   18.01527786  134.34500122    0.11000000    0.11000000
   18.01861000  131.41799927    0.11000000    0.11000000
   18.02194405  143.07800293    0.11000000    0.11000000
   18.02777672  143.07800293    0.11000000    0.11000000
   18.03194427  139.47500610    0.11000000    0.11000000
   18.03499985  119.72599792    0.11000000    0.11000000
   18.03833199  127.66600037    0.11000000    0.11000000
   18.04166603  135.20700073    0.11000000    0.11000000
   18.04472160  136.43600464    0.11000000    0.11000000
   18.04805565  145.81599426    0.11000000    0.11000000
   18.05111122  130.44500732    0.11000000    0.11000000
   18.05444336  131.16700745    0.11000000    0.11000000
   18.05777740  144.05400085    0.11000000    0.11000000
   18.06083298  131.75000000    0.11000000    0.11000000
   18.06416512  138.47399902    0.11000000    0.11000000
   18.06472206  129.87800598    0.11000000    0.11000000
   18.07055664  129.87800598    0.11000000    0.11000000
   18.07472229  141.85499573    0.11000000    0.11000000
   18.07805634  129.60899353    0.11000000    0.11000000
   18.08111191  135.59899902    0.11000000    0.11000000
   18.08444595  154.41299438    0.11000000    0.11000000
   18.08750153  135.54699707    0.11000000    0.11000000
   18.09083366  136.00300598    0.11000000    0.11000000
   18.09416771  141.99200439    0.11000000    0.11000000
   18.09722328  140.12899780    0.11000000    0.11000000
   18.09805679  145.12899780    0.11000000    0.11000000
   18.10111237  140.54899597    0.11000000    0.11000000
   18.10416794  138.40199280    0.11000000    0.11000000
   18.10750008  141.16900635    0.11000000    0.11000000
   18.11333466  141.16900635    0.11000000    0.11000000
   18.11750031  136.58599854    0.11000000    0.11000000
   18.12083435  134.47099304    0.11000000    0.11000000
   18.12388992  145.81599426    0.11000000    0.11000000
   18.12722206  203.62399292    0.11000000    0.11000000
   18.13055611  180.20199585    0.11000000    0.11000000
   18.13138962  183.92900085    0.11000000    0.11000000
   18.13416672  167.51400757    0.11000000    0.11000000
   18.13722229  200.15299988    0.11000000    0.11000000
   18.14055634  184.65600586    0.11000000    0.11000000
   18.14361191  163.58599854    0.11000000    0.11000000
   18.14694405  155.35800171    0.11000000    0.11000000
   18.15027809  158.84300232    0.11000000    0.11000000
   18.15638924  158.84300232    0.11000000    0.11000000
   18.16027832  128.41400146    0.11000000    0.11000000
   18.16361046  133.25599670    0.11000000    0.11000000
   18.16472244  144.78900146    0.11000000    0.11000000
   18.16749954  126.63099670    0.11000000    0.11000000
   18.17055511  142.30099487    0.11000000    0.11000000
   18.17388916  125.56700134    0.11000000    0.11000000
   18.17694473  129.94599915    0.11000000    0.11000000
   18.18027687  116.34500122    0.11000000    0.11000000
   18.18361092  157.85299683    0.11000000    0.11000000
   18.18666649  137.04899597    0.11000000    0.11000000
   18.18999863  126.44699860    0.11000000    0.11000000
   18.19333267  140.69999695    0.11000000    0.11000000
   18.19916534  140.69999695    0.11000000    0.11000000
   18.20333481  125.58799744    0.11000000    0.11000000
   18.20639038  133.78300476    0.11000000    0.11000000
   18.20972252  134.44299316    0.11000000    0.11000000
   18.21305656  141.31799316    0.11000000    0.11000000
   18.21611214  138.88299561    0.11000000    0.11000000
   18.21944427  139.39799500    0.11000000    0.11000000
   18.22249985  139.30700684    0.11000000    0.11000000
   18.22583389  134.18200684    0.11000000    0.11000000
   18.22916794  139.08000183    0.11000000    0.11000000
   18.23139000  142.10899353    0.11000000    0.11000000
   18.23277855  137.54499817    0.11000000    0.11000000
   18.23583412  131.16700745    0.11000000    0.11000000
   18.24194527  131.16700745    0.11000000    0.11000000
   18.24611092  139.74499512    0.11000000    0.11000000
   18.24944496  137.87399292    0.11000000    0.11000000
   18.25250053  154.94999695    0.11000000    0.11000000
   18.25583267  161.99099731    0.11000000    0.11000000
   18.25888824  163.86700439    0.11000000    0.11000000
   18.26222229  167.55599976    0.11000000    0.11000000
   18.26472282  161.11399841    0.11000000    0.11000000
   18.26611137  177.76899719    0.11000000    0.11000000
   18.26916695  185.10200500    0.11000000    0.11000000
   18.27249908  199.44999695    0.11000000    0.11000000
   18.27555466  208.16000366    0.11000000    0.11000000
   18.27888870  189.48599243    0.11000000    0.11000000
   18.28472137  189.48599243    0.11000000    0.11000000
   18.28888893  210.14100647    0.11000000    0.11000000
   18.29222107  183.78999329    0.11000000    0.11000000
   18.29527664  190.16299438    0.11000000    0.11000000
   18.29805565  228.96200562    0.11000000    0.11000000
   18.29916573  188.78199768    0.11000000    0.11000000
   18.30222130  183.08799744    0.11000000    0.11000000
   18.30555534  167.14100647    0.11000000    0.11000000
   18.30861092  172.39500427    0.11000000    0.11000000
   18.31194305  186.62500000    0.11000000    0.11000000
   18.31527710  157.32299805    0.11000000    0.11000000
   18.31833458  160.87100220    0.11000000    0.11000000
   18.32166672  133.47700500    0.11000000    0.11000000
   18.32777786  133.47700500    0.11000000    0.11000000
   18.33166695  132.12899780    0.11000000    0.11000000
   18.33500099  162.09100342    0.11000000    0.11000000
   18.33833313  154.48899841    0.11000000    0.11000000
   18.34138870  129.02999878    0.11000000    0.11000000
   18.34472275  132.81500244    0.11000000    0.11000000
   18.34805679  137.43800354    0.11000000    0.11000000
   18.35111237  127.26899719    0.11000000    0.11000000
   18.35444450  141.94200134    0.11000000    0.11000000
   18.35750008  133.25599670    0.11000000    0.11000000
   18.36083412  140.82600403    0.11000000    0.11000000
   18.36416626  134.27000427    0.11000000    0.11000000
   18.36472321  135.94099426    0.11000000    0.11000000
   18.37055588  135.94099426    0.11000000    0.11000000
   18.37472153  142.77999878    0.11000000    0.11000000
   18.37777710  118.89900208    0.11000000    0.11000000
   18.38111115  129.49400330    0.11000000    0.11000000
   18.38444519  135.54499817    0.11000000    0.11000000
   18.38750076  129.86700439    0.11000000    0.11000000
   18.39083290  133.32699585    0.11000000    0.11000000
   18.39416695  139.13299561    0.11000000    0.11000000
   18.39722252  120.20700073    0.11000000    0.11000000
   18.39805603  122.18599701    0.11000000    0.11000000
   18.40111160  128.48800659    0.11000000    0.11000000
   18.40416718  124.23200226    0.11000000    0.11000000
   18.40749931  133.18499756    0.11000000    0.11000000
   18.41333389  133.18499756    0.11000000    0.11000000
   18.41749954  130.86700439    0.11000000    0.11000000
   18.42055511  128.86700439    0.11000000    0.11000000
   18.42388916  124.64099884    0.11000000    0.11000000
   18.42722130  123.45300293    0.11000000    0.11000000
   18.43027687  125.89800262    0.11000000    0.11000000
   18.43138885  131.30700684    0.11000000    0.11000000
   18.43416595  126.33799744    0.11000000    0.11000000
   18.43722153  135.59800720    0.11000000    0.11000000
   18.44055557  128.55400085    0.11000000    0.11000000
   18.44388771  129.64199829    0.11000000    0.11000000
   18.44694328  137.31599426    0.11000000    0.11000000
   18.45027924  141.70300293    0.11000000    0.11000000
   18.45611191  141.70300293    0.11000000    0.11000000
   18.46027946  130.93600464    0.11000000    0.11000000
   18.46361160  146.37500000    0.11000000    0.11000000
   18.46472359  134.07800293    0.11000000    0.11000000
   18.46722221  138.64799500    0.11000000    0.11000000
   18.47055626  129.68699646    0.11000000    0.11000000
   18.47361183  135.99499512    0.11000000    0.11000000
   18.47694588  147.78399658    0.11000000    0.11000000
   18.48000145  149.37800598    0.11000000    0.11000000
   18.48333359  139.41400146    0.11000000    0.11000000
   18.48666763  151.88000488    0.11000000    0.11000000
   18.48972321  172.00500488    0.11000000    0.11000000
   18.49305534  156.01899719    0.11000000    0.11000000
   18.49888992  156.01899719    0.11000000    0.11000000
   18.50305557  158.95700073    0.11000000    0.11000000
   18.50638962  176.17999268    0.11000000    0.11000000
   18.50972176  168.92799377    0.11000000    0.11000000
   18.51277733  165.53799438    0.11000000    0.11000000
   18.51611137  159.42900085    0.11000000    0.11000000
   18.51916695  168.56399536    0.11000000    0.11000000
   18.52249908  156.11900330    0.11000000    0.11000000
   18.52583313  179.00100708    0.11000000    0.11000000
   18.52888870  177.54299927    0.11000000    0.11000000
   18.53138924  165.81399536    0.11000000    0.11000000
   18.53277779  171.92999268    0.11000000    0.11000000
   18.53583336  155.64199829    0.11000000    0.11000000
   18.54194450  155.64199829    0.11000000    0.11000000
   18.54611015  167.34399414    0.11000000    0.11000000
   18.54916573  166.22200012    0.11000000    0.11000000
   18.55249977  172.04100037    0.11000000    0.11000000
   18.55555534  180.07899475    0.11000000    0.11000000
   18.55888748  147.00300598    0.11000000    0.11000000
   18.56222153  180.90199280    0.11000000    0.11000000
   18.56472206  141.86599731    0.11000000    0.11000000
   18.56583214  168.85400391    0.11000000    0.11000000
   18.56888962  164.14999390    0.11000000    0.11000000
   18.57222366  162.14500427    0.11000000    0.11000000
   18.57555580  163.06100464    0.11000000    0.11000000
   18.57861137  155.64399719    0.11000000    0.11000000
   18.58472252  155.64399719    0.11000000    0.11000000
   18.58889008  157.10299683    0.11000000    0.11000000
   18.59194565  155.77900696    0.11000000    0.11000000
   18.59527779  152.63900757    0.11000000    0.11000000
   18.59805679  158.40299988    0.11000000    0.11000000
   18.59889030  154.26600647    0.11000000    0.11000000
   18.60194397  155.15800476    0.11000000    0.11000000
   18.60527802  155.63000488    0.11000000    0.11000000
   18.60861206  155.04899597    0.11000000    0.11000000
   18.61166763  148.59800720    0.11000000    0.11000000
   18.61499977  145.20100403    0.11000000    0.11000000
   18.61805534  150.30700684    0.11000000    0.11000000
   18.62138939  155.22500610    0.11000000    0.11000000
   18.62750053  155.22500610    0.11000000    0.11000000
   18.63166618  153.24499512    0.11000000    0.11000000
   18.63500023  155.76100159    0.11000000    0.11000000
   18.63805580  164.48800659    0.11000000    0.11000000
   18.64138794  156.22500610    0.11000000    0.11000000
   18.64472198  150.19799805    0.11000000    0.11000000
   18.64777756  152.58099365    0.11000000    0.11000000
   18.65111160  141.96600342    0.11000000    0.11000000
   18.65444374  141.51400757    0.11000000    0.11000000
   18.65749931  156.19900513    0.11000000    0.11000000
   18.66083336  157.22000122    0.11000000    0.11000000
   18.66388893  143.33200073    0.11000000    0.11000000
   18.66472244  140.62600708    0.11000000    0.11000000
   18.67027664  140.62600708    0.11000000    0.11000000
   18.67444420  135.12399292    0.11000000    0.11000000
   18.67777634  143.73500061    0.11000000    0.11000000
   18.68111038  151.60299683    0.11000000    0.11000000
   18.68416595  136.38699341    0.11000000    0.11000000
   18.68750000  140.89900208    0.11000000    0.11000000
   18.69055557  142.89500427    0.11000000    0.11000000
   18.69388771  141.17799377    0.11000000    0.11000000
   18.69722176  144.91200256    0.11000000    0.11000000
   18.69805527  140.57699585    0.11000000    0.11000000
   18.70083427  138.11399841    0.11000000    0.11000000
   18.70388985  146.49099731    0.11000000    0.11000000
   18.70722389  140.46400452    0.11000000    0.11000000
   18.71333504  140.46400452    0.11000000    0.11000000
   18.71750069  146.64199829    0.11000000    0.11000000
   18.72055626  136.95700073    0.11000000    0.11000000
   18.72389030  143.52200317    0.11000000    0.11000000
   18.72694588  144.15299988    0.11000000    0.11000000
   18.73027802  143.09100342    0.11000000    0.11000000
   18.73166656  136.58599854    0.11000000    0.11000000
   18.73416710  138.83700562    0.11000000    0.11000000
   18.73750114  146.14399719    0.11000000    0.11000000
   18.74055672  138.24400330    0.11000000    0.11000000
   18.74388885  144.22999573    0.11000000    0.11000000
   18.74722290  140.76600647    0.11000000    0.11000000
   18.75027847  138.57800293    0.11000000    0.11000000
   18.75611115  138.57800293    0.11000000    0.11000000
   18.76027870  136.46800232    0.11000000    0.11000000
   18.76333427  129.68899536    0.11000000    0.11000000
   18.76472282  138.86399841    0.11000000    0.11000000
   18.76722145  138.03500366    0.11000000    0.11000000
   18.77027702  143.50300598    0.11000000    0.11000000
   18.77361107  150.39799500    0.11000000    0.11000000
   18.77694511  136.66799927    0.11000000    0.11000000
   18.78000069  149.78999329    0.11000000    0.11000000
   18.78333282  135.48300171    0.11000000    0.11000000
   18.78666687  131.82899475    0.11000000    0.11000000
   18.78972244  131.83999634    0.11000000    0.11000000
   18.79305458  138.42599487    0.11000000    0.11000000
   18.79888916  138.42599487    0.11000000    0.11000000
   18.80305481  136.98899841    0.11000000    0.11000000
   18.80638885  134.33799744    0.11000000    0.11000000
   18.80944443  129.25100708    0.11000000    0.11000000
   18.81277657  137.32600403    0.11000000    0.11000000
   18.81611061  139.31199646    0.11000000    0.11000000
   18.81916809  130.88800049    0.11000000    0.11000000
   18.82250023  135.05799866    0.11000000    0.11000000
   18.82555580  139.13299561    0.11000000    0.11000000
   18.82888985  140.00700378    0.11000000    0.11000000
   18.83139038  139.39599609    0.11000000    0.11000000
   18.83250046  136.47500610    0.11000000    0.11000000
   18.83555603  141.36500549    0.11000000    0.11000000
   18.84166718  141.36500549    0.11000000    0.11000000
   18.84583473  138.48399353    0.11000000    0.11000000
   18.84916687  144.08999634    0.11000000    0.11000000
   18.85250092  135.47399902    0.11000000    0.11000000
   18.85555649  135.90400696    0.11000000    0.11000000
   18.85888863  133.27000427    0.11000000    0.11000000
   18.86194420  138.53900146    0.11000000    0.11000000
   18.86472321  146.69700623    0.11000000    0.11000000
   18.86583328  144.67100525    0.11000000    0.11000000
   18.86916733  141.28399658    0.11000000    0.11000000
   18.87222290  141.21400452    0.11000000    0.11000000
   18.87555504  143.39399719    0.11000000    0.11000000
   18.87861061  145.48300171    0.11000000    0.11000000
   18.88472176  145.48300171    0.11000000    0.11000000
   18.88888931  148.52799988    0.11000000    0.11000000
   18.89194489  149.03399658    0.11000000    0.11000000
   18.89527702  147.11300659    0.11000000    0.11000000
   18.89805603  149.54800415    0.11000000    0.11000000
   18.89888954  151.68200684    0.11000000    0.11000000
   18.90222168  158.66600037    0.11000000    0.11000000
   18.90527725  144.83099365    0.11000000    0.11000000
   18.90861130  160.20500183    0.11000000    0.11000000
   18.91166687  165.01300049    0.11000000    0.11000000
   18.91499901  163.42100525    0.11000000    0.11000000
   18.91833305  171.61500549    0.11000000    0.11000000
   18.92138863  155.33099365    0.11000000    0.11000000
   18.92749977  155.33099365    0.11000000    0.11000000
   18.93166542  169.11199951    0.11000000    0.11000000
   18.93472099  183.83700562    0.11000000    0.11000000
   18.93805504  157.97500610    0.11000000    0.11000000
   18.94138718  166.00500488    0.11000000    0.11000000
   18.94472122  170.67900085    0.11000000    0.11000000
   18.94805527  170.48899841    0.11000000    0.11000000
   18.95138931  170.48199463    0.11000000    0.11000000
   18.95444489  174.29299927    0.11000000    0.11000000
   18.95777893  170.28399658    0.11000000    0.11000000
   18.96111107  179.19200134    0.11000000    0.11000000
   18.96416664  166.53599548    0.11000000    0.11000000
   18.96472359  165.07699585    0.11000000    0.11000000
   18.97027779  165.07699585    0.11000000    0.11000000
   18.97444534  145.78399658    0.11000000    0.11000000
   18.97777748  155.34700012    0.11000000    0.11000000
   18.98083305  156.79800415    0.11000000    0.11000000
   18.99861145  158.85699463    0.11000000    0.11000000
   19.00083351  162.13299561    0.11000000    0.11000000
   19.00416756  169.95300293    0.11000000    0.11000000
   19.00749969  164.95100403    0.11000000    0.11000000
   19.01333427  164.95100403    0.11000000    0.11000000
   19.01749992  167.67900085    0.11000000    0.11000000
   19.02083397  167.47399902    0.11000000    0.11000000
   19.02388954  159.84500122    0.11000000    0.11000000
   19.02722168  166.30299377    0.11000000    0.11000000
   19.03027725  162.22900391    0.11000000    0.11000000
   19.03166580  172.46699524    0.11000000    0.11000000
   19.03388786  166.62600708    0.11000000    0.11000000
   19.03722191  173.82499695    0.11000000    0.11000000
   19.04027748  171.90499878    0.11000000    0.11000000
   19.04361153  161.14900208    0.11000000    0.11000000
   19.04694366  172.51600647    0.11000000    0.11000000
   19.04999924  162.26300049    0.11000000    0.11000000
   19.05611038  162.26300049    0.11000000    0.11000000
   19.06027794  163.30700684    0.11000000    0.11000000
   19.06361008  142.05700684    0.11000000    0.11000000
   19.06499863  171.19599915    0.11000000    0.11000000
   19.06722260  147.48899841    0.11000000    0.11000000
   19.07055664  166.44799805    0.11000000    0.11000000
   19.07361221  151.75700378    0.11000000    0.11000000
   19.07694626  136.14999390    0.11000000    0.11000000
   19.08027840  151.83900452    0.11000000    0.11000000
   19.08333397  146.44200134    0.11000000    0.11000000
   19.08666801  137.33099365    0.11000000    0.11000000
   19.09000015  144.81700134    0.11000000    0.11000000
   19.09305573  160.43600464    0.11000000    0.11000000
   19.09916687  160.43600464    0.11000000    0.11000000
   19.10305595  142.44000244    0.11000000    0.11000000
   19.10639000  146.98199463    0.11000000    0.11000000
   19.10972214  149.08200073    0.11000000    0.11000000
