    HOUR (UT)   FLARE FACTOR    SKY TESTER    SUN TESTER
   10.92027855   -1.00000000   -1.00000000   -1.00000000
   10.96583271  380.08099365    0.00000000    0.00000000
   10.96916580  375.00500488    0.00000000    0.00000000
   10.97222137  405.30700684    0.00000000    0.00000000
   10.97444439  371.90200806    0.00000000    0.00000000
   10.97555542  355.64700317    0.00000000    0.00000000
   10.97694397  368.47500610    0.00000000    0.00000000
   10.97833252  350.88400269    0.00000000    0.00000000
   10.97972202  381.49899292    0.00000000    0.00000000
   10.98111057  361.95599365    0.00000000    0.00000000
   10.98249912  378.41000366    0.00000000    0.00000000
   10.98388958  368.98800659    0.00000000    0.00000000
   10.98527813  360.91900635    0.00000000    0.00000000
   10.98666668  369.40499878    0.00000000    0.00000000
   10.98805618  370.16799927    0.00000000    0.00000000
   10.98944473  347.90100098    0.00000000    0.00000000
   10.98972225  375.00500488    0.00000000    0.00000000
   10.98972225  405.30700684    0.00000000    0.00000000
   10.99027824  367.75698853    0.00000000    0.00000000
   10.99361134  359.70498657    0.00000000    0.00000000
   10.99666691  351.94100952    0.00000000    0.00000000
   11.00000000  370.39199829    0.00000000    0.00000000
   11.00305557  358.86499023    0.00000000    0.00000000
   11.00638866  352.53601074    0.00000000    0.00000000
   11.01055527  352.53601074    0.00000000    0.00000000
   11.01472187  351.67300415    0.00000000    0.00000000
   11.01777744  354.17599487    0.00000000    0.00000000
   11.02111053  355.30398560    0.98000002    2.01999998
   11.02333355  329.71899414    0.98000002    2.01999998
   11.02472210  359.09201050    0.98000002    2.01999998
   11.02777767  346.98498535    0.98000002    2.01999998
   11.03111076  365.81399536    0.98000002    2.01999998
   11.03444481  336.66598511    0.98000002    2.01999998
   11.03750038  338.41598511    0.98000002    2.01999998
   11.04083347  339.35198975    0.98000002    2.01999998
   11.04388905  325.52700806    0.98000002    2.01999998
   11.04722309  338.28601074    0.98000002    2.01999998
   11.05333328  338.28601074    0.98000002    2.01999998
   11.05749989  311.08599854    0.98000002    2.01999998
   11.06083393  299.03399658    0.98000002    2.01999998
   11.06388950  311.56698608    0.98000002    2.01999998
   11.06722260  307.49398804    0.98000002    2.01999998
   11.07027817  308.84698486    0.98000002    2.01999998
   11.07361126  300.81698608    0.98000002    2.01999998
   11.07694435  287.92401123    0.98000002    2.01999998
   11.08027744  318.41299438    0.98000002    2.01999998
   11.08333302  309.13598633    0.98000002    2.01999998
   11.08666611  302.62799072    0.98000002    2.01999998
   11.08972168  299.44000244    0.98000002    2.01999998
   11.09027767  294.26199341    0.98000002    2.01999998
   11.09611034  294.26199341    0.98000002    2.01999998
   11.10027790  298.26998901    0.98000002    2.01999998
   11.10361195  292.96899414    0.98000002    2.01999998
   11.10666752  317.74499512    0.98000002    2.01999998
   11.11000061  296.06900024    0.98000002    2.01999998
   11.11333370  299.01599121    0.98000002    2.01999998
   11.11638927  306.13500977    0.98000002    2.01999998
   11.11972237  309.83499146    0.98000002    2.01999998
   11.12305546  311.41000366    0.98000002    2.01999998
   11.12361145  299.54998779    0.98000002    2.01999998
   11.12666702  321.51699829    0.98000002    2.01999998
   11.13000011  298.26501465    0.98000002    2.01999998
   11.13305569  291.68499756    0.98000002    2.01999998
   11.13916683  291.68499756    0.98000002    2.01999998
   11.14333344  311.09298706    0.98000002    2.01999998
   11.14638901  301.14401245    0.98000002    2.01999998
   11.14972210  308.79199219    0.98000002    2.01999998
   11.15277767  301.66900635    0.98000002    2.01999998
   11.15611076  313.41000366    0.98000002    2.01999998
   11.15694427  308.75799561    0.98000002    2.01999998
   11.15972137  301.30300903    0.98000002    2.01999998
   11.16305542  286.40200806    0.98000002    2.01999998
   11.16611099  294.39300537    0.98000002    2.01999998
   11.16944504  279.77700806    0.98000002    2.01999998
   11.17277813  278.34799194    0.98000002    2.01999998
   11.17583370  286.94900513    0.98000002    2.01999998
   11.18194485  286.94900513    0.98000002    2.01999998
   11.18611145  275.47900391    0.98000002    2.01999998
   11.18916702  272.44601440    0.98000002    2.01999998
   11.19027805  283.09799194    0.98000002    2.01999998
   11.19277763  281.30398560    0.98000002    2.01999998
   11.19611073  271.03500366    0.98000002    2.01999998
   11.19916630  280.13900757    0.98000002    2.01999998
   11.20249939  276.16000366    0.98000002    2.01999998
   11.20583344  253.61399841    0.98000002    2.01999998
   11.20888901  271.27200317    0.98000002    2.01999998
   11.21222210  257.76501465    0.98000002    2.01999998
   11.21555519  259.04598999    0.98000002    2.01999998
   11.21861076  244.96899414    0.98000002    2.01999998
   11.22472191  244.96899414    0.98000002    2.01999998
   11.22888851  263.32699585    0.98000002    2.01999998
   11.23222160  265.35400391    0.98000002    2.01999998
   11.23527813  255.42900085    0.98000002    2.01999998
   11.23861122  258.05700684    0.98000002    2.01999998
   11.24194431  247.33200073    0.98000002    2.01999998
   11.24499989  253.02799988    0.98000002    2.01999998
   11.24833393  258.51300049    0.98000002    2.01999998
   11.25166702  259.66101074    0.98000002    2.01999998
   11.25472260  254.44900513    0.98000002    2.01999998
   11.25722218  305.47399902    0.98000002    2.01999998
   11.25833321  261.15499878    0.98000002    2.01999998
   11.26166630  281.01199341    0.98000002    2.01999998
   11.26749992  281.01199341    0.98000002    2.01999998
   11.27166653  288.69299316    0.98000002    2.01999998
   11.27499962  265.85400391    0.98000002    2.01999998
   11.27833271  244.95599365    0.98000002    2.01999998
   11.28138828  248.32499695    0.98000002    2.01999998
   11.28472233  259.33499146    0.98000002    2.01999998
   11.28777790  252.26600647    0.98000002    2.01999998
   11.29027843  239.64700317    0.98000002    2.01999998
   11.29138947  252.74200439    0.98000002    2.01999998
   11.29472256  249.88099670    0.98000002    2.01999998
   11.29777813  242.04499817    0.98000002    2.01999998
   11.30111122  236.47900391    0.98000002    2.01999998
   11.30444431  252.70199585    0.98000002    2.01999998
   11.31055546  252.70199585    0.98000002    2.01999998
   11.31444454  240.18299866    0.98000002    2.01999998
   11.31777763  255.25599670    0.98000002    2.01999998
   11.32111073  240.19599915    0.98000002    2.01999998
   11.32361126  227.39399719    0.98000002    2.01999998
   11.32472229  246.04100037    0.98000002    2.01999998
   11.32805538  245.16299438    0.98000002    2.01999998
   11.33111095  248.82600403    0.98000002    2.01999998
   11.33444405  247.60699463    0.98000002    2.01999998
   11.33777714  227.45599365    0.98000002    2.01999998
   11.34083271  240.66700745    0.98000002    2.01999998
   11.34416676  280.89001465    0.98000002    2.01999998
   11.34722233  257.30300903    0.98000002    2.01999998
   11.35333347  257.30300903    0.98000002    2.01999998
   11.35750008  237.57200623    0.98000002    2.01999998
   11.36055565  247.92599487    0.98000002    2.01999998
   11.36388969  240.11700439    0.98000002    2.01999998
   11.36722279  241.77000427    0.98000002    2.01999998
   11.37027836  241.92900085    0.98000002    2.01999998
   11.37361145  242.02600098    0.98000002    2.01999998
   11.37694454  238.16400146    0.98000002    2.01999998
   11.38000011  323.97601318    0.98000002    2.01999998
   11.38333321  270.14099121    0.98000002    2.01999998
   11.38638878  266.67800903    0.98000002    2.01999998
   11.38972187  248.49499512    0.98000002    2.01999998
   11.39055538  248.11000061    0.98000002    2.01999998
   11.39611053  248.11000061    0.98000002    2.01999998
   11.40027714  243.43200684    0.98000002    2.01999998
   11.40361118  236.82699585    0.98000002    2.01999998
   11.40666676  280.19900513    0.98000002    2.01999998
   11.40999985  235.53599548    0.98000002    2.01999998
   11.41333294  263.64001465    0.98000002    2.01999998
   11.41638851  281.61099243    0.98000002    2.01999998
   11.41972256  279.20901489    0.98000002    2.01999998
   11.42277813  229.41999817    0.98000002    2.01999998
   11.42388916  265.13699341    0.98000002    2.01999998
   11.42638874  247.51600647    0.98000002    2.01999998
   11.42972279  285.57501221    0.98000002    2.01999998
   11.43305588  273.79501343    0.98000002    2.01999998
   11.43888855  273.79501343    0.98000002    2.01999998
   11.44305515  249.35699463    0.98000002    2.01999998
   11.44638920  241.19200134    0.98000002    2.01999998
   11.44972229  250.63600159    0.98000002    2.01999998
   11.45277786  231.64300537    0.98000002    2.01999998
   11.45611095  257.23901367    0.98000002    2.01999998
   11.45722198  224.39900208    0.98000002    2.01999998
   11.45972157  230.48300171    0.98000002    2.01999998
   11.46305561  232.33999634    0.98000002    2.01999998
   11.46611118  218.77000427    0.98000002    2.01999998
   11.46944427  254.55400085    0.98000002    2.01999998
   11.47277737  239.21200562    0.98000002    2.01999998
   11.47583294  259.39599609    0.98000002    2.01999998
   11.48194408  259.39599609    0.98000002    2.01999998
   11.48583317  222.72300720    0.98000002    2.01999998
   11.48916721  219.54899597    0.98000002    2.01999998
   11.49055576  215.39100647    0.98000002    2.01999998
   11.49277782  212.48100281    0.98000002    2.01999998
   11.49611092  224.91600037    0.98000002    2.01999998
   11.49944496  219.34899902    0.98000002    2.01999998
   11.50249958  225.55999756    0.98000002    2.01999998
   11.50583363  217.23699951    0.98000002    2.01999998
   11.50916672  216.16999817    0.98000002    2.01999998
   11.51222229  220.71499634    0.98000002    2.01999998
   11.51555538  215.85000610    0.98000002    2.01999998
   11.51861095  211.47500610    0.98000002    2.01999998
   11.52472210  211.47500610    0.98000002    2.01999998
   11.52888870  213.89199829    0.98000002    2.01999998
   11.53194427  204.14399719    0.98000002    2.01999998
   11.53527832  201.11500549    0.98000002    2.01999998
   11.53861141  206.21099854    0.98000002    2.01999998
   11.54166698  210.43299866    0.98000002    2.01999998
   11.54500008  211.88299561    0.98000002    2.01999998
   11.54833412  209.89700317    0.98000002    2.01999998
   11.55138874  212.01400757    0.98000002    2.01999998
   11.55472279  225.34899902    0.98000002    2.01999998
   11.55722237  208.32499695    0.98000002    2.01999998
   11.55833340  210.09700012    0.98000002    2.01999998
   11.56166649  212.91900635    0.98000002    2.01999998
   11.56750011  212.91900635    0.98000002    2.01999998
   11.57166672  210.70700073    0.98000002    2.01999998
   11.57499981  216.74000549    0.98000002    2.01999998
   11.57805538  199.93800354    0.98000002    2.01999998
   11.58138847  208.35600281    0.98000002    2.01999998
   11.58472157  216.22999573    0.98000002    2.01999998
   11.58777714  221.10800171    0.98000002    2.01999998
   11.59055519  222.61999512    0.98000002    2.01999998
   11.59138870  229.07600403    0.98000002    2.01999998
   11.59472179  209.71400452    0.98000002    2.01999998
   11.59805489  216.50599670    0.98000002    2.01999998
   11.60111141  223.34100342    0.98000002    2.01999998
   11.60444450  248.50999451    0.98000002    2.01999998
   11.61027813  248.50999451    0.98000002    2.01999998
   11.61444473  250.37300110    0.98000002    2.01999998
   11.61777782  237.66200256    0.98000002    2.01999998
   11.62083340  246.50199890    0.98000002    2.01999998
   11.62388897  246.48199463    0.98000002    2.01999998
   11.62444496  248.66700745    0.98000002    2.01999998
   11.62777805  252.21499634    0.98000002    2.01999998
   11.63083363  217.33999634    0.98000002    2.01999998
   11.63416672  217.16700745    0.98000002    2.01999998
   11.63749981  215.19999695    0.98000002    2.01999998
   11.64055538  201.67999268    0.98000002    2.01999998
   11.64388847  213.70599365    0.98000002    2.01999998
   11.64722252  198.58700562    0.98000002    2.01999998
   11.65333271  198.58700562    0.98000002    2.01999998
   11.65722179  201.57400513    0.98000002    2.01999998
   11.66055489  203.09199524    0.98000002    2.01999998
   11.66388893  212.32400513    0.98000002    2.01999998
   11.66694450  213.99099731    0.98000002    2.01999998
   11.67027855  200.85200500    0.98000002    2.01999998
   11.67333412  200.35099792    0.98000002    2.01999998
   11.67666721  201.55499268    0.98000002    2.01999998
   11.68000031  203.12300110    0.98000002    2.01999998
   11.68305588  188.81300354    0.98000002    2.01999998
   11.68638897  198.20300293    0.98000002    2.01999998
   11.68972206  209.31900024    0.98000002    2.01999998
   11.69055557  212.27999878    0.98000002    2.01999998
   11.69611073  212.27999878    0.98000002    2.01999998
   11.70027733  203.71699524    0.98000002    2.01999998
   11.70333290  208.25100708    0.98000002    2.01999998
   11.70666695  201.60099792    0.98000002    2.01999998
   11.70972157  202.12300110    0.98000002    2.01999998
   11.71305561  203.53599548    0.98000002    2.01999998
   11.71638870  206.52099609    0.98000002    2.01999998
   11.71944427  215.30799866    0.98000002    2.01999998
   11.72277737  202.02200317    0.98000002    2.01999998
   11.72388840  204.40600586    0.98000002    2.01999998
   11.72638798  214.95799255    0.98000002    2.01999998
   11.72972202  206.75799561    0.98000002    2.01999998
   11.73305511  197.83599854    0.98000002    2.01999998
   11.73888874  197.83599854    0.98000002    2.01999998
   11.74305534  193.70799255    0.98000002    2.01999998
   11.74638939  205.28900146    0.98000002    2.01999998
   11.74944496  194.79600525    0.98000002    2.01999998
   11.75277805  207.26199341    0.98000002    2.01999998
   11.75611115  211.05499268    0.98000002    2.01999998
   11.75722218  202.72300720    0.98000002    2.01999998
   11.75944424  202.66600037    0.98000002    2.01999998
   11.76277733  205.36700439    0.98000002    2.01999998
   11.76611137  201.56199646    0.98000002    2.01999998
   11.76916599  200.92100525    0.98000002    2.01999998
   11.77250004  205.49699402    0.98000002    2.01999998
   11.77555561  202.52900696    0.98000002    2.01999998
   11.78166676  202.52900696    0.98000002    2.01999998
   11.78583336  193.43699646    0.98000002    2.01999998
   11.78916740  197.86000061    0.98000002    2.01999998
   11.79055595  213.13699341    0.98000002    2.01999998
   11.79250050  202.78100586    0.98000002    2.01999998
   11.79583359  190.72999573    0.98000002    2.01999998
   11.79916668  192.83700562    0.98000002    2.01999998
   11.80222225  199.48300171    0.98000002    2.01999998
   11.80555534  198.55499268    0.98000002    2.01999998
   11.80861092  198.35600281    0.98000002    2.01999998
   11.81194496  190.36500549    0.98000002    2.01999998
   11.81527805  196.66900635    0.98000002    2.01999998
   11.81833363  206.59700012    0.98000002    2.01999998
   11.82472229  206.59700012    0.98000002    2.01999998
   11.82888889  215.43800354    0.98000002    2.01999998
   11.83194447  208.39399719    0.98000002    2.01999998
   11.83527756  208.69400024    0.98000002    2.01999998
   11.83833313  200.00900269    0.98000002    2.01999998
   11.84166622  212.41000366    0.98000002    2.01999998
   11.84499931  209.41600037    0.98000002    2.01999998
   11.84805489  201.30200195    0.98000002    2.01999998
   11.85138893  197.85099792    0.98000002    2.01999998
   11.85444450  202.13299561    0.98000002    2.01999998
   11.85722256  216.81700134    0.98000002    2.01999998
   11.85805607  198.11999512    0.98000002    2.01999998
   11.86138916  204.54499817    0.98000002    2.01999998
   11.86750031  204.54499817    0.98000002    2.01999998
   11.87166691  210.85099792    0.98000002    2.01999998
   11.87472248  195.14300537    0.98000002    2.01999998
   11.87805557  192.05599976    0.98000002    2.01999998
   11.88111115  210.64999390    0.98000002    2.01999998
   11.88444424  209.81599426    0.98000002    2.01999998
   11.88777733  197.50000000    0.98000002    2.01999998
   11.89055538  221.59199524    0.98000002    2.01999998
   11.89138889  211.88800049    0.98000002    2.01999998
   11.89472198  223.53900146    0.98000002    2.01999998
   11.89805508  226.75700378    0.98000002    2.01999998
   11.90111065  220.63999939    0.98000002    2.01999998
   11.90444374  200.33000183    0.98000002    2.01999998
   11.91027737  200.33000183    0.98000002    2.01999998
   11.91444397  205.33099365    0.98000002    2.01999998
   11.91750050  210.59599304    0.98000002    2.01999998
   11.92083359  205.49400330    0.98000002    2.01999998
   11.92388916  204.94500732    0.98000002    2.01999998
   11.92444515  202.86000061    0.98000002    2.01999998
   11.92777824  197.05299377    0.98000002    2.01999998
   11.93111134  197.64199829    0.98000002    2.01999998
   11.93416691  195.26400757    0.98000002    2.01999998
   11.93750000  203.12800598    0.98000002    2.01999998
   11.94055557  202.96899414    0.98000002    2.01999998
   11.94388866  193.53300476    0.98000002    2.01999998
   11.94722271  206.88299561    0.98000002    2.01999998
   11.95305538  206.88299561    0.98000002    2.01999998
   11.95722198  229.23800659    0.98000002    2.01999998
   11.96055508  223.05900574    0.98000002    2.01999998
   11.96361065  214.61799622    0.98000002    2.01999998
   11.98333359  213.09199524    0.98000002    2.01999998
   11.98638916  218.14599609    0.98000002    2.01999998
   11.98972225  223.90400696    0.98000002    2.01999998
   11.99083328  223.70599365    0.98000002    2.01999998
   11.99611092  223.70599365    0.98000002    2.01999998
   12.00027752  219.83599854    0.98000002    2.01999998
   12.00333309  203.20599365    0.98000002    2.01999998
   12.00666714  217.38999939    0.98000002    2.01999998
   12.00972176  218.63499451    0.98000002    2.01999998
   12.01305580  225.38800049    0.98000002    2.01999998
   12.01638889  223.87600708    0.98000002    2.01999998
   12.01944447  218.59700012    0.98000002    2.01999998
   12.02277756  214.80999756    0.98000002    2.01999998
   12.02416611  218.05299377    0.98000002    2.01999998
   12.02638817  215.10200500    0.98000002    2.01999998
   12.02972221  211.30200195    0.98000002    2.01999998
   12.03305531  228.86399841    0.98000002    2.01999998
   12.03888893  228.86399841    0.98000002    2.01999998
   12.04305553  212.92500305    0.98000002    2.01999998
   12.04638958  221.75700378    0.98000002    2.01999998
   12.04944515  226.33900452    0.98000002    2.01999998
   12.05277824  218.46400452    0.98000002    2.01999998
   12.05611134  222.83900452    0.98000002    2.01999998
   12.05749989  205.30900574    0.98000002    2.01999998
   12.05944443  204.33000183    0.98000002    2.01999998
   12.06277752  221.02299500    0.98000002    2.01999998
   12.06611156  209.49499512    0.98000002    2.01999998
   12.06916618  210.49699402    0.98000002    2.01999998
   12.07250023  208.99400330    0.98000002    2.01999998
   12.07555580  217.53999329    0.98000002    2.01999998
   12.08166695  217.53999329    0.98000002    2.01999998
   12.08583260  210.48300171    0.98000002    2.01999998
   12.08916664  211.76499939    0.98000002    2.01999998
   12.09083271  232.30400085    0.98000002    2.01999998
   12.09249973  219.81399536    0.98000002    2.01999998
   12.09583282  224.87100220    0.98000002    2.01999998
   12.09916592  208.72799683    0.98000002    2.01999998
   12.10222244  215.28999329    0.98000002    2.01999998
   12.10555553  213.56799316    0.98000002    2.01999998
   12.10888958  217.18899536    0.98000002    2.01999998
   12.11194515  213.44799805    0.98000002    2.01999998
   12.11527824  220.99800110    0.98000002    2.01999998
   12.11833382  214.08500671    0.98000002    2.01999998
   12.12444496  214.08500671    0.98000002    2.01999998
   12.12861156  210.09100342    0.98000002    2.01999998
   12.13194466  206.77200317    0.98000002    2.01999998
   12.13527775  208.16200256    0.98000002    2.01999998
   12.13833332  225.54899597    0.98000002    2.01999998
   12.14166641  204.11700439    0.98000002    2.01999998
   12.14499950  202.74699402    0.98000002    2.01999998
   12.14805508  203.34599304    0.98000002    2.01999998
   12.15138817  209.47599792    0.98000002    2.01999998
   12.15444374  208.86099243    0.98000002    2.01999998
   12.15749931  204.66200256    0.98000002    2.01999998
   12.15805531  198.93200684    0.98000002    2.01999998
   12.16138840  206.10200500    0.98000002    2.01999998
   12.16750050  206.10200500    0.98000002    2.01999998
   12.17166710  202.55900574    0.98000002    2.01999998
   12.17472267  205.93099976    0.98000002    2.01999998
   12.17805576  198.38900757    0.98000002    2.01999998
   12.18111134  208.90100098    0.98000002    2.01999998
   12.18444443  212.61099243    0.98000002    2.01999998
   12.18777752  208.05000305    0.98000002    2.01999998
   12.19083309  212.02600098    0.98000002    2.01999998
   12.19111156  206.45500183    0.98000002    2.01999998
   12.19444466  216.47900391    0.98000002    2.01999998
   12.19777775  191.77099609    0.98000002    2.01999998
   12.20083332  210.55400085    0.98000002    2.01999998
   12.20416641  197.16900635    0.98000002    2.01999998
   12.21027756  197.16900635    0.98000002    2.01999998
   12.21444416  203.43499756    0.98000002    2.01999998
   12.21749973  198.00100708    0.98000002    2.01999998
   12.22083282  198.06599426    0.98000002    2.01999998
   12.22416592  215.80200195    0.98000002    2.01999998
   12.22444439  203.92100525    0.98000002    2.01999998
   12.22777748  209.45799255    0.98000002    2.01999998
   12.23111057  199.63499451    0.98000002    2.01999998
   12.23416710  212.09599304    0.98000002    2.01999998
   12.23750019  216.96899414    0.98000002    2.01999998
   12.24055576  207.63900757    0.98000002    2.01999998
   12.24388885  205.84199524    0.98000002    2.01999998
   12.24722290  202.99099731    0.98000002    2.01999998
   12.25305557  202.99099731    0.98000002    2.01999998
   12.25722218  208.42799377    0.98000002    2.01999998
   12.25777817  207.46499634    0.98000002    2.01999998
   12.26111126  206.38099670    0.98000002    2.01999998
   12.26416683  211.72500610    0.98000002    2.01999998
   12.26749992  214.95100403    0.98000002    2.01999998
   12.27055550  221.19599915    0.98000002    2.01999998
   12.27388859  205.14399719    0.98000002    2.01999998
   12.27722168  219.40100098    0.98000002    2.01999998
   12.28027725  211.29600525    0.98000002    2.01999998
   12.28361130  213.97300720    0.98000002    2.01999998
   12.28694534  202.18499756    0.98000002    2.01999998
   12.29000092  233.25100708    0.98000002    2.01999998
   12.29111195  218.21400452    0.98000002    2.01999998
   12.29583359  218.21400452    0.98000002    2.01999998
   12.30000019  229.09100342    0.98000002    2.01999998
   12.30333328  218.63400269    0.98000002    2.01999998
   12.30666733  240.91799927    0.98000002    2.01999998
   12.30972195  211.14599609    0.98000002    2.01999998
   12.31305599  235.63299561    0.98000002    2.01999998
   12.31611156  227.09800720    0.98000002    2.01999998
   12.31944466  255.76800537    0.98000002    2.01999998
   12.32277775  216.34500122    0.98000002    2.01999998
   12.32444477  234.86599731    0.98000002    2.01999998
   12.32638836  241.00799561    0.98000002    2.01999998
   12.32944393  243.63600159    0.98000002    2.01999998
   12.33277798  211.01199341    0.98000002    2.01999998
   12.33888817  211.01199341    0.98000002    2.01999998
   12.34305477  222.53500366    0.98000002    2.01999998
   12.34611034  206.11300659    0.98000002    2.01999998
   12.34944439  214.29299927    0.98000002    2.01999998
   12.35249996  207.68299866    0.98000002    2.01999998
   12.35583401  217.01800537    0.98000002    2.01999998
   12.35777855  214.18600464    0.98000002    2.01999998
   12.35944462  220.32000732    0.98000002    2.01999998
   12.36250019  242.29899597    0.98000002    2.01999998
   12.36583328  219.74299622    0.98000002    2.01999998
   12.36916637  222.42399597    0.98000002    2.01999998
   12.37222195  241.63800049    0.98000002    2.01999998
   12.37555599  205.56100464    0.98000002    2.01999998
   12.38166714  205.56100464    0.98000002    2.01999998
   12.38583279  227.61000061    0.98000002    2.01999998
   12.38888836  219.27499390    0.98000002    2.01999998
   12.39111137  222.51699829    0.98000002    2.01999998
   12.39277744  225.74400330    0.98000002    2.01999998
   12.39583302  230.14799500    0.98000002    2.01999998
   12.39916611  231.11300659    0.98000002    2.01999998
   12.40249920  224.95399475    0.98000002    2.01999998
   12.40555477  217.47399902    0.98000002    2.01999998
   12.40888882  221.31399536    0.98000002    2.01999998
   12.41222191  219.20700073    0.98000002    2.01999998
   12.41527748  222.85699463    0.98000002    2.01999998
   12.41861153  234.27699280    0.98000002    2.01999998
   12.42444515  234.27699280    0.98000002    2.01999998
   12.42861176  228.69400024    0.98000002    2.01999998
   12.43194485  226.91900635    0.98000002    2.01999998
   12.43500042  232.90800476    0.98000002    2.01999998
   12.43833351  217.63900757    0.98000002    2.01999998
   12.44138908  235.03599548    0.98000002    2.01999998
   12.44472218  222.10600281    0.98000002    2.01999998
   12.44805527  214.50100708    0.98000002    2.01999998
   12.45111084  223.42799377    0.98000002    2.01999998
   12.45444393  223.52000427    0.98000002    2.01999998
   12.45777798  213.65600586    0.98000002    2.01999998
   12.45833302  221.81900024    0.98000002    2.01999998
   12.46138859  226.82000732    0.98000002    2.01999998
   12.46722221  226.82000732    0.98000002    2.01999998
   12.47138882  212.42999268    0.98000002    2.01999998
   12.47472191  215.63200378    0.98000002    2.01999998
   12.47805500  240.38400269    0.98000002    2.01999998
   12.48111057  277.29998779    0.98000002    2.01999998
   12.48444462  382.58099365    0.98000002    2.01999998
   12.48750019  468.34600830    0.98000002    2.01999998
   12.48972225  742.99102783    0.98000002    2.01999998
   12.49083328  784.30499268    0.98000002    2.01999998
   12.49222279  882.95001221    0.98000002    2.01999998
   12.49361134  863.13098145    0.98000002    2.01999998
   12.49499989  894.50000000    0.98000002    2.01999998
   12.49638939  838.23901367    0.98000002    2.01999998
   12.49805546  605.19097900    0.98000002    2.01999998
   12.49916649  834.16302490    0.98000002    2.01999998
   12.50055599  946.25701904    0.98000002    2.01999998
   12.50194454  708.17199707    0.98000002    2.01999998
   12.50333309  614.20599365    0.98000002    2.01999998
   12.50472260  641.21398926    0.98000002    2.01999998
   12.50611115  625.36602783    0.98000002    2.01999998
   12.50749969  647.62902832    0.98000002    2.01999998
   12.50888920  669.85797119    0.98000002    2.01999998
   12.51027775  710.53399658    0.98000002    2.01999998
   12.51166630  616.92401123    0.98000002    2.01999998
   12.51305580  633.18902588    0.98000002    2.01999998
   12.51444435  661.16601563    0.98000002    2.01999998
   12.51583290  598.87200928    0.98000002    2.01999998
   12.51722240  622.94000244    0.98000002    2.01999998
   12.51861095  588.36199951    0.98000002    2.01999998
   12.51999950  614.11798096    0.98000002    2.01999998
   12.52138901  650.56097412    0.98000002    2.01999998
   12.52277756  618.83300781    0.98000002    2.01999998
   12.52416611  660.16900635    0.98000002    2.01999998
   12.52555561  648.09497070    0.98000002    2.01999998
   12.52694416  592.46801758    0.98000002    2.01999998
   12.52833271  622.58697510    0.98000002    2.01999998
   12.52972221  627.18103027    0.98000002    2.01999998
   12.53111076  610.19598389    0.98000002    2.01999998
   12.53249931  646.31896973    0.98000002    2.01999998
   12.53388977  622.80401611    0.98000002    2.01999998
   12.53527832  590.11199951    0.98000002    2.01999998
   12.53666687  607.72497559    0.98000002    2.01999998
   12.53805637  597.78802490    0.98000002    2.01999998
   12.53944492  568.39300537    0.98000002    2.01999998
   12.54083347  581.03497314    0.98000002    2.01999998
   12.54222298  570.67199707    0.98000002    2.01999998
   12.54361153  606.88800049    0.98000002    2.01999998
   12.54500008  578.75701904    0.98000002    2.01999998
   12.54638958  559.94500732    0.98000002    2.01999998
   12.54777813  551.15600586    0.98000002    2.01999998
   12.54916668  529.34802246    0.98000002    2.01999998
   12.55055618  592.67102051    0.98000002    2.01999998
   12.55194473  540.66601563    0.98000002    2.01999998
   12.55333328  542.61700439    0.98000002    2.01999998
   12.55472279  540.78002930    0.98000002    2.01999998
   12.55611134  563.19299316    0.98000002    2.01999998
   12.55749989  599.34399414    0.98000002    2.01999998
   12.55888939  550.80102539    0.98000002    2.01999998
   12.56027794  555.60101318    0.98000002    2.01999998
   12.56166649  556.34899902    0.98000002    2.01999998
   12.56305599  547.50701904    0.98000002    2.01999998
   12.56444454  589.27099609    0.98000002    2.01999998
   12.56583309  534.04101563    0.98000002    2.01999998
   12.56750011  575.04199219    0.98000002    2.01999998
   12.56861115  545.57202148    0.98000002    2.01999998
   12.56999969  540.72100830    0.98000002    2.01999998
   12.57138920  501.39898682    0.98000002    2.01999998
   12.57277775  540.54797363    0.98000002    2.01999998
   12.57416630  532.26702881    0.98000002    2.01999998
   12.57583332  531.37298584    0.98000002    2.01999998
   12.57694435  498.55999756    0.98000002    2.01999998
   12.57833290  482.12600708    0.98000002    2.01999998
   12.57999992  510.81799316    0.98000002    2.01999998
   12.58111095  477.14801025    0.98000002    2.01999998
   12.58249950  522.15197754    0.98000002    2.01999998
   12.58388901  528.14697266    0.98000002    2.01999998
   12.58555508  510.57901001    0.98000002    2.01999998
   12.58666611  508.39498901    0.98000002    2.01999998
   12.58805561  480.42700195    0.98000002    2.01999998
   12.58944416  495.04598999    0.98000002    2.01999998
   12.59083271  487.04800415    0.98000002    2.01999998
   12.59222221  540.03900146    0.98000002    2.01999998
   12.59361076  523.20898438    0.98000002    2.01999998
   12.59499931  519.81597900    0.98000002    2.01999998
   12.59638882  523.34899902    0.98000002    2.01999998
   12.59777737  475.74499512    0.98000002    2.01999998
   12.59916592  515.87097168    0.98000002    2.01999998
   12.60055637  496.02801514    0.98000002    2.01999998
   12.60194492  496.25299072    0.98000002    2.01999998
   12.60333347  478.71499634    0.98000002    2.01999998
   12.60472298  510.14898682    0.98000002    2.01999998
   12.60611153  496.28900146    0.98000002    2.01999998
   12.60750008  461.94198608    0.98000002    2.01999998
   12.60888958  495.89498901    0.98000002    2.01999998
   12.61027813  488.81201172    0.98000002    2.01999998
   12.61166668  524.27099609    0.98000002    2.01999998
   12.61305618  503.57800293    0.98000002    2.01999998
   12.61444473  507.51199341    0.98000002    2.01999998
   12.61583328  518.61999512    0.98000002    2.01999998
   12.61750031  481.84500122    0.98000002    2.01999998
   12.61861134  497.42700195    0.98000002    2.01999998
   12.61999989  522.35400391    0.98000002    2.01999998
   12.62138939  534.47698975    0.98000002    2.01999998
   12.62277794  497.16198730    0.98000002    2.01999998
   12.62416649  502.90399170    0.98000002    2.01999998
   12.62555599  484.82199097    0.98000002    2.01999998
   12.62694454  501.27301025    0.98000002    2.01999998
   12.62833309  455.01699829    0.98000002    2.01999998
   12.62972260  528.08898926    0.98000002    2.01999998
   12.63111115  464.68701172    0.98000002    2.01999998
   12.63249969  510.55700684    0.98000002    2.01999998
   12.63388920  531.81298828    0.98000002    2.01999998
   12.63527775  470.58499146    0.98000002    2.01999998
   12.63666630  507.20901489    0.98000002    2.01999998
   12.63805580  471.75399780    0.98000002    2.01999998
   12.63944435  484.24398804    0.98000002    2.01999998
   12.64083290  423.48098755    0.98000002    2.01999998
   12.64222240  461.09298706    0.98000002    2.01999998
   12.64361095  448.47698975    0.98000002    2.01999998
   12.64499950  483.66799927    0.98000002    2.01999998
   12.64638901  417.94699097    0.98000002    2.01999998
   12.64777756  520.60601807    0.98000002    2.01999998
   12.64916611  509.70300293    0.98000002    2.01999998
   12.65055561  487.30999756    0.98000002    2.01999998
   12.65194416  488.46398926    0.98000002    2.01999998
   12.65333271  478.86700439    0.98000002    2.01999998
   12.65472221  460.93301392    0.98000002    2.01999998
   12.65611076  445.95199585    0.98000002    2.01999998
   12.65749931  481.21200562    0.98000002    2.01999998
   12.65888882  447.85501099    0.98000002    2.01999998
   12.66027737  471.06201172    0.98000002    2.01999998
   12.66166592  437.01800537    0.98000002    2.01999998
   12.66305542  473.25799561    0.98000002    2.01999998
   12.66444397  438.73599243    0.98000002    2.01999998
   12.66583252  463.81201172    0.98000002    2.01999998
   12.66722298  460.25201416    0.98000002    2.01999998
   12.66861153  428.80398560    0.98000002    2.01999998
   12.67000008  439.47698975    0.98000002    2.01999998
   12.67138958  432.03201294    0.98000002    2.01999998
   12.67277813  480.51699829    0.98000002    2.01999998
   12.67416668  439.09899902    0.98000002    2.01999998
   12.67555618  469.07901001    0.98000002    2.01999998
   12.67694473  429.38400269    0.98000002    2.01999998
   12.67833328  434.65399170    0.98000002    2.01999998
   12.67972279  410.42800903    0.98000002    2.01999998
   12.68111134  414.56100464    0.98000002    2.01999998
   12.68277836  431.14700317    0.98000002    2.01999998
   12.68388939  457.21899414    0.98000002    2.01999998
   12.68527794  458.45901489    0.98000002    2.01999998
   12.68666649  420.51400757    0.98000002    2.01999998
   12.68805599  429.06399536    0.98000002    2.01999998
   12.68944454  427.74600220    0.98000002    2.01999998
   12.69083309  416.53100586    0.98000002    2.01999998
   12.69222260  432.45901489    0.98000002    2.01999998
   12.69361115  426.51300049    0.98000002    2.01999998
   12.69499969  401.34698486    0.98000002    2.01999998
   12.69638920  387.92800903    0.98000002    2.01999998
   12.69805527  431.70199585    0.98000002    2.01999998
   12.69916630  442.63900757    0.98000002    2.01999998
   12.70055580  423.57598877    0.98000002    2.01999998
   12.70194435  444.83599854    0.98000002    2.01999998
   12.70333290  428.76400757    0.98000002    2.01999998
   12.70472240  416.73901367    0.98000002    2.01999998
   12.70611095  429.39801025    0.98000002    2.01999998
   12.70749950  408.79598999    0.98000002    2.01999998
   12.70888901  425.09899902    0.98000002    2.01999998
   12.71027756  440.71301270    0.98000002    2.01999998
   12.71166611  394.67599487    0.98000002    2.01999998
   12.71305561  425.19400024    0.98000002    2.01999998
   12.71444416  402.06399536    0.98000002    2.01999998
   12.71583271  323.81500244    0.98000002    2.01999998
   12.71611118  277.29998779    0.98000002    2.01999998
   12.71611118  382.58099365    0.98000002    2.01999998
   12.71611118  468.34600830    0.98000002    2.01999998
   12.71638870  223.52000427    0.98000002    2.01999998
   12.71638870  213.65600586    0.98000002    2.01999998
   12.71638870  226.82000732    0.98000002    2.01999998
   12.71666622  212.42999268    0.98000002    2.01999998
   12.71666622  215.63200378    0.98000002    2.01999998
   12.71694374  240.38400269    0.98000002    2.01999998
   12.71749973  332.94000244    0.98000002    2.01999998
   12.72055531  403.60699463    0.98000002    2.01999998
   12.72249985  389.36099243    0.98000002    2.01999998
   12.72388840  390.84799194    0.98000002    2.01999998
   12.72527695  398.22601318    0.98000002    2.01999998
   12.72666645  377.21600342    0.98000002    2.01999998
   12.72805500  382.62799072    0.98000002    2.01999998
   12.72944355  404.28100586    0.98000002    2.01999998
   12.73083305  388.51501465    0.98000002    2.01999998
   12.73222160  376.09799194    0.98000002    2.01999998
   12.73361111  381.77301025    0.98000002    2.01999998
   12.73500061  413.55700684    0.98000002    2.01999998
   12.73638916  379.67098999    0.98000002    2.01999998
   12.73777771  392.68200684    0.98000002    2.01999998
   12.73916721  387.16400146    0.98000002    2.01999998
   12.74055576  382.84201050    0.98000002    2.01999998
   12.74194431  391.12200928    0.98000002    2.01999998
   12.74333382  368.04199219    0.98000002    2.01999998
   12.74472237  398.13299561    0.98000002    2.01999998
   12.74611092  394.07400513    0.98000002    2.01999998
   12.74750042  364.27801514    0.98000002    2.01999998
   12.74888897  360.90600586    0.98000002    2.01999998
   12.75027752  350.38101196    0.98000002    2.01999998
   12.75166702  392.25299072    0.98000002    2.01999998
   12.75305557  378.61999512    0.98000002    2.01999998
   12.75444412  338.40100098    0.98000002    2.01999998
   12.75472260  332.94000244    0.98000002    2.01999998
   12.75472260  403.60699463    0.98000002    2.01999998
   12.75527763  367.14199829    0.98000002    2.01999998
   12.75861073  373.68499756    0.98000002    2.01999998
   12.76166630  348.35699463    0.98000002    2.01999998
   12.76500034  363.35800171    0.98000002    2.01999998
   12.76805496  359.64199829    0.98000002    2.01999998
   12.77138901  365.42999268    0.98000002    2.01999998
   12.77555561  365.42999268    0.98000002    2.01999998
   12.77972221  350.21701050    0.98000002    2.01999998
   12.78277779  349.36099243    0.98000002    2.01999998
   12.78611183  375.59899902    0.98000002    2.01999998
   12.78833389  347.13400269    0.98000002    2.01999998
   12.78972244  323.73199463    0.98000002    2.01999998
   12.79277802  333.56201172    0.98000002    2.01999998
   12.79611111  317.96099854    0.98000002    2.01999998
   12.79944515  340.57199097    0.98000002    2.01999998
   12.80249977  340.29800415    0.98000002    2.01999998
   12.80583382  347.16799927    0.98000002    2.01999998
   12.80916691  339.45199585    0.98000002    2.01999998
   12.81222248  347.49398804    0.98000002    2.01999998
   12.81833363  347.49398804    0.98000002    2.01999998
   12.82250023  346.56298828    0.98000002    2.01999998
   12.82583332  320.06298828    0.98000002    2.01999998
   12.82888889  285.96600342    0.98000002    2.01999998
   12.83222198  344.75100708    0.98000002    2.01999998
   12.83555508  339.60198975    0.98000002    2.01999998
   12.83861065  323.59698486    0.98000002    2.01999998
   12.84194374  293.78799438    0.98000002    2.01999998
   12.84527779  313.63900757    0.98000002    2.01999998
   12.84833336  318.32299805    0.98000002    2.01999998
   12.85166740  308.76998901    0.98000002    2.01999998
   12.85500050  286.74301147    0.98000002    2.01999998
   12.85555553  312.40100098    0.98000002    2.01999998
   12.86138916  312.40100098    0.98000002    2.01999998
   12.86527824  298.48098755    0.98000002    2.01999998
   12.86861134  314.12298584    0.98000002    2.01999998
   12.87194443  310.03298950    0.98000002    2.01999998
   12.87500000  265.79299927    0.98000002    2.01999998
   12.87833309  270.20300293    0.98000002    2.01999998
   12.88138866  285.94100952    0.98000002    2.01999998
   12.88472176  306.76998901    0.98000002    2.01999998
   12.88805580  276.27099609    0.98000002    2.01999998
   12.88861084  281.98699951    0.98000002    2.01999998
   12.89138889  300.62899780    0.98000002    2.01999998
   12.89472198  299.21200562    0.98000002    2.01999998
   12.89805508  315.02700806    0.98000002    2.01999998
   12.90416622  315.02700806    0.98000002    2.01999998
   12.90833282  265.24499512    0.98000002    2.01999998
   12.91138840  268.85299683    0.98000002    2.01999998
   12.91472149  284.69900513    0.98000002    2.01999998
   12.91805553  275.97000122    0.98000002    2.01999998
   12.92138958  274.18399048    0.98000002    2.01999998
   12.92194462  282.06600952    0.98000002    2.01999998
   12.92472267  256.00698853    0.98000002    2.01999998
   12.92805576  252.67599487    0.98000002    2.01999998
   12.93138885  279.74600220    0.98000002    2.01999998
   12.93444443  264.03799438    0.98000002    2.01999998
   12.93777752  248.21600342    0.98000002    2.01999998
   12.94083309  259.82901001    0.98000002    2.01999998
   12.94694424  259.82901001    0.98000002    2.01999998
   12.95111084  248.85800171    0.98000002    2.01999998
   12.95416641  255.57600403    0.98000002    2.01999998
   12.95527744  255.07699585    0.98000002    2.01999998
   12.95777798  249.22300720    0.98000002    2.01999998
   12.96111107  246.74099731    0.98000002    2.01999998
   12.96444416  249.89599609    0.98000002    2.01999998
   12.96749973  262.19100952    0.98000002    2.01999998
   12.97083282  254.69700623    0.98000002    2.01999998
   12.97388840  245.53900146    0.98000002    2.01999998
   12.97722149  247.75599670    0.98000002    2.01999998
   12.98055553  245.48500061    0.98000002    2.01999998
   13.00333309  245.48500061    0.98000002    2.01999998
   13.00749969  252.90199280    0.98000002    2.01999998
   13.01083374  268.61999512    0.98000002    2.01999998
   13.01388931  222.26300049    0.98000002    2.01999998
   13.01722240  246.78100586    0.98000002    2.01999998
   13.02055550  257.22799683    0.98000002    2.01999998
   13.02361107  256.63800049    0.98000002    2.01999998
   13.02694416  233.82299805    0.98000002    2.01999998
   13.02999973  238.18499756    0.98000002    2.01999998
   13.03333378  233.49699402    0.98000002    2.01999998
   13.03416729  239.92799377    0.98000002    2.01999998
   13.03694534  239.15699768    0.98000002    2.01999998
   13.04000092  230.56799316    0.98000002    2.01999998
   13.04611111  230.56799316    0.98000002    2.01999998
   13.05027771  229.33799744    0.98000002    2.01999998
   13.05361176  220.87899780    0.98000002    2.01999998
   13.05666733  225.42500305    0.98000002    2.01999998
   13.06000042  220.41600037    0.98000002    2.01999998
   13.06305599  229.94200134    0.98000002    2.01999998
   13.06638908  210.37500000    0.98000002    2.01999998
   13.06750011  229.65400696    0.98000002    2.01999998
   13.06999969  223.20399475    0.98000002    2.01999998
   13.07305527  205.89599609    0.98000002    2.01999998
   13.07638836  210.08399963    0.98000002    2.01999998
   13.07972240  227.42999268    0.98000002    2.01999998
   13.08277798  210.48500061    0.98000002    2.01999998
   13.08888817  210.48500061    0.98000002    2.01999998
   13.09305477  240.55400085    0.98000002    2.01999998
   13.09666634  273.15100098    0.98000002    2.01999998
   13.09972191  270.82199097    0.98000002    2.01999998
   13.10111141  247.96000671    0.98000002    2.01999998
   13.10361195  247.97200012    0.98000002    2.01999998
   13.10666752  276.68099976    0.98000002    2.01999998
   13.11000061  266.86599731    0.98000002    2.01999998
   13.11305618  278.89999390    0.98000002    2.01999998
   13.11638927  230.14399719    0.98000002    2.01999998
   13.11972237  231.77799988    0.98000002    2.01999998
   13.12277794  219.36099243    0.98000002    2.01999998
   13.12611103  202.19999695    0.98000002    2.01999998
   13.13194466  202.19999695    0.98000002    2.01999998
   13.13611126  195.72000122    0.98000002    2.01999998
   13.13916683  198.99800110    0.98000002    2.01999998
   13.14249992  198.66099548    0.98000002    2.01999998
   13.14555550  192.26899719    0.98000002    2.01999998
   13.14888859  200.56500244    0.98000002    2.01999998
   13.15222168  199.36999512    0.98000002    2.01999998
   13.15527725  200.18499756    0.98000002    2.01999998
   13.15861034  200.45100403    0.98000002    2.01999998
   13.16194439  199.81900024    0.98000002    2.01999998
   13.16499996  188.36099243    0.98000002    2.01999998
   13.16805553  194.53100586    0.98000002    2.01999998
   13.16888905  194.05599976    0.98000002    2.01999998
   13.17472267  194.05599976    0.98000002    2.01999998
   13.17888927  187.50500488    0.98000002    2.01999998
   13.18194485  197.53399658    0.98000002    2.01999998
   13.18527794  200.74000549    0.98000002    2.01999998
   13.18861103  192.39900208    0.98000002    2.01999998
   13.19194412  198.55000305    0.98000002    2.01999998
   13.19499969  193.09100342    0.98000002    2.01999998
   13.19833374  191.86099243    0.98000002    2.01999998
   13.20111084  193.43299866    0.98000002    2.01999998
   13.20194435  196.48599243    0.98000002    2.01999998
   13.20499992  187.36599731    0.98000002    2.01999998
   13.20833302  200.97099304    0.98000002    2.01999998
   13.21138859  195.37899780    0.98000002    2.01999998
   13.21749973  195.37899780    0.98000002    2.01999998
   13.22166634  192.75500488    0.98000002    2.01999998
   13.22499943  194.07699585    0.98000002    2.01999998
   13.22805500  191.08799744    0.98000002    2.01999998
   13.23138809  194.47900391    0.98000002    2.01999998
   13.23444462  200.05799866    0.98000002    2.01999998
   13.23527813  192.61199951    0.98000002    2.01999998
   13.23833370  192.86199951    0.98000002    2.01999998
   13.24166679  191.41700745    0.98000002    2.01999998
   13.24472237  195.40499878    0.98000002    2.01999998
   13.24805546  187.98699951    0.98000002    2.01999998
   13.25138855  194.66099548    0.98000002    2.01999998
   13.25444412  201.34399414    0.98000002    2.01999998
   13.26027775  201.34399414    0.98000002    2.01999998
   13.26444435  189.44299316    0.98000002    2.01999998
   13.26777744  183.89500427    0.98000002    2.01999998
   13.26833344  186.46499634    0.98000002    2.01999998
   13.27138901  194.51400757    0.98000002    2.01999998
   13.27472210  188.00300598    0.98000002    2.01999998
   13.27805519  196.37399292    0.98000002    2.01999998
   13.28111076  192.60200500    0.98000002    2.01999998
   13.28444481  187.74000549    0.98000002    2.01999998
   13.28750038  202.65899658    0.98000002    2.01999998
   13.29083347  203.49600220    0.98000002    2.01999998
   13.29416752  199.61399841    0.98000002    2.01999998
   13.29722309  195.43200684    0.98000002    2.01999998
   13.30333328  195.43200684    0.98000002    2.01999998
   13.30749989  206.20799255    0.98000002    2.01999998
   13.31055546  192.46299744    0.98000002    2.01999998
   13.31388950  203.36700439    0.98000002    2.01999998
   13.31694412  200.88999939    0.98000002    2.01999998
   13.32027817  207.14900208    0.98000002    2.01999998
   13.32361126  204.88099670    0.98000002    2.01999998
   13.32666683  218.81700134    0.98000002    2.01999998
   13.32999992  211.67999268    0.98000002    2.01999998
   13.33333302  223.08700562    0.98000002    2.01999998
   13.33444405  206.77299500    0.98000002    2.01999998
   13.33694458  221.38600159    0.98000002    2.01999998
   13.34000015  228.38699341    0.98000002    2.01999998
   13.34611034  228.38699341    0.98000002    2.01999998
   13.35027790  227.83399963    0.98000002    2.01999998
   13.35333347  215.03399658    0.98000002    2.01999998
   13.35666752  242.04899597    0.98000002    2.01999998
   13.36000061  224.92300415    0.98000002    2.01999998
   13.36305618  185.39300537    0.98000002    2.01999998
   13.36638927  230.16799927    0.98000002    2.01999998
   13.36777782  241.85099792    0.98000002    2.01999998
   13.36999989  234.86399841    0.98000002    2.01999998
   13.37305546  242.76300049    0.98000002    2.01999998
   13.37638855  236.81599426    0.98000002    2.01999998
   13.37972260  238.54100037    0.98000002    2.01999998
   13.38277817  230.47900391    0.98000002    2.01999998
   13.38888836  230.47900391    0.98000002    2.01999998
   13.39305496  222.28900146    0.98000002    2.01999998
   13.39638901  218.42500305    0.98000002    2.01999998
   13.39944458  222.36099243    0.98000002    2.01999998
   13.40138817  244.44999695    0.98000002    2.01999998
   13.40333271  240.80999756    0.98000002    2.01999998
   13.40638828  219.42599487    0.98000002    2.01999998
   13.40972137  232.11599731    0.98000002    2.01999998
   13.41277695  213.49800110    0.98000002    2.01999998
   13.41611099  217.49000549    0.98000002    2.01999998
   13.41944504  201.58299255    0.98000002    2.01999998
   13.42250061  210.13699341    0.98000002    2.01999998
   13.42583370  267.49099731    0.98000002    2.01999998
   13.43166733  267.49099731    0.98000002    2.01999998
   13.43583298  387.37200928    0.98000002    2.01999998
   13.43916702  500.79299927    0.98000002    2.01999998
   13.44111156  502.76800537    0.98000002    2.01999998
   13.44250011  431.46600342    0.98000002    2.01999998
   13.44388866  496.06500244    0.98000002    2.01999998
   13.44527817  605.45001221    0.98000002    2.01999998
   13.44666672  442.42098999    0.98000002    2.01999998
   13.44805527  560.87799072    0.98000002    2.01999998
   13.44944477  671.97698975    0.98000002    2.01999998
   13.45083332  713.31402588    0.98000002    2.01999998
   13.45222187  739.72198486    0.98000002    2.01999998
   13.45361137  611.71997070    0.98000002    2.01999998
   13.45499992  697.38098145    0.98000002    2.01999998
   13.45638847  739.64801025    0.98000002    2.01999998
   13.45777798  760.12701416    0.98000002    2.01999998
   13.45916653  791.68402100    0.98000002    2.01999998
   13.46055508  792.98602295    0.98000002    2.01999998
   13.46194458  865.57897949    0.98000002    2.01999998
   13.46333313  858.22198486    0.98000002    2.01999998
   13.46472168  873.16198730    0.98000002    2.01999998
   13.46611118  808.65301514    0.98000002    2.01999998
   13.46749973  926.16302490    0.98000002    2.01999998
   13.46888828  821.66101074    0.98000002    2.01999998
   13.47027779  795.73602295    0.98000002    2.01999998
   13.47166634  838.48400879    0.98000002    2.01999998
   13.47305489  799.84197998    0.98000002    2.01999998
   13.47444439  827.14898682    0.98000002    2.01999998
   13.47583294  791.84802246    0.98000002    2.01999998
   13.47722149  805.30499268    0.98000002    2.01999998
   13.47861099  837.93298340    0.98000002    2.01999998
   13.47999954  765.70001221    0.98000002    2.01999998
   13.48138809  752.28802490    0.98000002    2.01999998
   13.48277760  740.11102295    0.98000002    2.01999998
   13.48416710  766.16198730    0.98000002    2.01999998
   13.48555565  663.22802734    0.98000002    2.01999998
   13.48694515  681.65600586    0.98000002    2.01999998
   13.48833370  598.13800049    0.98000002    2.01999998
   13.48972225  610.09197998    0.98000002    2.01999998
   13.49111176  569.06201172    0.98000002    2.01999998
   13.49250031  617.39697266    0.98000002    2.01999998
   13.49388885  593.65997314    0.98000002    2.01999998
   13.49527836  608.37902832    0.98000002    2.01999998
   13.49666691  591.70599365    0.98000002    2.01999998
   13.49805546  485.33200073    0.98000002    2.01999998
   13.49944496  530.00000000    0.98000002    2.01999998
   13.50083351  499.45098877    0.98000002    2.01999998
   13.50222206  519.38000488    0.98000002    2.01999998
   13.50361156  536.60101318    0.98000002    2.01999998
   13.50500011  500.29000854    0.98000002    2.01999998
   13.50638866  491.86898804    0.98000002    2.01999998
   13.50777817  475.26300049    0.98000002    2.01999998
   13.50916672  479.00698853    0.98000002    2.01999998
   13.51055527  476.76098633    0.98000002    2.01999998
   13.51194477  525.37597656    0.98000002    2.01999998
   13.51333332  482.89401245    0.98000002    2.01999998
   13.51472187  471.04199219    0.98000002    2.01999998
   13.51611137  471.54400635    0.98000002    2.01999998
   13.51749992  487.70700073    0.98000002    2.01999998
   13.51888847  479.06100464    0.98000002    2.01999998
   13.52027798  476.76901245    0.98000002    2.01999998
   13.52166653  487.86401367    0.98000002    2.01999998
   13.52305508  478.66400146    0.98000002    2.01999998
   13.52444458  464.47601318    0.98000002    2.01999998
   13.52583313  436.40200806    0.98000002    2.01999998
   13.52722168  439.49600220    0.98000002    2.01999998
   13.52861118  441.86898804    0.98000002    2.01999998
   13.52999973  401.77700806    0.98000002    2.01999998
   13.53138828  434.24499512    0.98000002    2.01999998
   13.53277779  430.66198730    0.98000002    2.01999998
   13.53416729  405.69000244    0.98000002    2.01999998
   13.53555584  412.53900146    0.98000002    2.01999998
   13.53694534  376.63900757    0.98000002    2.01999998
   13.53833389  390.92498779    0.98000002    2.01999998
   13.53972244  386.64700317    0.98000002    2.01999998
   13.54111195  378.24099731    0.98000002    2.01999998
   13.54250050  374.35699463    0.98000002    2.01999998
   13.54388905  392.63699341    0.98000002    2.01999998
   13.54527855  336.53201294    0.98000002    2.01999998
   13.54527855  500.79299927    0.98000002    2.01999998
   13.54555607  219.42599487    0.98000002    2.01999998
   13.54555607  232.11599731    0.98000002    2.01999998
   13.54555607  213.49800110    0.98000002    2.01999998
   13.54583359  217.49000549    0.98000002    2.01999998
   13.54583359  201.58299255    0.98000002    2.01999998
   13.54583359  210.13699341    0.98000002    2.01999998
   13.54611111  267.49099731    0.98000002    2.01999998
   13.54611111  387.37200928    0.98000002    2.01999998
   13.54666710  332.53900146    0.98000002    2.01999998
   13.55000019  347.41400146    0.98000002    2.01999998
   13.55305576  363.38198853    0.98000002    2.01999998
   13.55638885  363.26800537    0.98000002    2.01999998
   13.55972195  369.47299194    0.98000002    2.01999998
   13.56611156  369.47299194    0.98000002    2.01999998
   13.57027817  355.98001099    0.98000002    2.01999998
   13.57361126  390.80099487    0.98000002    2.01999998
   13.57666683  357.54901123    0.98000002    2.01999998
   13.57916641  355.68099976    0.98000002    2.01999998
   13.58055592  354.01901245    0.98000002    2.01999998
   13.58361053  350.99600220    0.98000002    2.01999998
   13.58694458  373.02200317    0.98000002    2.01999998
   13.59000015  357.80999756    0.98000002    2.01999998
   13.59333324  357.33599854    0.98000002    2.01999998
   13.59666634  369.49301147    0.98000002    2.01999998
   13.59972191  352.24700928    0.98000002    2.01999998
   13.60305595  356.96398926    0.98000002    2.01999998
   13.60888958  356.96398926    0.98000002    2.01999998
   13.61305618  366.56600952    0.98000002    2.01999998
   13.61638927  348.59100342    0.98000002    2.01999998
   13.61944485  338.99700928    0.98000002    2.01999998
   13.62277794  333.61801147    0.98000002    2.01999998
   13.62611103  325.48599243    0.98000002    2.01999998
   13.62916660  329.08099365    0.98000002    2.01999998
   13.63249969  317.14099121    0.98000002    2.01999998
   13.63583279  329.93099976    0.98000002    2.01999998
   13.63888836  322.21499634    0.98000002    2.01999998
   13.64222240  322.02301025    0.98000002    2.01999998
   13.64527798  311.39300537    0.98000002    2.01999998
   13.64583302  313.35699463    0.98000002    2.01999998
   13.65166664  313.35699463    0.98000002    2.01999998
   13.65583324  329.80200195    0.98000002    2.01999998
   13.65916634  326.59100342    0.98000002    2.01999998
   13.66222191  314.07000732    0.98000002    2.01999998
   13.66555500  316.22799683    0.98000002    2.01999998
   13.66888905  315.96899414    0.98000002    2.01999998
   13.67194462  304.45999146    0.98000002    2.01999998
   13.67527771  309.00601196    0.98000002    2.01999998
   13.67861176  316.20001221    0.98000002    2.01999998
   13.67916679  298.02700806    0.98000002    2.01999998
   13.68222237  310.20300293    0.98000002    2.01999998
   13.68555546  325.56500244    0.98000002    2.01999998
   13.68861103  299.61700439    0.98000002    2.01999998
   13.69472218  299.61700439    0.98000002    2.01999998
   13.69861126  290.32998657    0.98000002    2.01999998
   13.70194435  282.73400879    0.98000002    2.01999998
   13.70527744  305.37899780    0.98000002    2.01999998
   13.70861053  302.28698730    0.98000002    2.01999998
   13.71166611  286.11401367    0.98000002    2.01999998
   13.71249962  291.27600098    0.98000002    2.01999998
   13.71527767  266.43099976    0.98000002    2.01999998
   13.71861076  315.61599731    0.98000002    2.01999998
   13.72166634  300.71499634    0.98000002    2.01999998
   13.72499943  288.76400757    0.98000002    2.01999998
   13.72805500  280.14199829    0.98000002    2.01999998
   13.73138809  268.87100220    0.98000002    2.01999998
   13.73750019  268.87100220    0.98000002    2.01999998
   13.74166679  314.07598877    0.98000002    2.01999998
   13.74472237  291.85299683    0.98000002    2.01999998
   13.74583340  274.81900024    0.98000002    2.01999998
   13.74833393  300.85998535    0.98000002    2.01999998
   13.75166702  254.45100403    0.98000002    2.01999998
   13.75500011  272.97399902    0.98000002    2.01999998
   13.75805569  264.66000366    0.98000002    2.01999998
   13.76138878  263.18600464    0.98000002    2.01999998
   13.76472187  256.63000488    0.98000002    2.01999998
   13.76777744  258.21398926    0.98000002    2.01999998
   13.77111053  267.08801270    0.98000002    2.01999998
   13.77444458  261.67300415    0.98000002    2.01999998
   13.78027725  261.67300415    0.98000002    2.01999998
   13.78444481  258.01998901    0.98000002    2.01999998
   13.78777790  271.57199097    0.98000002    2.01999998
   13.79083347  244.39999390    0.98000002    2.01999998
   13.79416752  246.47099304    0.98000002    2.01999998
   13.79722309  261.29299927    0.98000002    2.01999998
   13.80055618  265.50698853    0.98000002    2.01999998
   13.80388927  260.27200317    0.98000002    2.01999998
   13.80694485  256.06399536    0.98000002    2.01999998
   13.81027794  243.35899353    0.98000002    2.01999998
   13.81250000  252.94000244    0.98000002    2.01999998
   13.81388950  253.91799927    0.98000002    2.01999998
   13.81722260  250.13699341    0.98000002    2.01999998
   13.82305527  250.13699341    0.98000002    2.01999998
   13.82722187  249.75199890    0.98000002    2.01999998
   13.83055592  256.52200317    0.98000002    2.01999998
   13.83361053  247.27999878    0.98000002    2.01999998
   13.83694458  249.48800659    0.98000002    2.01999998
   13.84027767  255.28399658    0.98000002    2.01999998
   13.84333324  243.99000549    0.98000002    2.01999998
   13.84583282  234.48699951    0.98000002    2.01999998
   13.84694386  257.96099854    0.98000002    2.01999998
   13.85027790  277.01000977    0.98000002    2.01999998
   13.85333347  281.55599976    0.98000002    2.01999998
   13.85666752  312.48901367    0.98000002    2.01999998
   13.86000061  283.16101074    0.98000002    2.01999998
   13.86611176  283.16101074    0.98000002    2.01999998
   13.86999989  315.63400269    0.98000002    2.01999998
   13.87333393  321.32101440    0.98000002    2.01999998
   13.87666702  338.41101074    0.98000002    2.01999998
   13.87916660  323.99398804    0.98000002    2.01999998
   13.88027763  305.51400757    0.98000002    2.01999998
   13.88361073  321.89001465    0.98000002    2.01999998
   13.88694477  318.82000732    0.98000002    2.01999998
   13.89000034  344.84698486    0.98000002    2.01999998
   13.89333344  344.91500854    0.98000002    2.01999998
   13.89666653  326.18899536    0.98000002    2.01999998
   13.89972210  366.16400146    0.98000002    2.01999998
   13.90305519  320.05700684    0.98000002    2.01999998
   13.90888882  320.05700684    0.98000002    2.01999998
   13.91305542  290.16699219    0.98000002    2.01999998
   13.91611099  295.82901001    0.98000002    2.01999998
   13.91944504  314.08700562    0.98000002    2.01999998
   13.92277813  298.67098999    0.98000002    2.01999998
   13.92583370  314.19799805    0.98000002    2.01999998
   13.92916679  288.58099365    0.98000002    2.01999998
   13.93249989  264.80099487    0.98000002    2.01999998
   13.93555546  303.27801514    0.98000002    2.01999998
   13.93888855  296.67401123    0.98000002    2.01999998
   13.94194412  311.39199829    0.98000002    2.01999998
   13.94527817  276.24798584    0.98000002    2.01999998
   13.94583321  263.90899658    0.98000002    2.01999998
   13.95166683  263.90899658    0.98000002    2.01999998
   13.95583344  228.05499268    0.98000002    2.01999998
   13.95916653  274.51501465    0.98000002    2.01999998
   13.96222210  239.12699890    0.98000002    2.01999998
   13.96555519  246.60400391    0.98000002    2.01999998
   13.96861076  228.14199829    0.98000002    2.01999998
   13.97194386  255.51400757    0.98000002    2.01999998
   13.97527695  269.73001099    0.98000002    2.01999998
   13.97833252  245.37699890    0.98000002    2.01999998
   13.97916603  261.96600342    0.98000002    2.01999998
   13.98194408  253.27299500    0.98000002    2.01999998
   13.98527813  286.24798584    0.98000002    2.01999998
   13.98833370  283.84600830    0.98000002    2.01999998
   13.99444485  283.84600830    0.98000002    2.01999998
   13.99861145  274.25900269    0.98000002    2.01999998
   14.01722240  281.14401245    0.98000002    2.01999998
   14.01833344  269.21701050    0.98000002    2.01999998
   14.02166653  257.73599243    0.98000002    2.01999998
   14.02499962  285.96798706    0.98000002    2.01999998
   14.02805519  232.67799377    0.98000002    2.01999998
   14.03138828  237.00999451    0.98000002    2.01999998
   14.03750038  237.00999451    0.98000002    2.01999998
   14.04166698  251.23300171    0.98000002    2.01999998
   14.04500008  277.51000977    0.98000002    2.01999998
   14.04833412  250.63699341    0.98000002    2.01999998
   14.05055618  295.90499878    0.98000002    2.01999998
   14.05166721  311.76998901    0.98000002    2.01999998
   14.05500031  297.41198730    0.98000002    2.01999998
   14.05805588  252.87199402    0.98000002    2.01999998
   14.06138897  277.76599121    0.98000002    2.01999998
   14.06472206  257.09100342    0.98000002    2.01999998
   14.06777763  249.21299744    0.98000002    2.01999998
   14.07111073  268.98498535    0.98000002    2.01999998
   14.07444477  297.41299438    0.98000002    2.01999998
   14.08055592  297.41299438    0.98000002    2.01999998
   14.08444405  239.94000244    0.98000002    2.01999998
   14.08777714  249.76699829    0.98000002    2.01999998
   14.09111118  267.65798950    0.98000002    2.01999998
   14.09416676  236.71899414    0.98000002    2.01999998
   14.09749985  264.71301270    0.98000002    2.01999998
   14.10083389  229.01699829    0.98000002    2.01999998
   14.10388947  242.41999817    0.98000002    2.01999998
   14.10722256  245.78599548    0.98000002    2.01999998
   14.11027813  224.07400513    0.98000002    2.01999998
   14.11361122  263.82101440    0.98000002    2.01999998
   14.11694431  231.60400391    0.98000002    2.01999998
   14.11750031  242.35200500    0.98000002    2.01999998
   14.12333393  242.35200500    0.98000002    2.01999998
   14.12750053  217.28599548    0.98000002    2.01999998
   14.13055611  216.82899475    0.98000002    2.01999998
   14.13388920  210.61700439    0.98000002    2.01999998
   14.13722229  218.66600037    0.98000002    2.01999998
   14.14027786  215.28900146    0.98000002    2.01999998
   14.14361095  213.94599915    0.98000002    2.01999998
   14.14694405  220.52200317    0.98000002    2.01999998
   14.14999962  228.20100403    0.98000002    2.01999998
   14.15083313  224.13699341    0.98000002    2.01999998
   14.15361118  218.45100403    0.98000002    2.01999998
   14.15694427  225.45199585    0.98000002    2.01999998
   14.16027737  221.66099548    0.98000002    2.01999998
   14.16611099  221.66099548    0.98000002    2.01999998
   14.17027855  226.62899780    0.98000002    2.01999998
   14.17333412  218.18600464    0.98000002    2.01999998
   14.17666721  220.71299744    0.98000002    2.01999998
   14.18000031  227.30799866    0.98000002    2.01999998
   14.18305588  223.19799805    0.98000002    2.01999998
   14.18416691  220.41099548    0.98000002    2.01999998
   14.18666649  222.77400208    0.98000002    2.01999998
   14.19000053  236.17300415    0.98000002    2.01999998
   14.19333363  267.96301270    0.98000002    2.01999998
   14.19638920  341.71398926    0.98000002    2.01999998
   14.19972229  337.36099243    0.98000002    2.01999998
   14.20277786  307.04098511    0.98000002    2.01999998
   14.20888901  307.04098511    0.98000002    2.01999998
   14.21305561  351.52200317    0.98000002    2.01999998
   14.21638870  325.23599243    0.98000002    2.01999998
   14.21749973  337.80398560    0.98000002    2.01999998
   14.21999931  389.01901245    0.98000002    2.01999998
   14.22333336  468.14700317    0.98000002    2.01999998
   14.22527695  387.70300293    0.98000002    2.01999998
   14.22666645  416.03698730    0.98000002    2.01999998
   14.22805500  402.18499756    0.98000002    2.01999998
   14.22944355  388.18600464    0.98000002    2.01999998
   14.23083305  382.56100464    0.98000002    2.01999998
   14.23222160  400.30398560    0.98000002    2.01999998
   14.23361111  384.74600220    0.98000002    2.01999998
   14.23500061  338.70800781    0.98000002    2.01999998
   14.23500061  341.71398926    0.98000002    2.01999998
   14.23527813  337.36099243    0.98000002    2.01999998
   14.23527813  307.04098511    0.98000002    2.01999998
   14.23527813  351.52200317    0.98000002    2.01999998
   14.23555565  325.23599243    0.98000002    2.01999998
   14.23555565  389.01901245    0.98000002    2.01999998
   14.23555565  468.14700317    0.98000002    2.01999998
   14.23583317  236.17300415    0.98000002    2.01999998
   14.23583317  267.96301270    0.98000002    2.01999998
   14.23638916  327.63800049    0.98000002    2.01999998
   14.23972225  360.53601074    0.98000002    2.01999998
   14.24277782  359.85101318    0.98000002    2.01999998
   14.24611092  312.17800903    0.98000002    2.01999998
   14.24944496  319.99700928    0.98000002    2.01999998
   14.25583363  319.99700928    0.98000002    2.01999998
   14.26000023  308.60699463    0.98000002    2.01999998
   14.26305580  319.42800903    0.98000002    2.01999998
   14.26638889  316.96099854    0.98000002    2.01999998
   14.26888847  315.80398560    0.98000002    2.01999998
   14.27027798  313.81900024    0.98000002    2.01999998
   14.27333355  304.44500732    0.98000002    2.01999998
   14.27666664  281.62399292    0.98000002    2.01999998
   14.27972221  289.56500244    0.98000002    2.01999998
   14.28305531  309.12200928    0.98000002    2.01999998
   14.28638935  315.32998657    0.98000002    2.01999998
   14.28944492  320.90100098    0.98000002    2.01999998
   14.29277802  311.48300171    0.98000002    2.01999998
   14.29861164  311.48300171    0.98000002    2.01999998
   14.30277824  292.03500366    0.98000002    2.01999998
   14.30611134  286.82199097    0.98000002    2.01999998
   14.30916691  294.16198730    0.98000002    2.01999998
   14.31250000  299.99398804    0.98000002    2.01999998
   14.31583309  297.78698730    0.98000002    2.01999998
   14.31888866  309.42599487    0.98000002    2.01999998
   14.32222176  283.07400513    0.98000002    2.01999998
   14.32527733  295.48300171    0.98000002    2.01999998
   14.32861137  286.88101196    0.98000002    2.01999998
   14.33194447  285.03201294    0.98000002    2.01999998
   14.33500004  299.75399780    0.98000002    2.01999998
   14.33555508  285.99200439    0.98000002    2.01999998
   14.34138870  285.99200439    0.98000002    2.01999998
   14.34555531  286.39999390    0.98000002    2.01999998
   14.34888840  275.33200073    0.98000002    2.01999998
   14.35222244  269.78601074    0.98000002    2.01999998
   14.35527802  279.02999878    0.98000002    2.01999998
   14.35861111  278.13900757    0.98000002    2.01999998
   14.36166668  276.16000366    0.98000002    2.01999998
   14.36500072  273.03799438    0.98000002    2.01999998
   14.36833382  279.06201172    0.98000002    2.01999998
   14.36888885  261.66799927    0.98000002    2.01999998
   14.37194443  269.11700439    0.98000002    2.01999998
   14.37527752  268.36099243    0.98000002    2.01999998
   14.37833309  267.41500854    0.98000002    2.01999998
   14.38444424  267.41500854    0.98000002    2.01999998
   14.38861084  259.64001465    0.98000002    2.01999998
   14.39166641  255.41099548    0.98000002    2.01999998
   14.39499950  270.97000122    0.98000002    2.01999998
   14.39833355  264.27099609    0.98000002    2.01999998
   14.40138817  249.62600708    0.98000002    2.01999998
   14.40222168  288.31100464    0.98000002    2.01999998
   14.40499973  269.38000488    0.98000002    2.01999998
   14.40833282  265.88299561    0.98000002    2.01999998
   14.41138840  268.33700562    0.98000002    2.01999998
   14.41472149  260.37500000    0.98000002    2.01999998
   14.41805553  266.60198975    0.98000002    2.01999998
   14.42111111  266.64300537    0.98000002    2.01999998
   14.42722225  266.64300537    0.98000002    2.01999998
   14.43138885  251.80099487    0.98000002    2.01999998
   14.43444443  250.54100037    0.98000002    2.01999998
   14.43555546  265.79998779    0.98000002    2.01999998
   14.43833351  252.55900574    0.98000002    2.01999998
   14.44166660  265.48098755    0.98000002    2.01999998
   14.44472218  266.60998535    0.98000002    2.01999998
   14.44805527  263.88101196    0.98000002    2.01999998
   14.45111084  269.59500122    0.98000002    2.01999998
   14.45444393  263.74099731    0.98000002    2.01999998
   14.45777798  249.38099670    0.98000002    2.01999998
   14.46083355  259.07101440    0.98000002    2.01999998
   14.46416664  267.98199463    0.98000002    2.01999998
   14.46999931  267.98199463    0.98000002    2.01999998
   14.47416592  263.66699219    0.98000002    2.01999998
   14.47749996  242.83500671    0.98000002    2.01999998
   14.48055553  247.42900085    0.98000002    2.01999998
   14.48388958  269.00299072    0.98000002    2.01999998
   14.48694515  255.95899963    0.98000002    2.01999998
   14.49027824  254.07899475    0.98000002    2.01999998
   14.49361134  257.51000977    0.98000002    2.01999998
   14.49666691  250.45300293    0.98000002    2.01999998
   14.50000000  274.47601318    0.98000002    2.01999998
   14.50222206  269.04098511    0.98000002    2.01999998
   14.50361156  257.32699585    0.98000002    2.01999998
   14.50694466  268.86898804    0.98000002    2.01999998
   14.51277733  268.86898804    0.98000002    2.01999998
   14.51694393  265.42098999    0.98000002    2.01999998
   14.52027798  264.16799927    0.98000002    2.01999998
   14.52333355  261.62500000    0.98000002    2.01999998
   14.52666664  272.62500000    0.98000002    2.01999998
   14.52999973  270.53500366    0.98000002    2.01999998
   14.53305531  254.02200317    0.98000002    2.01999998
   14.53555584  258.10900879    0.98000002    2.01999998
   14.53666687  252.50999451    0.98000002    2.01999998
   14.54000092  254.08000183    0.98000002    2.01999998
   14.54305553  265.02600098    0.98000002    2.01999998
   14.54638958  236.93099976    0.98000002    2.01999998
   14.54972267  249.07000732    0.98000002    2.01999998
   14.55583382  249.07000732    0.98000002    2.01999998
   14.56000042  254.33099365    0.98000002    2.01999998
   14.56305599  247.68899536    0.98000002    2.01999998
   14.56638908  262.31399536    0.98000002    2.01999998
   14.56888866  243.98800659    0.98000002    2.01999998
   14.56999969  247.37100220    0.98000002    2.01999998
   14.57333374  248.62500000    0.98000002    2.01999998
   14.57638836  250.61500549    0.98000002    2.01999998
   14.57972240  249.83000183    0.98000002    2.01999998
   14.58305550  244.77000427    0.98000002    2.01999998
   14.58611107  260.33801270    0.98000002    2.01999998
   14.58944416  239.97999573    0.98000002    2.01999998
   14.59277725  256.94400024    0.98000002    2.01999998
   14.59861088  256.94400024    0.98000002    2.01999998
   14.60277843  252.03900146    0.98000002    2.01999998
   14.60583401  269.90399170    0.98000002    2.01999998
   14.60916710  269.07901001    0.98000002    2.01999998
   14.61250019  270.29098511    0.98000002    2.01999998
   14.61555576  242.55499268    0.98000002    2.01999998
   14.61888885  252.74200439    0.98000002    2.01999998
   14.62194443  254.18699646    0.98000002    2.01999998
   14.62527752  238.99400330    0.98000002    2.01999998
   14.62861156  253.40499878    0.98000002    2.01999998
   14.63166714  250.44299316    0.98000002    2.01999998
   14.63500023  249.24299622    0.98000002    2.01999998
   14.63555527  246.14999390    0.98000002    2.01999998
   14.64138889  246.14999390    0.98000002    2.01999998
   14.64555550  232.41000366    0.98000002    2.01999998
   14.64888859  217.90699768    0.98000002    2.01999998
   14.65194416  236.38400269    0.98000002    2.01999998
   14.65527725  244.14399719    0.98000002    2.01999998
   14.65833282  247.22399902    0.98000002    2.01999998
   14.66166592  256.45498657    0.98000002    2.01999998
   14.66499996  239.02699280    0.98000002    2.01999998
   14.66805553  224.27499390    0.98000002    2.01999998
   14.66888905  249.88999939    0.98000002    2.01999998
   14.67194462  240.76699829    0.98000002    2.01999998
   14.67500019  242.10499573    0.98000002    2.01999998
   14.67833328  235.90600586    0.98000002    2.01999998
   14.68416691  235.90600586    0.98000002    2.01999998
   14.68833351  241.44500732    0.98000002    2.01999998
   14.69166660  232.73699951    0.98000002    2.01999998
   14.69472218  238.85600281    0.98000002    2.01999998
   14.69805527  227.94599915    0.98000002    2.01999998
   14.70138836  245.58299255    0.98000002    2.01999998
   14.70222187  249.22500610    0.98000002    2.01999998
   14.70499992  191.57000732    0.98000002    2.01999998
   14.70833302  238.68299866    0.98000002    2.01999998
   14.71138859  242.09599304    0.98000002    2.01999998
   14.71472168  232.33999634    0.98000002    2.01999998
   14.71805477  229.38299561    0.98000002    2.01999998
   14.72111034  245.14700317    0.98000002    2.01999998
   14.72722149  245.14700317    0.98000002    2.01999998
   14.73138809  249.25799561    0.98000002    2.01999998
   14.73444462  244.68099976    0.98000002    2.01999998
   14.73583317  243.48100281    0.98000002    2.01999998
   14.73805618  251.80499268    0.98000002    2.01999998
   14.74138927  243.74600220    0.98000002    2.01999998
   14.74472237  230.17500305    0.98000002    2.01999998
   14.74777794  222.66200256    0.98000002    2.01999998
   14.75111103  226.35699463    0.98000002    2.01999998
   14.75416660  254.14399719    0.98000002    2.01999998
   14.75749969  243.79800415    0.98000002    2.01999998
   14.76083374  221.32200623    0.98000002    2.01999998
   14.76388931  248.27999878    0.98000002    2.01999998
   14.76999950  248.27999878    0.98000002    2.01999998
   14.77416611  239.19700623    0.98000002    2.01999998
   14.77722168  235.57600403    0.98000002    2.01999998
   14.78055573  241.02400208    0.98000002    2.01999998
   14.78388977  237.42399597    0.98000002    2.01999998
   14.78694534  236.02499390    0.98000002    2.01999998
   14.79027843  230.13699341    0.98000002    2.01999998
   14.79333401  235.35099792    0.98000002    2.01999998
   14.79666710  245.99699402    0.98000002    2.01999998
   14.80000019  243.56900024    0.98000002    2.01999998
   14.80249977  235.36099243    0.98000002    2.01999998
   14.80361176  229.62300110    0.98000002    2.01999998
   14.80694485  237.19700623    0.98000002    2.01999998
   14.81277752  237.19700623    0.98000002    2.01999998
   14.81694412  246.37699890    0.98000002    2.01999998
   14.82027817  232.29600525    0.98000002    2.01999998
   14.82333374  256.36599731    0.98000002    2.01999998
   14.82666683  243.56599426    0.98000002    2.01999998
   14.82972240  232.62699890    0.98000002    2.01999998
   14.83305550  216.25799561    0.98000002    2.01999998
   14.83583260  223.11500549    0.98000002    2.01999998
   14.83666611  236.76100159    0.98000002    2.01999998
   14.84000015  234.16499329    0.98000002    2.01999998
   14.84305477  230.28999329    0.98000002    2.01999998
   14.84638882  218.35299683    0.98000002    2.01999998
   14.84972191  221.68600464    0.98000002    2.01999998
   14.85555553  221.68600464    0.98000002    2.01999998
   14.85972214  220.97099304    0.98000002    2.01999998
   14.86305618  212.92300415    0.98000002    2.01999998
   14.86638927  225.54200745    0.98000002    2.01999998
   14.86916637  215.42700195    0.98000002    2.01999998
   14.86999989  227.33999634    0.98000002    2.01999998
   14.87333393  236.81900024    0.98000002    2.01999998
   14.87638855  220.93899536    0.98000002    2.01999998
   14.87972260  223.01300049    0.98000002    2.01999998
   14.88305569  221.14100647    0.98000002    2.01999998
   14.88611126  234.25000000    0.98000002    2.01999998
   14.88944435  223.72000122    0.98000002    2.01999998
   14.89277744  225.15600586    0.98000002    2.01999998
   14.89861107  225.15600586    0.98000002    2.01999998
   14.90249920  222.78599548    0.98000002    2.01999998
   14.90583324  222.30099487    0.98000002    2.01999998
   14.90916634  216.83000183    0.98000002    2.01999998
   14.91222191  210.17799377    0.98000002    2.01999998
   14.91555500  233.44000244    0.98000002    2.01999998
   14.91888905  223.41900635    0.98000002    2.01999998
   14.92194462  228.63999939    0.98000002    2.01999998
   14.92527771  223.85099792    0.98000002    2.01999998
   14.92861176  214.71600342    0.98000002    2.01999998
   14.93166733  221.11799622    0.98000002    2.01999998
   14.93500042  224.55099487    0.98000002    2.01999998
   14.93583298  211.28399658    0.98000002    2.01999998
   14.94138908  211.28399658    0.98000002    2.01999998
   14.94555569  217.79400635    0.98000002    2.01999998
   14.94861126  219.88699341    0.98000002    2.01999998
   14.95194435  221.46499634    0.98000002    2.01999998
   14.95527744  187.64900208    0.98000002    2.01999998
   14.95833302  207.72700500    0.98000002    2.01999998
   14.96166611  220.05000305    0.98000002    2.01999998
   14.96472168  235.77400208    0.98000002    2.01999998
   14.96805477  212.33299255    0.98000002    2.01999998
   14.96916580  234.53199768    0.98000002    2.01999998
   14.97166634  218.84199524    0.98000002    2.01999998
   14.97499943  203.10899353    0.98000002    2.01999998
   14.97805500  213.89700317    0.98000002    2.01999998
   14.98416710  213.89700317    0.98000002    2.01999998
   14.98833370  217.44900513    0.98000002    2.01999998
   14.99166679  222.55999756    0.98000002    2.01999998
   14.99472237  211.10499573    0.98000002    2.01999998
   14.99805546  214.58900452    0.98000002    2.01999998
   15.00111103  219.35899353    0.98000002    2.01999998
   15.00249958  215.74000549    0.98000002    2.01999998
   15.00472260  219.83299255    0.98000002    2.01999998
   15.00805569  232.04400635    0.98000002    2.01999998
   15.01111126  230.49200439    0.98000002    2.01999998
   15.01444435  233.77900696    0.98000002    2.01999998
   15.01777744  212.17999268    0.98000002    2.01999998
   15.03833389  212.17999268    0.98000002    2.01999998
   15.04250050  223.43699646    0.98000002    2.01999998
   15.04583359  227.28300476    0.98000002    2.01999998
   15.04888916  224.31700134    0.98000002    2.01999998
   15.05222225  222.97300720    0.98000002    2.01999998
   15.05555534  208.02699280    0.98000002    2.01999998
   15.05861092  210.38699341    0.98000002    2.01999998
   15.06194496  226.02000427    0.98000002    2.01999998
   15.06500053  228.12899780    0.98000002    2.01999998
   15.06833363  212.65499878    0.98000002    2.01999998
   15.06916618  213.85400391    0.98000002    2.01999998
   15.07194424  218.08599854    0.98000002    2.01999998
   15.07499981  223.75599670    0.98000002    2.01999998
   15.08111095  223.75599670    0.98000002    2.01999998
   15.08527756  218.42599487    0.98000002    2.01999998
   15.08861065  229.40699768    0.98000002    2.01999998
   15.09166622  216.21600342    0.98000002    2.01999998
   15.09499931  227.27400208    0.98000002    2.01999998
   15.09805489  227.17999268    0.98000002    2.01999998
   15.10138893  230.92599487    0.98000002    2.01999998
   15.10249996  228.83200073    0.98000002    2.01999998
   15.10500050  234.02200317    0.98000002    2.01999998
   15.10805607  207.82000732    0.98000002    2.01999998
   15.11138916  230.71899414    0.98000002    2.01999998
   15.11472225  221.36199951    0.98000002    2.01999998
   15.11777782  213.75599670    0.98000002    2.01999998
   15.12388897  213.75599670    0.98000002    2.01999998
   15.12805557  246.28199768    0.98000002    2.01999998
   15.13138866  231.99899292    0.98000002    2.01999998
   15.13444424  212.85299683    0.98000002    2.01999998
   15.13611126  195.76300049    0.98000002    2.01999998
   15.13805580  219.14199829    0.98000002    2.01999998
   15.14138889  232.66200256    0.98000002    2.01999998
   15.14472198  216.14999390    0.98000002    2.01999998
   15.14777756  212.85099792    0.98000002    2.01999998
   15.15111065  222.11300659    0.98000002    2.01999998
   15.15444374  216.92700195    0.98000002    2.01999998
   15.25749969   -1.00000000   -1.00000000   -1.00000000
   15.36694431   -1.00000000   -1.00000000   -1.00000000
   15.47777748   -1.00000000   -1.00000000   -1.00000000
   15.50000000  186.42799377    0.98000002    2.01999998
   15.50333309  192.53599548    0.98000002    2.01999998
   15.50666714  194.69400024    0.98000002    2.01999998
   15.50972176  208.12699890    0.98000002    2.01999998
   15.51305580  214.53300476    0.98000002    2.01999998
   15.51611137  206.22599792    0.98000002    2.01999998
   15.52027798  206.22599792    0.98000002    2.01999998
   15.52444458  213.63800049    0.98000002    2.01999998
   15.52777767  223.76199341    0.98000002    2.01999998
   15.53083324  198.01499939    0.98000002    2.01999998
   15.53333378  232.17900085    0.98000002    2.01999998
   15.53472233  234.34199524    0.98000002    2.01999998
   15.53777790  202.39599609    0.98000002    2.01999998
   15.54111195  203.40800476    0.98000002    2.01999998
   15.54416752  198.02699280    0.98000002    2.01999998
   15.54750061  212.50500488    0.98000002    2.01999998
   15.55083370  215.49000549    0.98000002    2.01999998
   15.55388927  226.28900146    0.98000002    2.01999998
   15.55722237  202.84100342    0.98000002    2.01999998
   15.56333351  202.84100342    0.98000002    2.01999998
   15.56722260  210.38900757    0.98000002    2.01999998
   15.57055569  197.89500427    0.98000002    2.01999998
   15.57388878  211.17500305    0.98000002    2.01999998
   15.57694435  194.23800659    0.98000002    2.01999998
   15.58027744  195.99400330    0.98000002    2.01999998
   15.58361053  192.79600525    0.98000002    2.01999998
   15.58666611  221.16900635    0.98000002    2.01999998
   15.59000015  254.46600342    0.98000002    2.01999998
   15.59333324  203.39399719    0.98000002    2.01999998
   15.59638882  212.27900696    0.98000002    2.01999998
   15.59972191  252.62800598    0.98000002    2.01999998
   15.60027790  262.83898926    0.98000002    2.01999998
   15.60611153  262.83898926    0.98000002    2.01999998
   15.61027813  229.67300415    0.98000002    2.01999998
   15.61333370  235.55000305    0.98000002    2.01999998
   15.61666679  227.63800049    0.98000002    2.01999998
   15.61999989  212.38400269    0.98000002    2.01999998
   15.62305546  212.29899597    0.98000002    2.01999998
   15.62638855  189.31399536    0.98000002    2.01999998
   15.62944412  194.83200073    0.98000002    2.01999998
   15.63277817  198.49800110    0.98000002    2.01999998
   15.63361073  194.99899292    0.98000002    2.01999998
   15.63666630  186.48199463    0.98000002    2.01999998
   15.63972187  184.49800110    0.98000002    2.01999998
   15.64305496  191.15899658    0.98000002    2.01999998
   15.64888859  191.15899658    0.98000002    2.01999998
   15.65305519  202.80400085    0.98000002    2.01999998
   15.65638828  196.58700562    0.98000002    2.01999998
   15.65944386  205.28199768    0.98000002    2.01999998
   15.66277695  206.87500000    0.98000002    2.01999998
   15.66583252  194.75500488    0.98000002    2.01999998
   15.66694450  190.43400574    0.98000002    2.01999998
   15.66972256  182.44299316    0.98000002    2.01999998
   15.67277813  180.54400635    0.98000002    2.01999998
   15.67611122  190.18099976    0.98000002    2.01999998
   15.67944431  189.70500183    0.98000002    2.01999998
   15.68249989  267.54901123    0.98000002    2.01999998
   15.68583298  181.13999939    0.98000002    2.01999998
   15.69166660  181.13999939    0.98000002    2.01999998
   15.69583321  178.42100525    0.98000002    2.01999998
   15.69916630  182.51199341    0.98000002    2.01999998
   15.70027733  181.32600403    0.98000002    2.01999998
   15.70277786  176.52799988    0.98000002    2.01999998
   15.70583344  179.88699341    0.98000002    2.01999998
   15.70916653  187.26800537    0.98000002    2.01999998
   15.71222210  184.15199280    0.98000002    2.01999998
   15.71555519  193.02600098    0.98000002    2.01999998
   15.71888828  196.47099304    0.98000002    2.01999998
   15.72194386  191.35000610    0.98000002    2.01999998
   15.72527695  184.28100586    0.98000002    2.01999998
   15.72861099  212.29299927    0.98000002    2.01999998
   15.73472214  212.29299927    0.98000002    2.01999998
   15.73861122  199.59800720    0.98000002    2.01999998
   15.74194431  192.72200012    0.98000002    2.01999998
   15.74527836  231.39100647    0.98000002    2.01999998
   15.74833393  199.82800293    0.98000002    2.01999998
   15.75166702  185.68299866    0.98000002    2.01999998
   15.75500011  181.19299316    0.98000002    2.01999998
   15.75805569  203.10299683    0.98000002    2.01999998
   15.76138878  223.43099976    0.98000002    2.01999998
   15.76472187  234.58900452    0.98000002    2.01999998
   15.76694393  238.46400452    0.98000002    2.01999998
   15.76833344  242.61300659    0.98000002    2.01999998
   15.77138901  214.07299805    0.98000002    2.01999998
   15.77750015  214.07299805    0.98000002    2.01999998
   15.78166676  219.30499268    0.98000002    2.01999998
   15.78472233  296.60299683    0.98000002    2.01999998
   15.78805637  210.47099304    0.98000002    2.01999998
   15.79138947  179.44200134    0.98000002    2.01999998
   15.79444504  180.65299988    0.98000002    2.01999998
   15.79777813  181.77200317    0.98000002    2.01999998
   15.80027771  178.78799438    0.98000002    2.01999998
   15.80138874  191.97599792    0.98000002    2.01999998
   15.80444431  178.03100586    0.98000002    2.01999998
   15.80777836  184.02000427    0.98000002    2.01999998
   15.81083393  184.54299927    0.98000002    2.01999998
   15.81416702  182.35000610    0.98000002    2.01999998
   15.82027817  182.35000610    0.98000002    2.01999998
   15.82444477  179.16099548    0.98000002    2.01999998
   15.82777786  177.92100525    0.98000002    2.01999998
   15.83083344  171.64599609    0.98000002    2.01999998
   15.83361053  174.99699402    0.98000002    2.01999998
   15.83472157  173.86900330    0.98000002    2.01999998
   15.83777714  177.74800110    0.98000002    2.01999998
   15.84111118  171.50100708    0.98000002    2.01999998
   15.84416676  172.67900085    0.98000002    2.01999998
   15.84749985  166.93899536    0.98000002    2.01999998
   15.85083389  177.07000732    0.98000002    2.01999998
   15.85388947  173.56500244    0.98000002    2.01999998
   15.85722256  169.37199402    0.98000002    2.01999998
   15.86305618  169.37199402    0.98000002    2.01999998
   15.86722279  172.35099792    0.98000002    2.01999998
   15.87055588  175.69500732    0.98000002    2.01999998
   15.87361145  178.98699951    0.98000002    2.01999998
   15.87694454  177.94200134    0.98000002    2.01999998
   15.88027763  174.70199585    0.98000002    2.01999998
   15.88333321  174.02200317    0.98000002    2.01999998
   15.88666630  176.94200134    0.98000002    2.01999998
   15.89000034  173.67700195    0.98000002    2.01999998
   15.89305496  176.31599426    0.98000002    2.01999998
   15.89638901  171.88099670    0.98000002    2.01999998
   15.89944458  174.39100647    0.98000002    2.01999998
   15.90027714  173.68099976    0.98000002    2.01999998
   15.90611076  173.68099976    0.98000002    2.01999998
   15.90999985  176.24000549    0.98000002    2.01999998
   15.91333294  173.72200012    0.98000002    2.01999998
   15.91666698  180.37300110    0.98000002    2.01999998
   15.92000008  177.50799561    0.98000002    2.01999998
   15.92305565  177.44200134    0.98000002    2.01999998
   15.92638874  170.05999756    0.98000002    2.01999998
   15.92972279  173.98699951    0.98000002    2.01999998
   15.93277836  179.39399719    0.98000002    2.01999998
   15.93361092  185.59100342    0.98000002    2.01999998
   15.93666649  171.79100037    0.98000002    2.01999998
   15.93972206  173.25799561    0.98000002    2.01999998
   15.94305515  174.37100220    0.98000002    2.01999998
   15.94888878  174.37100220    0.98000002    2.01999998
   15.95305538  167.32499695    0.98000002    2.01999998
   15.95611095  168.65800476    0.98000002    2.01999998
   15.95944405  175.13999939    0.98000002    2.01999998
   15.96277714  171.94599915    0.98000002    2.01999998
   15.96583271  174.50100708    0.98000002    2.01999998
   15.96694374  171.57899475    0.98000002    2.01999998
   15.96972179  172.78500366    0.98000002    2.01999998
   15.97277737  175.70100403    0.98000002    2.01999998
   15.97611046  171.50999451    0.98000002    2.01999998
   15.97944355  178.53700256    0.98000002    2.01999998
   15.98249912  176.21099854    0.98000002    2.01999998
   15.98583317  175.97599792    0.98000002    2.01999998
   15.99166679  175.97599792    0.98000002    2.01999998
   15.99583340  172.18800354    0.98000002    2.01999998
   15.99916649  174.55200195    0.98000002    2.01999998
   16.00027847  171.33000183    0.98000002    2.01999998
   16.00277710  167.63200378    0.98000002    2.01999998
   16.00583267  174.03100586    0.98000002    2.01999998
   16.00916672  170.41099548    0.98000002    2.01999998
   16.01250076  175.31700134    0.98000002    2.01999998
   16.01555634  176.75100708    0.98000002    2.01999998
   16.01888847  174.19400024    0.98000002    2.01999998
   16.02222252  175.37100220    0.98000002    2.01999998
   16.02527809  177.18200684    0.98000002    2.01999998
   16.02861023  179.53999329    0.98000002    2.01999998
   16.03444481  179.53999329    0.98000002    2.01999998
   16.03861046  172.84399414    0.98000002    2.01999998
   16.04194450  172.69999695    0.98000002    2.01999998
   16.04500008  168.99800110    0.98000002    2.01999998
   16.04833221  174.56799316    0.98000002    2.01999998
   16.05166626  167.93899536    0.98000002    2.01999998
   16.05472183  167.94599915    0.98000002    2.01999998
   16.05805397  175.82899475    0.98000002    2.01999998
   16.06138802  174.19000244    0.98000002    2.01999998
   16.06444359  166.85499573    0.98000002    2.01999998
   16.06694603  171.18600464    0.98000002    2.01999998
   16.06833458  170.74699402    0.98000002    2.01999998
   16.07166672  173.31300354    0.98000002    2.01999998
   16.07722282  173.31300354    0.98000002    2.01999998
   16.08139038  169.32499695    0.98000002    2.01999998
   16.08472252  171.69500732    0.98000002    2.01999998
   16.08805656  170.53300476    0.98000002    2.01999998
   16.09111214  176.52999878    0.98000002    2.01999998
   16.09444427  172.59700012    0.98000002    2.01999998
   16.09749985  170.49400330    0.98000002    2.01999998
   16.10027885  175.93800354    0.98000002    2.01999998
   16.10138893  175.68400574    0.98000002    2.01999998
   16.10444450  173.86500549    0.98000002    2.01999998
   16.10777855  174.35299683    0.98000002    2.01999998
   16.11111069  177.19000244    0.98000002    2.01999998
   16.11416626  180.10499573    0.98000002    2.01999998
   16.12027740  180.10499573    0.98000002    2.01999998
   16.12444496  171.43699646    0.98000002    2.01999998
   16.12750053  173.08000183    0.98000002    2.01999998
   16.13083267  172.87300110    0.98000002    2.01999998
   16.13361168  171.17700195    0.98000002    2.01999998
   16.13444519  175.20399475    0.98000002    2.01999998
   16.13750076  170.30599976    0.98000002    2.01999998
   16.14083290  168.65100098    0.98000002    2.01999998
   16.14416695  174.27999878    0.98000002    2.01999998
   16.14722252  175.17500305    0.98000002    2.01999998
   16.15055466  169.87800598    0.98000002    2.01999998
   16.15361023  176.86099243    0.98000002    2.01999998
   16.15694427  170.41999817    0.98000002    2.01999998
   16.16305542  170.41999817    0.98000002    2.01999998
   16.16722107  175.14599609    0.98000002    2.01999998
   16.17055511  196.41900635    0.98000002    2.01999998
   16.17361069  181.31799316    0.98000002    2.01999998
   16.17694473  189.29299927    0.98000002    2.01999998
   16.18000031  183.10000610    0.98000002    2.01999998
   16.18333244  190.31199646    0.98000002    2.01999998
   16.18666649  190.72399902    0.98000002    2.01999998
   16.18972206  171.75999451    0.98000002    2.01999998
   16.19305420  173.30499268    0.98000002    2.01999998
   16.19638824  171.58200073    0.98000002    2.01999998
   16.19944382  174.56100464    0.98000002    2.01999998
   16.20027924  183.30700684    0.98000002    2.01999998
   16.20583344  183.30700684    0.98000002    2.01999998
   16.21000099  178.89300537    0.98000002    2.01999998
   16.21333504  171.91600037    0.98000002    2.01999998
   16.21638870  169.87300110    0.98000002    2.01999998
   16.21972275  171.22900391    0.98000002    2.01999998
   16.22305679  172.33399963    0.98000002    2.01999998
   16.22611237  171.66799927    0.98000002    2.01999998
   16.22944450  179.40100098    0.98000002    2.01999998
   16.23250008  187.63600159    0.98000002    2.01999998
   16.23361206  190.95100403    0.98000002    2.01999998
   16.23638916  286.92999268    0.98000002    2.01999998
   16.23944473   -1.00000000    0.98000002    2.01999998
   16.24277878  230.84100342    0.98000002    2.01999998
   16.24861145  230.84100342    0.98000002    2.01999998
   16.25277710  185.89900208    0.98000002    2.01999998
   16.25611115  182.85299683    0.98000002    2.01999998
   16.25944519  181.45899963    0.98000002    2.01999998
   16.26250076  173.05999756    0.98000002    2.01999998
   16.26583290  167.98500061    0.98000002    2.01999998
   16.26694489  172.47999573    0.98000002    2.01999998
   16.26944351  173.16000366    0.98000002    2.01999998
   16.27249908  175.34399414    0.98000002    2.01999998
   16.27583313  173.97399902    0.98000002    2.01999998
   16.27916718  182.36799622    0.98000002    2.01999998
   16.28222275  177.53700256    0.98000002    2.01999998
   16.28555489  174.24600220    0.98000002    2.01999998
   16.29166603  174.24600220    0.98000002    2.01999998
   16.29583359  175.12800598    0.98000002    2.01999998
   16.29888916  174.01899719    0.98000002    2.01999998
   16.30027771  173.43499756    0.98000002    2.01999998
   16.30249977  171.67999268    0.98000002    2.01999998
   16.30555534  171.10499573    0.98000002    2.01999998
   16.30888748  171.02600098    0.98000002    2.01999998
   16.31222153  172.73800659    0.98000002    2.01999998
   16.31527710  177.02299500    0.98000002    2.01999998
   16.31861115  175.07000732    0.98000002    2.01999998
   16.32194519  171.59899902    0.98000002    2.01999998
   16.32500076  171.17199707    0.98000002    2.01999998
   16.32833481  175.56500244    0.98000002    2.01999998
   16.33444595  175.56500244    0.98000002    2.01999998
   16.33861160  172.72999573    0.98000002    2.01999998
   16.34194565  175.67900085    0.98000002    2.01999998
   16.34500122  175.25500488    0.98000002    2.01999998
   16.34833336  171.44200134    0.98000002    2.01999998
   16.35138893  171.61399841    0.98000002    2.01999998
   16.35472298  174.89799500    0.98000002    2.01999998
   16.35805511  173.32800293    0.98000002    2.01999998
   16.36111069  181.03199768    0.98000002    2.01999998
   16.36444473  175.78199768    0.98000002    2.01999998
   16.36694527  172.48500061    0.98000002    2.01999998
   16.36805534  168.72000122    0.98000002    2.01999998
   16.37138939  171.87199402    0.98000002    2.01999998
   16.37722206  171.87199402    0.98000002    2.01999998
   16.38138962  169.58999634    0.98000002    2.01999998
   16.38472176  171.88900757    0.98000002    2.01999998
   16.38777733  172.87100220    0.98000002    2.01999998
   16.39111137  170.20399475    0.98000002    2.01999998
   16.39444351  175.63099670    0.98000002    2.01999998
   16.39749908  171.02600098    0.98000002    2.01999998
   16.40027809  170.79800415    0.98000002    2.01999998
   16.40138817  171.12699890    0.98000002    2.01999998
   16.40472221  176.88299561    0.98000002    2.01999998
   16.40777779  172.04699707    0.98000002    2.01999998
   16.41110992  172.20599365    0.98000002    2.01999998
   16.41416550  173.09500122    0.98000002    2.01999998
   16.42000008  173.09500122    0.98000002    2.01999998
   16.42416573  171.69099426    0.98000002    2.01999998
   16.42749977  173.38400269    0.98000002    2.01999998
   16.43083191  175.97700500    0.98000002    2.01999998
   16.43361092  172.06700134    0.98000002    2.01999998
   16.43444443  173.75900269    0.98000002    2.01999998
   16.43777657  177.83799744    0.98000002    2.01999998
   16.44083214  175.63200378    0.98000002    2.01999998
   16.44416618  175.13400269    0.98000002    2.01999998
   16.44722176  172.78500366    0.98000002    2.01999998
   16.45055580  172.23899841    0.98000002    2.01999998
   16.45388985  169.93699646    0.98000002    2.01999998
   16.45694542  175.64799500    0.98000002    2.01999998
   16.46305656  175.64799500    0.98000002    2.01999998
   16.46722221  185.94200134    0.98000002    2.01999998
   16.47027779  197.52999878    0.98000002    2.01999998
   16.47361183  188.46699524    0.98000002    2.01999998
   16.47666740  189.74699402    0.98000002    2.01999998
   16.48000145  193.63000488    0.98000002    2.01999998
   16.48333359  204.06199646    0.98000002    2.01999998
   16.48638916  218.16700745    0.98000002    2.01999998
   16.48972321  231.19799805    0.98000002    2.01999998
   16.49305534  198.36500549    0.98000002    2.01999998
   16.49611092  274.66101074    0.98000002    2.01999998
   16.49944496  247.57600403    0.98000002    2.01999998
   16.50027847  267.51901245    0.98000002    2.01999998
   16.52111053  267.51901245    0.98000002    2.01999998
   16.52527809  178.22900391    0.98000002    2.01999998
   16.52833366  180.55799866    0.98000002    2.01999998
   16.53166580  176.08500671    0.98000002    2.01999998
   16.53361130  181.24299622    0.98000002    2.01999998
   16.53527641  174.15800476    0.98000002    2.01999998
   16.53861046  176.45899963    0.98000002    2.01999998
   16.54166603  173.07200623    0.98000002    2.01999998
   16.54500008  176.09100342    0.98000002    2.01999998
   16.54805565  170.90899658    0.98000002    2.01999998
   16.55138779  172.29400635    0.98000002    2.01999998
   16.55472183  174.94999695    0.98000002    2.01999998
   16.55777740  171.10099792    0.98000002    2.01999998
   16.56388855  171.10099792    0.98000002    2.01999998
   16.56805611  172.71600342    0.98000002    2.01999998
   16.57111168  175.99800110    0.98000002    2.01999998
   16.57444572  172.11799622    0.98000002    2.01999998
   16.57777786  177.53399658    0.98000002    2.01999998
   16.58083344  170.52600098    0.98000002    2.01999998
   16.58416748  170.33000183    0.98000002    2.01999998
   16.58750153  172.10499573    0.98000002    2.01999998
   16.59055710  173.59800720    0.98000002    2.01999998
   16.59388924  172.10299683    0.98000002    2.01999998
   16.59722328  173.08599854    0.98000002    2.01999998
   16.60027885  169.89100647    0.98000002    2.01999998
   16.60083389  169.20700073    0.98000002    2.01999998
   16.60666656  169.20700073    0.98000002    2.01999998
   16.61083412  174.59399414    0.98000002    2.01999998
   16.61416626  171.13900757    0.98000002    2.01999998
   16.61722183  177.50199890    0.98000002    2.01999998
   16.62055588  168.84500122    0.98000002    2.01999998
   16.62361145  172.84300232    0.98000002    2.01999998
   16.62694550  172.26100159    0.98000002    2.01999998
   16.63027763  170.40199280    0.98000002    2.01999998
   16.63333321  172.57400513    0.98000002    2.01999998
   16.63388824  175.14599609    0.98000002    2.01999998
   16.63722229  170.93200684    0.98000002    2.01999998
   16.64055634  173.16499329    0.98000002    2.01999998
   16.64361191  174.77499390    0.98000002    2.01999998
   16.64944458  174.77499390    0.98000002    2.01999998
   16.65361023  169.12699890    0.98000002    2.01999998
   16.65694427  176.68499756    0.98000002    2.01999998
   16.65999985  172.98100281    0.98000002    2.01999998
   16.66333389  168.51499939    0.98000002    2.01999998
   16.66666603  172.38999939    0.98000002    2.01999998
   16.66722107  172.44200134    0.98000002    2.01999998
   16.67027664  169.15899658    0.98000002    2.01999998
   16.67361069  171.93800354    0.98000002    2.01999998
   16.67666626  170.23599243    0.98000002    2.01999998
   16.68000031  169.43499756    0.98000002    2.01999998
   16.68305397  176.78799438    0.98000002    2.01999998
   16.68638802  177.85800171    0.98000002    2.01999998
   16.69222069  177.85800171    0.98000002    2.01999998
   16.69638824  309.62799072    0.98000002    2.01999998
   16.69972038   96.89140320    0.98000002    2.01999998
   16.70055580  100.59500122    0.98000002    2.01999998
   16.70333481  115.43199921    0.98000002    2.01999998
   16.70666695  109.11000061    0.98000002    2.01999998
   16.70972252  109.25599670    0.98000002    2.01999998
   16.71305656   35.89360046    0.98000002    2.01999998
   16.71611214   -1.00000000    0.98000002    2.01999998
   16.71944427   -1.00000000    0.98000002    2.01999998
   16.72277832   -1.00000000    0.98000002    2.01999998
   16.72583389   -1.00000000    0.98000002    2.01999998
   16.72916794   -1.00000000    0.98000002    2.01999998
   16.73916626   48.45679855    0.98000002    2.01999998
   16.74250031   -1.00000000    0.98000002    2.01999998
   16.74583435   -1.00000000    0.98000002    2.01999998
   16.74888992   -1.00000000    0.98000002    2.01999998
   16.75222206   97.33540344    0.98000002    2.01999998
   16.75527763  302.03500366    0.98000002    2.01999998
   16.75861168   67.11219788    0.98000002    2.01999998
   16.76194382   -1.00000000    0.98000002    2.01999998
   16.76499939  214.48300171    0.98000002    2.01999998
   16.76722145  232.41299438    0.98000002    2.01999998
   16.76861000  221.21800232    0.98000002    2.01999998
   16.77194405  219.54299927    0.98000002    2.01999998
   16.77805519  219.54299927    0.98000002    2.01999998
   16.78222275  209.76699829    0.98000002    2.01999998
   16.78527641  244.14799500    0.98000002    2.01999998
   16.78861046  259.65499878    0.98000002    2.01999998
   16.79194450  291.54699707    0.98000002    2.01999998
   16.79500008  235.03999329    0.98000002    2.01999998
   16.79833221  272.17898560    0.98000002    2.01999998
   16.80055428  204.40600586    0.98000002    2.01999998
   16.80194283  182.63000488    0.98000002    2.01999998
   16.80527687  199.47200012    0.98000002    2.01999998
   16.80833244  182.80999756    0.98000002    2.01999998
   16.81166649  177.88400269    0.98000002    2.01999998
   16.81472206  255.19999695    0.98000002    2.01999998
   16.82083511  255.19999695    0.98000002    2.01999998
   16.82500076  129.52699280    0.98000002    2.01999998
   16.82833481  307.59298706    0.98000002    2.01999998
   16.83139038  286.15499878    0.98000002    2.01999998
   16.83388901  204.23699951    0.98000002    2.01999998
   16.83500099  196.97200012    0.98000002    2.01999998
   16.83833313  181.10299683    0.98000002    2.01999998
   16.84138870  181.46000671    0.98000002    2.01999998
   16.84472275  197.45899963    0.98000002    2.01999998
   16.84777832  191.65899658    0.98000002    2.01999998
   16.85111237  171.69500732    0.98000002    2.01999998
   16.85444450  170.55000305    0.98000002    2.01999998
   16.85750008  174.56399536    0.98000002    2.01999998
   16.86361122  174.56399536    0.98000002    2.01999998
   16.86777878  173.41600037    0.98000002    2.01999998
   16.87111092  176.69200134    0.98000002    2.01999998
   16.87444496  176.43200684    0.98000002    2.01999998
   16.87750053  179.18200684    0.98000002    2.01999998
   16.88083267  174.96099854    0.98000002    2.01999998
   16.88388824  171.65400696    0.98000002    2.01999998
   16.88722229  171.58599854    0.98000002    2.01999998
   16.89055634  175.29400635    0.98000002    2.01999998
   16.89361191  172.69500732    0.98000002    2.01999998
   16.89694405  175.15800476    0.98000002    2.01999998
   16.90027809  176.93299866    0.98000002    2.01999998
   16.90055466  172.50100708    0.98000002    2.01999998
   16.90666580  172.50100708    0.98000002    2.01999998
   16.91083336  178.00700378    0.98000002    2.01999998
   16.91388893  179.84300232    0.98000002    2.01999998
   16.91722107  183.95199585    0.98000002    2.01999998
   16.92055511  172.33599854    0.98000002    2.01999998
   16.92361069  170.60000610    0.98000002    2.01999998
   16.92694473  172.10099792    0.98000002    2.01999998
   16.93000031  183.03300476    0.98000002    2.01999998
   16.93333244  175.78199768    0.98000002    2.01999998
   16.93388748  173.17900085    0.98000002    2.01999998
   16.93694305  173.91600037    0.98000002    2.01999998
   16.94027710  182.10400391    0.98000002    2.01999998
   16.94333267  174.69799805    0.98000002    2.01999998
   16.94944382  174.69799805    0.98000002    2.01999998
   16.95361137  181.96099854    0.98000002    2.01999998
   16.95666695  179.05999756    0.98000002    2.01999998
   16.96000099  174.68299866    0.98000002    2.01999998
   16.96333504  174.85499573    0.98000002    2.01999998
   16.96638870  177.53100586    0.98000002    2.01999998
   16.96750069  176.61999512    0.98000002    2.01999998
   16.97000122  181.73599243    0.98000002    2.01999998
   16.97333336  176.70199585    0.98000002    2.01999998
   16.97638893  181.53999329    0.98000002    2.01999998
   16.97972298  175.05700684    0.98000002    2.01999998
   16.98305511  175.02200317    0.98000002    2.01999998
   16.98611069  171.54100037    0.98000002    2.01999998
   16.99222183  171.54100037    0.98000002    2.01999998
   16.99638939  179.46899414    0.98000002    2.01999998
   16.99972153  184.36700439    0.98000002    2.01999998
   17.00083351  183.92799377    0.98000002    2.01999998
   17.00333405  191.11000061    0.98000002    2.01999998
   17.00666618  188.52000427    0.98000002    2.01999998
   17.00972176  187.17900085    0.98000002    2.01999998
   17.01305580  181.71600342    0.98000002    2.01999998
   17.01638794  179.52999878    0.98000002    2.01999998
   17.01944351  177.69900513    0.98000002    2.01999998
   17.02277756  181.14799500    0.98000002    2.01999998
   17.02611160  185.94299316    0.98000002    2.01999998
   17.02916718  192.48300171    0.98000002    2.01999998
   17.03499985  192.48300171    0.98000002    2.01999998
   17.03916550  194.42300415    0.98000002    2.01999998
   17.04249954  194.77999878    0.98000002    2.01999998
   17.04583359  183.59100342    0.98000002    2.01999998
   17.04888916  191.52699280    0.98000002    2.01999998
   17.05222130  198.93600464    0.98000002    2.01999998
   17.05527687  203.46299744    0.98000002    2.01999998
   17.05861092  188.07400513    0.98000002    2.01999998
   17.06194305  188.76400757    0.98000002    2.01999998
   17.06499863  193.47500610    0.98000002    2.01999998
   17.06750107  188.71600342    0.98000002    2.01999998
   17.06861115  182.24299622    0.98000002    2.01999998
   17.07194519  179.89799500    0.98000002    2.01999998
   17.07805634  179.89799500    0.98000002    2.01999998
   17.08222389  182.52499390    0.98000002    2.01999998
   17.08527756  173.03300476    0.98000002    2.01999998
   17.08861160  173.44500732    0.98000002    2.01999998
   17.09166718  172.93099976    0.98000002    2.01999998
   17.09500122  179.78700256    0.98000002    2.01999998
   17.09833336  178.89399719    0.98000002    2.01999998
   17.10083389  176.16499329    0.98000002    2.01999998
   17.10194397  173.26499939    0.98000002    2.01999998
   17.10527802  173.76699829    0.98000002    2.01999998
   17.10861206  171.44400024    0.98000002    2.01999998
   17.11166763  171.70899963    0.98000002    2.01999998
   17.11499977  172.86799622    0.98000002    2.01999998
   17.12083435  172.86799622    0.98000002    2.01999998
   17.12500000  186.36999512    0.98000002    2.01999998
   17.12805557  176.40699768    0.98000002    2.01999998
   17.13138962  177.04100037    0.98000002    2.01999998
   17.13416672  171.71200562    0.98000002    2.01999998
   17.13500023  178.38800049    0.98000002    2.01999998
   17.13833237  187.40299988    0.98000002    2.01999998
   17.14138794  179.30400085    0.98000002    2.01999998
   17.14472198  174.47700500    0.98000002    2.01999998
   17.14805603  176.34800720    0.98000002    2.01999998
   17.15111160  178.72700500    0.98000002    2.01999998
   17.15444374  183.77699280    0.98000002    2.01999998
   17.15777779  182.65100098    0.98000002    2.01999998
   17.16361046  182.65100098    0.98000002    2.01999998
   17.16777802  182.88299561    0.98000002    2.01999998
   17.17111015  187.34500122    0.98000002    2.01999998
   17.17416573  184.41499329    0.98000002    2.01999998
   17.17749977  182.67399597    0.98000002    2.01999998
   17.18083191  183.32899475    0.98000002    2.01999998
   17.18388748  183.54499817    0.98000002    2.01999998
   17.18722153  186.57099915    0.98000002    2.01999998
   17.19027710  181.29299927    0.98000002    2.01999998
   17.19361115  184.11700439    0.98000002    2.01999998
   17.19694328  183.46400452    0.98000002    2.01999998
   17.20000076  184.82800293    0.98000002    2.01999998
   17.20083427  181.70100403    0.98000002    2.01999998
   17.20639038  181.70100403    0.98000002    2.01999998
   17.21055603  187.43899536    0.98000002    2.01999998
   17.21389008  187.96899414    0.98000002    2.01999998
   17.21722221  190.53399658    0.98000002    2.01999998
   17.22027779  175.92700195    0.98000002    2.01999998
   17.22361183  186.19999695    0.98000002    2.01999998
   17.22666740  182.82800293    0.98000002    2.01999998
   17.23000145  183.15800476    0.98000002    2.01999998
   17.23333359  186.04400635    0.98000002    2.01999998
   17.23416710  182.96899414    0.98000002    2.01999998
   17.23694420  184.81700134    0.98000002    2.01999998
   17.24027824  184.71099854    0.98000002    2.01999998
   17.24361229  190.48599243    0.98000002    2.01999998
   17.24944496  190.48599243    0.98000002    2.01999998
   17.25361061  191.58299255    0.98000002    2.01999998
   17.25666618  183.84300232    0.98000002    2.01999998
   17.26000023  199.16799927    0.98000002    2.01999998
   17.26305580  189.75100708    0.98000002    2.01999998
   17.26638794  196.19299316    0.98000002    2.01999998
   17.26749992  189.73500061    0.98000002    2.01999998
   17.27000046  191.40299988    0.98000002    2.01999998
   17.27333260  182.54699707    0.98000002    2.01999998
   17.27666664  186.09800720    0.98000002    2.01999998
   17.27972221  189.05599976    0.98000002    2.01999998
   17.28305435  187.22700500    0.98000002    2.01999998
   17.28638840  185.86199951    0.98000002    2.01999998
   17.29222107  185.86199951    0.98000002    2.01999998
   17.29638863  188.82200623    0.98000002    2.01999998
   17.29944420  189.60000610    0.98000002    2.01999998
   17.30083275  183.55200195    0.98000002    2.01999998
   17.30305481  184.19599915    0.98000002    2.01999998
   17.30638885  192.00300598    0.98000002    2.01999998
   17.30972099  194.53500366    0.98000002    2.01999998
   17.31277657  186.27299500    0.98000002    2.01999998
   17.31611061  190.86000061    0.98000002    2.01999998
   17.31916809  184.84800720    0.98000002    2.01999998
   17.32250023  181.91799927    0.98000002    2.01999998
   17.32583427  189.48199463    0.98000002    2.01999998
   17.32888985  197.58799744    0.98000002    2.01999998
   17.33500099  197.58799744    0.98000002    2.01999998
   17.33916664  194.58599854    0.98000002    2.01999998
   17.34250069  192.81100464    0.98000002    2.01999998
   17.34555626  187.77000427    0.98000002    2.01999998
   17.34889030  190.59500122    0.98000002    2.01999998
   17.35222244  191.86599731    0.98000002    2.01999998
   17.35527802  194.48699951    0.98000002    2.01999998
   17.35861206  189.32400513    0.98000002    2.01999998
   17.36194420  189.96699524    0.98000002    2.01999998
   17.36499977  194.88999939    0.98000002    2.01999998
   17.36750031  191.09500122    0.98000002    2.01999998
   17.36861038  183.82699585    0.98000002    2.01999998
   17.37194443  187.15199280    0.98000002    2.01999998
   17.37777710  187.15199280    0.98000002    2.01999998
   17.38194466  198.41799927    0.98000002    2.01999998
   17.38527679  199.44400024    0.98000002    2.01999998
   17.38861084  192.82499695    0.98000002    2.01999998
   17.39166641  200.16700745    0.98000002    2.01999998
   17.39500046  180.02699280    0.98000002    2.01999998
   17.39805603  181.99099731    0.98000002    2.01999998
   17.40083313  180.41299438    0.98000002    2.01999998
   17.40166664  170.20700073    0.98000002    2.01999998
   17.40499878  187.62100220    0.98000002    2.01999998
   17.40833282  175.61300659    0.98000002    2.01999998
   17.41138840  183.08700562    0.98000002    2.01999998
   17.41472244  186.66000366    0.98000002    2.01999998
   17.42083359  186.66000366    0.98000002    2.01999998
   17.42499924  185.00999451    0.98000002    2.01999998
   17.42805481  181.57499695    0.98000002    2.01999998
   17.43138885  181.41499329    0.98000002    2.01999998
   17.43416595  184.40699768    0.98000002    2.01999998
   17.43499947  186.08000183    0.98000002    2.01999998
   17.43833160  185.91499329    0.98000002    2.01999998
   17.44166565  182.76499939    0.98000002    2.01999998
   17.44472122  183.56199646    0.98000002    2.01999998
   17.44805527  190.20700073    0.98000002    2.01999998
   17.45138931  182.40699768    0.98000002    2.01999998
   17.45444489  182.46000671    0.98000002    2.01999998
   17.45777893  188.18899536    0.98000002    2.01999998
   17.46361160  188.18899536    0.98000002    2.01999998
   17.46777916  185.27799988    0.98000002    2.01999998
   17.47083473  180.80900574    0.98000002    2.01999998
   17.47416687  182.65800476    0.98000002    2.01999998
   17.47750092  182.56900024    0.98000002    2.01999998
   17.48055649  182.63099670    0.98000002    2.01999998
   17.48388863  181.67199707    0.98000002    2.01999998
   17.48722267  189.08099365    0.98000002    2.01999998
   17.49027824  193.50900269    0.98000002    2.01999998
   17.49361229  186.40899658    0.98000002    2.01999998
   17.49666786  180.83500671    0.98000002    2.01999998
   17.50000000  186.74200439    0.98000002    2.01999998
   17.50083351  191.41099548    0.98000002    2.01999998
   17.50638962  191.41099548    0.98000002    2.01999998
   17.51055527  184.14799500    0.98000002    2.01999998
   17.51388931  186.57600403    0.98000002    2.01999998
   17.51694489  182.85499573    0.98000002    2.01999998
   17.53472137  187.91299438    0.98000002    2.01999998
   17.53694344  183.63099670    0.98000002    2.01999998
   17.54027748  179.36799622    0.98000002    2.01999998
   17.54361153  183.12399292    0.98000002    2.01999998
   17.54944420  183.12399292    0.98000002    2.01999998
   17.55360985  181.92399597    0.98000002    2.01999998
   17.55694389  191.75399780    0.98000002    2.01999998
   17.55999947  185.32200623    0.98000002    2.01999998
   17.56333351  186.53700256    0.98000002    2.01999998
   17.56638718  189.15299988    0.98000002    2.01999998
   17.56777954  185.97200012    0.98000002    2.01999998
   17.57027817  199.08799744    0.98000002    2.01999998
   17.57361221  184.30299377    0.98000002    2.01999998
   17.57666779  182.17500305    0.98000002    2.01999998
   17.58000183  193.89799500    0.98000002    2.01999998
   17.58305550  178.71800232    0.98000002    2.01999998
   17.58638954  193.81599426    0.98000002    2.01999998
   17.59222221  193.81599426    0.98000002    2.01999998
   17.59638977  187.68800354    0.98000002    2.01999998
   17.59972191  192.65400696    0.98000002    2.01999998
   17.60111237  184.99200439    0.98000002    2.01999998
   17.60333443  185.08099365    0.98000002    2.01999998
   17.60666656  184.89100647    0.98000002    2.01999998
   17.60972214  185.70599365    0.98000002    2.01999998
   17.61305618  189.65299988    0.98000002    2.01999998
   17.61638832  192.13800049    0.98000002    2.01999998
   17.61944389  189.24099731    0.98000002    2.01999998
   17.62277794  187.22000122    0.98000002    2.01999998
   17.62611198  188.10000610    0.98000002    2.01999998
   17.62916756  193.03399658    0.98000002    2.01999998
   17.63500023  193.03399658    0.98000002    2.01999998
   17.63916588  192.44400024    0.98000002    2.01999998
   17.64249992  191.49200439    0.98000002    2.01999998
   17.64583397  193.30400085    0.98000002    2.01999998
   17.64888954  189.97099304    0.98000002    2.01999998
   17.65222168  187.41499329    0.98000002    2.01999998
   17.65555573  194.17399597    0.98000002    2.01999998
   17.65861130  194.01800537    0.98000002    2.01999998
   17.66194344  185.59100342    0.98000002    2.01999998
   17.66527748  189.24800110    0.98000002    2.01999998
   17.66777802  180.31100464    0.98000002    2.01999998
   17.66888809  184.75300598    0.98000002    2.01999998
   17.67222214  190.76600647    0.98000002    2.01999998
   17.67805481  190.76600647    0.98000002    2.01999998
   17.68222237  187.28799438    0.98000002    2.01999998
   17.68527603  185.22099304    0.98000002    2.01999998
   17.68861008  186.57800293    0.98000002    2.01999998
   17.69194412  191.74899292    0.98000002    2.01999998
   17.69499969  193.66600037    0.98000002    2.01999998
   17.69833183  184.75000000    0.98000002    2.01999998
   17.70111275  211.27400208    0.98000002    2.01999998
   17.70194435  188.87199402    0.98000002    2.01999998
   17.70527840  211.97900391    0.98000002    2.01999998
   17.70833397  173.37800598    0.98000002    2.01999998
   17.71166801  203.12500000    0.98000002    2.01999998
   17.71500015  188.10600281    0.98000002    2.01999998
   17.72083473  188.10600281    0.98000002    2.01999998
   17.72500038  232.42799377    0.98000002    2.01999998
   17.72833443  227.50300598    0.98000002    2.01999998
   17.73139000  215.48699951    0.98000002    2.01999998
   17.73444557  223.25799561    0.98000002    2.01999998
   17.73500061  198.41099548    0.98000002    2.01999998
   17.73833275  237.51699829    0.98000002    2.01999998
   17.74138832  195.51800537    0.98000002    2.01999998
   17.74472237  195.81500244    0.98000002    2.01999998
   17.74805641  206.76100159    0.98000002    2.01999998
   17.75111198  219.32800293    0.98000002    2.01999998
   17.75444412  202.25700378    0.98000002    2.01999998
   17.75749969  203.68099976    0.98000002    2.01999998
   17.76361084  203.68099976    0.98000002    2.01999998
   17.76777840  205.12899780    0.98000002    2.01999998
   17.76833344  216.48500061    0.98000002    2.01999998
   17.77166557  201.33599854    0.98000002    2.01999998
   17.77472115  207.45300293    0.98000002    2.01999998
   17.77805519  212.89399719    0.98000002    2.01999998
   17.78138924  217.30200195    0.98000002    2.01999998
   17.78444481  207.77799988    0.98000002    2.01999998
   17.78777695  208.36999512    0.98000002    2.01999998
   17.79111099  187.27000427    0.98000002    2.01999998
   17.79416656  221.55499268    0.98000002    2.01999998
   17.79749870  226.38800049    0.98000002    2.01999998
   17.80055428  217.36199951    0.98000002    2.01999998
   17.80111122  204.08900452    0.98000002    2.01999998
   17.80638885  204.08900452    0.98000002    2.01999998
   17.81055450  214.88999939    0.98000002    2.01999998
   17.81388855  205.08700562    0.98000002    2.01999998
   17.81722260  214.92399597    0.98000002    2.01999998
   17.82027817  173.53799438    0.98000002    2.01999998
   17.82361221  175.15299988    0.98000002    2.01999998
   17.82694626  206.65899658    0.98000002    2.01999998
   17.83000183  213.95799255    0.98000002    2.01999998
   17.83333397  217.05099487    0.98000002    2.01999998
   17.83444595  184.49000549    0.98000002    2.01999998
   17.83694458  189.28900146    0.98000002    2.01999998
   17.84027863  209.68800354    0.98000002    2.01999998
   17.84333420  194.32699585    0.98000002    2.01999998
   17.84944534  194.32699585    0.98000002    2.01999998
   17.85361099  201.39799500    0.98000002    2.01999998
   17.85666656  184.24200439    0.98000002    2.01999998
   17.86000061  188.22900391    0.98000002    2.01999998
   17.86333466  199.87699890    0.98000002    2.01999998
   17.86638832  203.01899719    0.98000002    2.01999998
   17.86777878  224.05000305    0.98000002    2.01999998
   17.87000084  190.72700500    0.98000002    2.01999998
   17.87333298  210.42500305    0.98000002    2.01999998
   17.87638855  136.72799683    0.98000002    2.01999998
   17.87972260  184.88900757    0.98000002    2.01999998
   17.88305473  197.24699402    0.98000002    2.01999998
   17.88611031  202.30200195    0.98000002    2.01999998
   17.89222145  202.30200195    0.98000002    2.01999998
   17.89638901  193.23199463    0.98000002    2.01999998
   17.89944458  187.21400452    0.98000002    2.01999998
   17.90111160  211.23699951    0.98000002    2.01999998
   17.90305519  218.25599670    0.98000002    2.01999998
   17.90638924  192.68299866    0.98000002    2.01999998
   17.90944481  208.48500061    0.98000002    2.01999998
   17.91277695  209.73599243    0.98000002    2.01999998
   17.91611099  204.69900513    0.98000002    2.01999998
   17.91916656  191.63400269    0.98000002    2.01999998
   17.92249870  194.05599976    0.98000002    2.01999998
   17.92583275  191.38699341    0.98000002    2.01999998
   17.92888832  180.11199951    0.98000002    2.01999998
   17.93499947  180.11199951    0.98000002    2.01999998
   17.93916512  179.38099670    0.98000002    2.01999998
   17.94249916  200.26699829    0.98000002    2.01999998
   17.94555473  188.48599243    0.98000002    2.01999998
   17.94888878  158.27400208    0.98000002    2.01999998
   17.95222282  179.92900085    0.98000002    2.01999998
   17.95527840  177.94799805    0.98000002    2.01999998
   17.95861244  182.79699707    0.98000002    2.01999998
   17.96194458  179.77000427    0.98000002    2.01999998
   17.96500015  176.95300293    0.98000002    2.01999998
   17.96805573  175.43200684    0.98000002    2.01999998
   17.96861076  182.66999817    0.98000002    2.01999998
   17.97194481  177.88200378    0.98000002    2.01999998
   17.97777748  177.88200378    0.98000002    2.01999998
   17.98194504  183.08900452    0.98000002    2.01999998
   17.98527718  175.02299500    0.98000002    2.01999998
   17.98861122  181.28300476    0.98000002    2.01999998
   17.99166679  180.42799377    0.98000002    2.01999998
   17.99500084  171.41000366    0.98000002    2.01999998
   17.99805641  175.81300354    0.98000002    2.01999998
   18.00138855  181.83299255    0.98000002    2.01999998
   18.00166702  181.69500732    0.98000002    2.01999998
   18.00499916  177.24600220    0.98000002    2.01999998
   18.00805473  180.21699524    0.98000002    2.01999998
   18.01138878  186.47799683    0.98000002    2.01999998
   18.01472282  190.76699829    0.98000002    2.01999998
   18.02083397  190.76699829    0.98000002    2.01999998
   18.02499962  174.69799805    0.98000002    2.01999998
   18.02805519  179.94599915    0.98000002    2.01999998
   18.03138924  176.18499756    0.98000002    2.01999998
   18.03472137  174.80000305    0.98000002    2.01999998
   18.03499985  181.61900330    0.98000002    2.01999998
   18.03833199  182.14399719    0.98000002    2.01999998
   18.04138756  205.38499451    0.98000002    2.01999998
   18.04472160  180.87899780    0.98000002    2.01999998
   18.04805565  184.08099365    0.98000002    2.01999998
   18.05111122  184.77499390    0.98000002    2.01999998
   18.05444336  179.99099731    0.98000002    2.01999998
   18.05749893  183.72799683    0.98000002    2.01999998
   18.06361008  183.72799683    0.98000002    2.01999998
   18.06777954  196.43299866    0.98000002    2.01999998
   18.06833458  203.84100342    0.98000002    2.01999998
   18.07139015  205.94000244    0.98000002    2.01999998
   18.07472229  181.12399292    0.98000002    2.01999998
   18.07805634  177.73599243    0.98000002    2.01999998
   18.08111191  184.86599731    0.98000002    2.01999998
   18.08444595  185.17900085    0.98000002    2.01999998
   18.08777809  195.15299988    0.98000002    2.01999998
   18.09083366  203.92500305    0.98000002    2.01999998
   18.09416771  215.95100403    0.98000002    2.01999998
   18.09722328  184.39100647    0.98000002    2.01999998
   18.10055542  207.01699829    0.98000002    2.01999998
   18.10166740  190.13400269    0.98000002    2.01999998
   18.10639000  190.13400269    0.98000002    2.01999998
   18.11055565  172.94700623    0.98000002    2.01999998
   18.11388969  173.79100037    0.98000002    2.01999998
   18.11694527  179.73500061    0.98000002    2.01999998
   18.12027740  174.36300659    0.98000002    2.01999998
   18.12361145  176.52499390    0.98000002    2.01999998
   18.12666702  172.20399475    0.98000002    2.01999998
   18.13000107  174.91499329    0.98000002    2.01999998
   18.13333321  180.24299622    0.98000002    2.01999998
   18.13500023  183.36999512    0.98000002    2.01999998
   18.13666725  175.86599731    0.98000002    2.01999998
   18.13999939  172.64799500    0.98000002    2.01999998
   18.14333344  172.18400574    0.98000002    2.01999998
   18.14916611  172.18400574    0.98000002    2.01999998
   18.15333366  170.02699280    0.98000002    2.01999998
   18.15666580  172.63200378    0.98000002    2.01999998
   18.15972137  182.00599670    0.98000002    2.01999998
   18.16305542  179.16900635    0.98000002    2.01999998
   18.16638756  179.60400391    0.98000002    2.01999998
   18.16833305  177.44200134    0.98000002    2.01999998
   18.16972160  178.47300720    0.98000002    2.01999998
   18.17305565  174.81100464    0.98000002    2.01999998
   18.17638779  181.11000061    0.98000002    2.01999998
   18.17944336  174.91000366    0.98000002    2.01999998
   18.18277740  171.64700317    0.98000002    2.01999998
   18.18610954  167.03700256    0.98000002    2.01999998
   18.19222069  167.03700256    0.98000002    2.01999998
   18.19638824  174.85600281    0.98000002    2.01999998
   18.19944382  165.99299622    0.98000002    2.01999998
   18.20166779  173.54499817    0.98000002    2.01999998
   18.20333481  165.19599915    0.98000002    2.01999998
   18.20639038  168.84800720    0.98000002    2.01999998
   18.20972252  175.00599670    0.98000002    2.01999998
   18.21277809  171.98899841    0.98000002    2.01999998
   18.21611214  172.81300354    0.98000002    2.01999998
   18.21944427  170.71499634    0.98000002    2.01999998
   18.22249985  176.43299866    0.98000002    2.01999998
   18.22583389  170.83500671    0.98000002    2.01999998
   18.22916794  168.36399841    0.98000002    2.01999998
   18.23500061  168.36399841    0.98000002    2.01999998
   18.23916626  167.36199951    0.98000002    2.01999998
   18.24222183  171.32499695    0.98000002    2.01999998
   18.24555588  168.46600342    0.98000002    2.01999998
   18.24888992  164.50000000    0.98000002    2.01999998
   18.25222206  169.33799744    0.98000002    2.01999998
   18.25555611  167.01600647    0.98000002    2.01999998
   18.25861168  170.14199829    0.98000002    2.01999998
   18.26194382  171.95700073    0.98000002    2.01999998
   18.26499939  168.53900146    0.98000002    2.01999998
   18.26833344  175.75000000    0.98000002    2.01999998
   18.26888847  173.02400208    0.98000002    2.01999998
   18.27194405  173.15600586    0.98000002    2.01999998
   18.27777672  173.15600586    0.98000002    2.01999998
   18.28194427  176.02799988    0.98000002    2.01999998
   18.28527641  172.01800537    0.98000002    2.01999998
   18.28833199  176.58399963    0.98000002    2.01999998
   18.29166603  177.80599976    0.98000002    2.01999998
   18.29500008  174.49099731    0.98000002    2.01999998
   18.29805565  181.97200012    0.98000002    2.01999998
   18.30138779  184.23800659    0.98000002    2.01999998
   18.30194283  176.67399597    0.98000002    2.01999998
   18.30527687  171.33700562    0.98000002    2.01999998
   18.30833244  172.58599854    0.98000002    2.01999998
   18.31166649  172.32699585    0.98000002    2.01999998
   18.31472206  170.63499451    0.98000002    2.01999998
   18.32055664  170.63499451    0.98000002    2.01999998
   18.32472229  169.88000488    0.98000002    2.01999998
   18.32805634  172.41000366    0.98000002    2.01999998
   18.33139038  175.18400574    0.98000002    2.01999998
   18.33444595  173.97200012    0.98000002    2.01999998
   18.33527756  172.24000549    0.98000002    2.01999998
   18.33833313  174.08399963    0.98000002    2.01999998
   18.34138870  172.76699829    0.98000002    2.01999998
   18.34472275  172.35600281    0.98000002    2.01999998
   18.34777832  171.53199768    0.98000002    2.01999998
   18.35111237  174.02499390    0.98000002    2.01999998
   18.35444450  174.47099304    0.98000002    2.01999998
   18.35750008  174.41999817    0.98000002    2.01999998
   18.36361122  174.41999817    0.98000002    2.01999998
   18.36777878  174.16799927    0.98000002    2.01999998
   18.36861038  175.77699280    0.98000002    2.01999998
   18.37138939  172.45100403    0.98000002    2.01999998
   18.37444496  172.89900208    0.98000002    2.01999998
   18.37777710  179.76300049    0.98000002    2.01999998
   18.38083267  172.78100586    0.98000002    2.01999998
   18.38416672  174.15199280    0.98000002    2.01999998
   18.38750076  171.53300476    0.98000002    2.01999998
   18.39055634  179.13200378    0.98000002    2.01999998
   18.39388847  168.38699341    0.98000002    2.01999998
   18.39722252  171.74499512    0.98000002    2.01999998
   18.40027809  169.98199463    0.98000002    2.01999998
   18.40194321  173.10000610    0.98000002    2.01999998
   18.40638924  173.10000610    0.98000002    2.01999998
   18.41055489  170.15800476    0.98000002    2.01999998
   18.41388893  168.95100403    0.98000002    2.01999998
   18.41694450  173.87500000    0.98000002    2.01999998
   18.42027664  169.26600647    0.98000002    2.01999998
   18.42333221  172.09100342    0.98000002    2.01999998
   18.42666626  168.86599731    0.98000002    2.01999998
   18.43000031  172.41299438    0.98000002    2.01999998
   18.43305397  169.33200073    0.98000002    2.01999998
   18.43527603  171.47999573    0.98000002    2.01999998
   18.43694305  167.80400085    0.98000002    2.01999998
   18.43999863  169.56599426    0.98000002    2.01999998
   18.44333267  175.47999573    0.98000002    2.01999998
   18.44916534  175.47999573    0.98000002    2.01999998
   18.45333481  176.43699646    0.98000002    2.01999998
   18.45666695  172.08999634    0.98000002    2.01999998
   18.45972252  177.72300720    0.98000002    2.01999998
   18.46305656  174.04100037    0.98000002    2.01999998
   18.46638870  176.59199524    0.98000002    2.01999998
   18.46861076  181.66000366    0.98000002    2.01999998
   18.47000122  177.54100037    0.98000002    2.01999998
   18.47305679  173.84199524    0.98000002    2.01999998
   18.47638893  182.66299438    0.98000002    2.01999998
   18.47944450  187.97300720    0.98000002    2.01999998
   18.48277855  180.20500183    0.98000002    2.01999998
   18.48611069  178.86300659    0.98000002    2.01999998
   18.49194527  178.86300659    0.98000002    2.01999998
   18.49611092  196.47900391    0.98000002    2.01999998
   18.49944496  183.68499756    0.98000002    2.01999998
   18.50194359  184.42999268    0.98000002    2.01999998
   18.50305557  186.64700317    0.98000002    2.01999998
   18.50611115  182.87800598    0.98000002    2.01999998
   18.50972176  185.10600281    0.98000002    2.01999998
   18.51277733  189.35899353    0.98000002    2.01999998
   18.51611137  187.82099915    0.98000002    2.01999998
   18.51944351  177.16299438    0.98000002    2.01999998
   18.52249908  176.88800049    0.98000002    2.01999998
   18.52583313  179.34399414    0.98000002    2.01999998
   18.52916718  177.81500244    0.98000002    2.01999998
   18.53499985  177.81500244    0.98000002    2.01999998
   18.55333328  176.37199402    0.98000002    2.01999998
   18.55638885  181.33099365    0.98000002    2.01999998
   18.55972099  177.37899780    0.98000002    2.01999998
   18.56305504  173.19700623    0.98000002    2.01999998
   18.56611061  175.12800598    0.98000002    2.01999998
   18.56944466  181.22200012    0.98000002    2.01999998
   18.57277870  175.08200073    0.98000002    2.01999998
   18.57805634  175.08200073    0.98000002    2.01999998
   18.58222389  174.92900085    0.98000002    2.01999998
   18.58527756  167.46899414    0.98000002    2.01999998
   18.58638954  178.19599915    0.98000002    2.01999998
   18.58889008  183.01600647    0.98000002    2.01999998
   18.59222221  175.86999512    0.98000002    2.01999998
   18.59555626  179.91700745    0.98000002    2.01999998
   18.59861183  182.22399902    0.98000002    2.01999998
   18.60194397  185.77299500    0.98000002    2.01999998
   18.60527802  216.75100708    0.98000002    2.01999998
   18.60833359  206.43600464    0.98000002    2.01999998
   18.61166763  225.11099243    0.98000002    2.01999998
   18.61472321  204.89399719    0.98000002    2.01999998
   18.62083435  204.89399719    0.98000002    2.01999998
   18.62500000  200.10099792    0.98000002    2.01999998
   18.62805557  198.59899902    0.98000002    2.01999998
   18.63138962  191.21299744    0.98000002    2.01999998
   18.63472176  190.22900391    0.98000002    2.01999998
   18.63777733  195.97700500    0.98000002    2.01999998
   18.64111137  207.26499939    0.98000002    2.01999998
   18.64444351  186.02499390    0.98000002    2.01999998
   18.64749908  191.56599426    0.98000002    2.01999998
   18.65083313  187.90800476    0.98000002    2.01999998
   18.65305519  196.03700256    0.98000002    2.01999998
   18.65444374  190.70700073    0.98000002    2.01999998
   18.65749931  187.61399841    0.98000002    2.01999998
   18.66361046  187.61399841    0.98000002    2.01999998
   18.66777802  178.89599609    0.98000002    2.01999998
   18.67111015  185.14700317    0.98000002    2.01999998
   18.67416573  210.59100342    0.98000002    2.01999998
   18.67749977  193.30299377    0.98000002    2.01999998
   18.68083191  191.25799561    0.98000002    2.01999998
   18.68388748  208.23500061    0.98000002    2.01999998
   18.68638802  187.70899963    0.98000002    2.01999998
   18.68777657  210.62199402    0.98000002    2.01999998
   18.69083214  202.34800720    0.98000002    2.01999998
   18.69416618  176.64100647    0.98000002    2.01999998
   18.69722176  198.80299377    0.98000002    2.01999998
   18.70055580  198.26600647    0.98000002    2.01999998
   18.70666695  198.26600647    0.98000002    2.01999998
   18.71083450  193.16000366    0.98000002    2.01999998
   18.71416664  204.00300598    0.98000002    2.01999998
   18.71750069  183.88299561    0.98000002    2.01999998
   18.71972275  183.63499451    0.98000002    2.01999998
   18.72111130  189.02200317    0.98000002    2.01999998
   18.72416687  196.63699341    0.98000002    2.01999998
   18.72750092  193.44299316    0.98000002    2.01999998
   18.73083305  192.68400574    0.98000002    2.01999998
   18.73388863  210.78199768    0.98000002    2.01999998
   18.73722267  190.29499817    0.98000002    2.01999998
   18.74027824  204.92199707    0.98000002    2.01999998
   18.74361229  207.32699585    0.98000002    2.01999998
   18.74944496  207.32699585    0.98000002    2.01999998
   18.75361061  181.91700745    0.98000002    2.01999998
   18.75666618  193.40699768    0.98000002    2.01999998
   18.76000023  205.22000122    0.98000002    2.01999998
   18.76333427  183.93499756    0.98000002    2.01999998
   18.76638794  185.44700623    0.98000002    2.01999998
   18.76972198  190.73699951    0.98000002    2.01999998
   18.77277756  195.53100586    0.98000002    2.01999998
   18.77611160  197.16600037    0.98000002    2.01999998
   18.77944374  197.13999939    0.98000002    2.01999998
   18.78249931  185.25599670    0.98000002    2.01999998
   18.78583336  196.70899963    0.98000002    2.01999998
   18.78638840  194.58000183    0.98000002    2.01999998
   18.79222107  194.58000183    0.98000002    2.01999998
   18.79638863  185.03599548    0.98000002    2.01999998
   18.79972076  194.80400085    0.98000002    2.01999998
   18.80277634  191.26400757    0.98000002    2.01999998
   18.80611038  202.04499817    0.98000002    2.01999998
   18.80916595  187.95500183    0.98000002    2.01999998
   18.81250000  191.96600342    0.98000002    2.01999998
   18.81583214  199.58099365    0.98000002    2.01999998
   18.81888962  186.37600708    0.98000002    2.01999998
   18.81972313  184.97799683    0.98000002    2.01999998
   18.82277870  182.49600220    0.98000002    2.01999998
   18.82583427  198.05499268    0.98000002    2.01999998
   18.82916832  187.57600403    0.98000002    2.01999998
   18.83500099  187.57600403    0.98000002    2.01999998
   18.83916664  189.30000305    0.98000002    2.01999998
   18.84250069  210.06500244    0.98000002    2.01999998
   18.84555626  203.50000000    0.98000002    2.01999998
   18.84889030  189.35499573    0.98000002    2.01999998
   18.85222244  189.39999390    0.98000002    2.01999998
   18.85305595  180.17700195    0.98000002    2.01999998
   18.85583305  189.89700317    0.98000002    2.01999998
   18.85888863  180.46200562    0.98000002    2.01999998
   18.86222267  183.23800659    0.98000002    2.01999998
   18.86527824  182.61300659    0.98000002    2.01999998
   18.86861038  190.42599487    0.98000002    2.01999998
   18.87194443  181.50300598    0.98000002    2.01999998
   18.87805557  181.50300598    0.98000002    2.01999998
   18.88194466  193.63999939    0.98000002    2.01999998
   18.88527679  184.36500549    0.98000002    2.01999998
   18.88638878  191.55900574    0.98000002    2.01999998
   18.88916588  189.91900635    0.98000002    2.01999998
   18.89222145  183.99299622    0.98000002    2.01999998
   18.89555550  193.93699646    0.98000002    2.01999998
   18.89861107  183.15400696    0.98000002    2.01999998
   18.90194321  188.41400146    0.98000002    2.01999998
   18.90527725  182.26499939    0.98000002    2.01999998
   18.90833282  183.08900452    0.98000002    2.01999998
   18.91166687  189.35499573    0.98000002    2.01999998
   18.91499901  181.84599304    0.98000002    2.01999998
   18.92083359  181.84599304    0.98000002    2.01999998
   18.92499924  179.07699585    0.98000002    2.01999998
   18.92805481  180.36599731    0.98000002    2.01999998
   18.93138885  183.67599487    0.98000002    2.01999998
   18.93472099  187.60299683    0.98000002    2.01999998
   18.93777657  183.32600403    0.98000002    2.01999998
   18.94111061  182.51800537    0.98000002    2.01999998
   18.94416618  179.04299927    0.98000002    2.01999998
   18.94749832  175.07200623    0.98000002    2.01999998
   18.95083427  180.57499695    0.98000002    2.01999998
   18.95305634  177.65899658    0.98000002    2.01999998
   18.95444489  181.50000000    0.98000002    2.01999998
   18.95750046  178.41200256    0.98000002    2.01999998
   18.96361160  178.41200256    0.98000002    2.01999998
   18.96777916  182.11500549    0.98000002    2.01999998
   18.97111130  183.94500732    0.98000002    2.01999998
   18.97416687  190.25100708    0.98000002    2.01999998
   18.97750092  183.79800415    0.98000002    2.01999998
   18.98055649  180.94099426    0.98000002    2.01999998
   18.98388863  182.15100098    0.98000002    2.01999998
   18.98638916  188.92500305    0.98000002    2.01999998
   18.98777771  178.10200500    0.98000002    2.01999998
   18.99083328  184.22799683    0.98000002    2.01999998
   18.99416733  198.26300049    0.98000002    2.01999998
   18.99722290  188.00199890    0.98000002    2.01999998
   19.00055504  197.76100159    0.98000002    2.01999998
   19.00638962  197.76100159    0.98000002    2.01999998
   19.01055527  185.43400574    0.98000002    2.01999998
   19.01388931  185.43800354    0.98000002    2.01999998
   19.01694489  190.14300537    0.98000002    2.01999998
   19.01972198  193.13200378    0.98000002    2.01999998
   19.02083397  187.05499268    0.98000002    2.01999998
   19.02388954  185.90199280    0.98000002    2.01999998
   19.02722168  185.43800354    0.98000002    2.01999998
   19.03027725  186.62800598    0.98000002    2.01999998
   19.03361130  188.29699707    0.98000002    2.01999998
   19.03694344  187.63299561    0.98000002    2.01999998
   19.03999901  192.11700439    0.98000002    2.01999998
   19.04333305  187.78100586    0.98000002    2.01999998
   19.04944420  187.78100586    0.98000002    2.01999998
   19.05333328  197.00700378    0.98000002    2.01999998
   19.05666542  193.81199646    0.98000002    2.01999998
   19.05999947  202.54800415    0.98000002    2.01999998
   19.06305504  195.71699524    0.98000002    2.01999998
   19.06638718  212.19700623    0.98000002    2.01999998
   19.06972313  191.88200378    0.98000002    2.01999998
   19.07277870  191.11500549    0.98000002    2.01999998
   19.07611275  196.35699463    0.98000002    2.01999998
   19.07944489  201.68299866    0.98000002    2.01999998
   19.08250046  194.09399414    0.98000002    2.01999998
   19.08583450  202.11599731    0.98000002    2.01999998
   19.08638954  191.21299744    0.98000002    2.01999998
   19.09222221  191.21299744    0.98000002    2.01999998
   19.09638977  192.83700562    0.98000002    2.01999998
   19.09944534  185.54100037    0.98000002    2.01999998
   19.10277748  186.48199463    0.98000002    2.01999998
   19.10583305  189.06799316    0.98000002    2.01999998
   19.10916710  180.16600037    0.98000002    2.01999998
   19.11250114  194.22300720    0.98000002    2.01999998
   19.11555672  187.19700623    0.98000002    2.01999998
   19.11888885  196.61999512    0.98000002    2.01999998
   19.11972237  191.17199707    0.98000002    2.01999998
   19.12249947  184.86700439    0.98000002    2.01999998
   19.12555504  183.45599365    0.98000002    2.01999998
   19.12888908  187.45199585    0.98000002    2.01999998
   19.13500023  187.45199585    0.98000002    2.01999998
   19.13916588  187.99800110    0.98000002    2.01999998
   19.14222145  187.08200073    0.98000002    2.01999998
   19.14555550  193.28100586    0.98000002    2.01999998
   19.14888954  180.64100647    0.98000002    2.01999998
   19.15194321  181.14700317    0.98000002    2.01999998
   19.15305519  182.08500671    0.98000002    2.01999998
   19.15583229  183.63099670    0.98000002    2.01999998
   19.15888786  176.87199402    0.98000002    2.01999998
   19.16222191  180.47900391    0.98000002    2.01999998
   19.16555595  183.01499939    0.98000002    2.01999998
   19.16860962  181.72099304    0.98000002    2.01999998
   19.17194366  189.28599548    0.98000002    2.01999998
   19.17777634  189.28599548    0.98000002    2.01999998
   19.18194389  183.07499695    0.98000002    2.01999998
   19.18527603  179.14999390    0.98000002    2.01999998
   19.18638802  182.89300537    0.98000002    2.01999998
   19.18888855  181.22700500    0.98000002    2.01999998
   19.19194412  182.61000061    0.98000002    2.01999998
   19.19527626  174.72300720    0.98000002    2.01999998
   19.19861031  179.74299622    0.98000002    2.01999998
   19.20166779  181.99299622    0.98000002    2.01999998
   19.20499992  182.33099365    0.98000002    2.01999998
   19.20805550  184.44599915    0.98000002    2.01999998
   19.21138954  189.08299255    0.98000002    2.01999998
   19.21472359  184.22200012    0.98000002    2.01999998
   19.22083473  184.22200012    0.98000002    2.01999998
   19.22472191  179.27900696    0.98000002    2.01999998
   19.22805595  187.30599976    0.98000002    2.01999998
   19.23139000  180.86599731    0.98000002    2.01999998
   19.23444557  184.82699585    0.98000002    2.01999998
   19.23777771  182.68699646    0.98000002    2.01999998
   19.24083328  189.87399292    0.98000002    2.01999998
   19.24416733  192.00100708    0.98000002    2.01999998
   19.24749947  186.59800720    0.98000002    2.01999998
   19.25055504  185.75799561    0.98000002    2.01999998
   19.25305557  189.62399292    0.98000002    2.01999998
   19.25444412  190.60699463    0.98000002    2.01999998
   19.25749969  183.17500305    0.98000002    2.01999998
   19.26361084  183.17500305    0.98000002    2.01999998
   19.26777840  185.41600037    0.98000002    2.01999998
   19.27083397  183.07299805    0.98000002    2.01999998
   19.27416611  188.38400269    0.98000002    2.01999998
   19.27722168  198.44799805    0.98000002    2.01999998
   19.28055573  188.59899902    0.98000002    2.01999998
   19.28388786  188.63600159    0.98000002    2.01999998
   19.28638840  185.04200745    0.98000002    2.01999998
   19.28750038  183.65100098    0.98000002    2.01999998
   19.29055595  182.68200684    0.98000002    2.01999998
   19.29388809  182.52600098    0.98000002    2.01999998
   19.29722214  185.66799927    0.98000002    2.01999998
   19.30027771  200.12199402    0.98000002    2.01999998
   19.30638885  200.12199402    0.98000002    2.01999998
   19.31055450  218.60800171    0.98000002    2.01999998
   19.31361008  222.70700073    0.98000002    2.01999998
   19.31694603  244.88600159    0.98000002    2.01999998
   19.31972313  200.17900085    0.98000002    2.01999998
   19.32055664  214.22799683    0.98000002    2.01999998
   19.32361221  230.78700256    0.98000002    2.01999998
   19.32694626  254.98300171    0.98000002    2.01999998
   19.33027840  239.74400330    0.98000002    2.01999998
   19.33333397  211.85099792    0.98000002    2.01999998
   19.33666801  214.20899963    0.98000002    2.01999998
   19.33972359  221.63499451    0.98000002    2.01999998
   19.34305573  222.08700562    0.98000002    2.01999998
   19.34916687  222.08700562    0.98000002    2.01999998
   19.35333443  211.73199463    0.98000002    2.01999998
   19.35666656  230.55000305    0.98000002    2.01999998
   19.35972214  213.95300293    0.98000002    2.01999998
   19.36305618  232.15800476    0.98000002    2.01999998
   19.36638832  250.23399353    0.98000002    2.01999998
   19.36944389  262.35299683    0.98000002    2.01999998
   19.37277794  240.45500183    0.98000002    2.01999998
   19.37611198  203.31799316    0.98000002    2.01999998
   19.37916756  190.99699402    0.98000002    2.01999998
   19.38249969  215.14399719    0.98000002    2.01999998
   19.38555527  215.25500488    0.98000002    2.01999998
   19.38638878  215.67900085    0.98000002    2.01999998
   19.39222145  215.67900085    0.98000002    2.01999998
   19.39611053  208.01199341    0.98000002    2.01999998
   19.39944458  212.19799805    0.98000002    2.01999998
   19.40277672  269.94699097    0.98000002    2.01999998
   19.40583229  264.47698975    0.98000002    2.01999998
   19.40916634  306.42599487    0.98000002    2.01999998
   19.41250038  265.54400635    0.98000002    2.01999998
   19.41555595  272.43600464    0.98000002    2.01999998
   19.41888809  257.43798828    0.98000002    2.01999998
   19.41972160  285.14099121    0.98000002    2.01999998
   19.42249870  220.09300232    0.98000002    2.01999998
   19.42555428  265.11300659    0.98000002    2.01999998
   19.42888832  276.05599976    0.98000002    2.01999998
   19.43499947  276.05599976    0.98000002    2.01999998
   19.43916512  298.45700073    0.98000002    2.01999998
   19.44222069  350.75399780    0.98000002    2.01999998
   19.44555473  372.28201294    0.98000002    2.01999998
   19.44861031  244.11599731    0.98000002    2.01999998
   19.45194435  325.78100586    0.98000002    2.01999998
   19.45305634  323.18600464    0.98000002    2.01999998
   19.45555687  239.82099915    0.98000002    2.01999998
   19.45861244  297.11801147    0.98000002    2.01999998
   19.46194458  349.53399658    0.98000002    2.01999998
   19.46527863  278.03698730    0.98000002    2.01999998
   19.46833420  215.93099976    0.98000002    2.01999998
   19.47166634  254.42999268    0.98000002    2.01999998
   19.47777748  254.42999268    0.98000002    2.01999998
   19.48194504  324.71099854    0.98000002    2.01999998
   19.48527718  271.55398560    0.98000002    2.01999998
   19.48638916  292.88699341    0.98000002    2.01999998
   19.48888969  291.97601318    0.98000002    2.01999998
   19.49194527  305.38400269    0.98000002    2.01999998
   19.49527740  315.34500122    0.98000002    2.01999998
   19.49861145  333.08999634    0.98000002    2.01999998
   19.50166702  276.44198608    0.98000002    2.01999998
   19.50499916  328.86401367    0.98000002    2.01999998
   19.50833321  239.06100464    0.98000002    2.01999998
   19.51138878  253.87899780    0.98000002    2.01999998
   19.51472282  245.93899536    0.98000002    2.01999998
   19.52055550  245.93899536    0.98000002    2.01999998
   19.52472115  200.41299438    0.98000002    2.01999998
   19.52805519  206.35000610    0.98000002    2.01999998
   19.53111076  194.30599976    0.98000002    2.01999998
   19.53444481  197.55999756    0.98000002    2.01999998
   19.53777695  188.21299744    0.98000002    2.01999998
   19.54083252  192.64100647    0.98000002    2.01999998
   19.54416656  193.74699402    0.98000002    2.01999998
   19.54749870  200.74000549    0.98000002    2.01999998
   19.55055428  198.40199280    0.98000002    2.01999998
   19.55305481  210.95799255    0.98000002    2.01999998
   19.57389069  210.95799255    0.98000002    2.01999998
   19.57777786  202.98800659    0.98000002    2.01999998
   19.58111191  193.46499634    0.98000002    2.01999998
   19.58444595  195.54400635    0.98000002    2.01999998
   19.58638954  198.80000305    0.98000002    2.01999998
   19.58805656  203.55400085    0.98000002    2.01999998
   19.59138870  193.92399597    0.98000002    2.01999998
   19.59444427  197.38699341    0.98000002    2.01999998
   19.59777832  204.43899536    0.98000002    2.01999998
   19.60111237  197.79499817    0.98000002    2.01999998
   19.60416794  205.78700256    0.98000002    2.01999998
   19.60750008  201.83299255    0.98000002    2.01999998
   19.61055565  202.61599731    0.98000002    2.01999998
   19.61638832  202.61599731    0.98000002    2.01999998
   19.62055588  201.76800537    0.98000002    2.01999998
   19.62388992  212.75000000    0.98000002    2.01999998
   19.62722206  221.09199524    0.98000002    2.01999998
   19.63027763  208.23399353    0.98000002    2.01999998
   19.63361168  200.73399353    0.98000002    2.01999998
   19.63666725  197.08799744    0.98000002    2.01999998
   19.63999939  199.28799438    0.98000002    2.01999998
   19.64333344  191.47300720    0.98000002    2.01999998
   19.64638901  194.26499939    0.98000002    2.01999998
   19.64972115  195.42700195    0.98000002    2.01999998
   19.65305519  196.48300171    0.98000002    2.01999998
   19.65361023  202.28999329    0.98000002    2.01999998
   19.65944481  202.28999329    0.98000002    2.01999998
   19.66361046  200.40899658    0.98000002    2.01999998
   19.66666603  198.99000549    0.98000002    2.01999998
   19.67000008  196.31199646    0.98000002    2.01999998
   19.67305565  202.53999329    0.98000002    2.01999998
   19.67638779  196.89300537    0.98000002    2.01999998
   19.67972183  200.56199646    0.98000002    2.01999998
   19.68277740  197.51100159    0.98000002    2.01999998
   19.68610954  196.72599792    0.98000002    2.01999998
   19.68694305  197.74000549    0.98000002    2.01999998
   19.68972206  198.69900513    0.98000002    2.01999998
   19.69305420  203.55499268    0.98000002    2.01999998
   19.69610977  205.62800598    0.98000002    2.01999998
   19.70222282  205.62800598    0.98000002    2.01999998
   19.70639038  198.85099792    0.98000002    2.01999998
   19.70944595  222.29200745    0.98000002    2.01999998
   19.71277809  201.94700623    0.98000002    2.01999998
   19.71611214  203.32200623    0.98000002    2.01999998
   19.71916771  218.46200562    0.98000002    2.01999998
   19.72027779  194.79800415    0.98000002    2.01999998
   19.72277832  233.72200012    0.98000002    2.01999998
   19.72611237  207.90699768    0.98000002    2.01999998
   19.72916794  203.46899414    0.98000002    2.01999998
   19.73250008  232.39199829    0.98000002    2.01999998
   19.73583412  215.10499573    0.98000002    2.01999998
   19.73888969  221.96200562    0.98000002    2.01999998
   19.74500084  221.96200562    0.98000002    2.01999998
   19.74916649  235.54400635    0.98000002    2.01999998
   19.75250053  226.11500549    0.98000002    2.01999998
   19.75361061  242.99299622    0.98000002    2.01999998
   19.75611115  328.20800781    0.98000002    2.01999998
   19.75944519  298.30801392    0.98000002    2.01999998
   19.76250076  256.11199951    0.98000002    2.01999998
   19.76583290  251.81500244    0.98000002    2.01999998
   19.76916695  241.76899719    0.98000002    2.01999998
   19.77222252  394.96099854    0.98000002    2.01999998
   19.77555466  287.42300415    0.98000002    2.01999998
   19.77888870  282.73199463    0.98000002    2.01999998
   19.78194427  251.97000122    0.98000002    2.01999998
   19.78777695  251.97000122    0.98000002    2.01999998
   19.79194450  308.79998779    0.98000002    2.01999998
   19.79527664  274.19900513    0.98000002    2.01999998
   19.79833221  362.25201416    0.98000002    2.01999998
   19.80166626  341.10000610    0.98000002    2.01999998
   19.80499840  350.21701050    0.98000002    2.01999998
   19.80805397  298.03201294    0.98000002    2.01999998
   19.81138802  277.26998901    0.98000002    2.01999998
   19.81472206  240.77400208    0.98000002    2.01999998
   19.81777954  269.19299316    0.98000002    2.01999998
   19.82027817  261.69500732    0.98000002    2.01999998
   19.82139015  244.69000244    0.98000002    2.01999998
   19.82472229  263.62298584    0.98000002    2.01999998
   19.83083344  263.62298584    0.98000002    2.01999998
   19.83500099  254.45199585    0.98000002    2.01999998
   19.83805656  260.77700806    0.98000002    2.01999998
   19.84138870  275.02301025    0.98000002    2.01999998
   19.84444427  210.27200317    0.98000002    2.01999998
   19.84777832  216.17199707    0.98000002    2.01999998
   19.85111237  205.83099365    0.98000002    2.01999998
   19.85361099  262.53298950    0.98000002    2.01999998
   19.85472298  265.89199829    0.98000002    2.01999998
   19.85805511  228.10000610    0.98000002    2.01999998
   19.86138916  237.60000610    0.98000002    2.01999998
   19.86444473  251.68099976    0.98000002    2.01999998
   19.86777878  218.65899658    0.98000002    2.01999998
   19.87361145  218.65899658    0.98000002    2.01999998
   19.87777710  226.18800354    0.98000002    2.01999998
   19.88083267  228.17300415    0.98000002    2.01999998
   19.88416672  222.44599915    0.98000002    2.01999998
   19.88694382  198.45399475    0.98000002    2.01999998
   19.88777733  196.99800110    0.98000002    2.01999998
   19.89111137  217.02099609    0.98000002    2.01999998
   19.89444351  206.80200195    0.98000002    2.01999998
   19.89749908  205.04699707    0.98000002    2.01999998
   19.90083313  198.29899597    0.98000002    2.01999998
   19.90388870  191.20500183    0.98000002    2.01999998
   19.90722275  204.24600220    0.98000002    2.01999998
   19.91055489  207.07499695    0.98000002    2.01999998
   19.91638756  207.07499695    0.98000002    2.01999998
   19.92055511  220.09899902    0.98000002    2.01999998
   19.92388916  201.27099609    0.98000002    2.01999998
   19.92694473  200.83799744    0.98000002    2.01999998
   19.93027687  197.63699341    0.98000002    2.01999998
   19.93333244  211.12500000    0.98000002    2.01999998
   19.93666649  206.48699951    0.98000002    2.01999998
   19.93999863  201.49899292    0.98000002    2.01999998
   19.94305420  194.08399963    0.98000002    2.01999998
   19.94638824  198.95500183    0.98000002    2.01999998
   19.94972038  206.29600525    0.98000002    2.01999998
   19.95277786  198.03199768    0.98000002    2.01999998
   19.95361137  192.51499939    0.98000002    2.01999998
   19.95916748  192.51499939    0.98000002    2.01999998
   19.96333504  188.46600342    0.98000002    2.01999998
   19.96666718  199.31300354    0.98000002    2.01999998
   19.96972275  191.08500671    0.98000002    2.01999998
   19.97305679  185.59399414    0.98000002    2.01999998
   19.97638893  191.52200317    0.98000002    2.01999998
   19.97944450  181.05400085    0.98000002    2.01999998
   19.98277855  184.43600464    0.98000002    2.01999998
   19.98611069  183.94900513    0.98000002    2.01999998
   19.98694420  195.31399536    0.98000002    2.01999998
   19.98944473  196.30000305    0.98000002    2.01999998
   19.99277878  201.90899658    0.98000002    2.01999998
   19.99611092  188.82800293    0.98000002    2.01999998
   20.00222206  188.82800293    0.98000002    2.01999998
   20.00611115  196.33500671    0.98000002    2.01999998
   20.00944519  192.05400085    0.98000002    2.01999998
   20.01277733  208.55000305    0.98000002    2.01999998
   20.01583290  196.60099792    0.98000002    2.01999998
   20.01916695  185.73199463    0.98000002    2.01999998
   20.02027702  190.97999573    0.98000002    2.01999998
   20.02277756  183.00399780    0.98000002    2.01999998
   20.02611160  183.97000122    0.98000002    2.01999998
   20.02944374  183.03900146    0.98000002    2.01999998
   20.03249931  192.14900208    0.98000002    2.01999998
   20.03583336  205.31300354    0.98000002    2.01999998
   20.03888893  206.17300415    0.98000002    2.01999998
   20.04500008  206.17300415    0.98000002    2.01999998
   20.04916573  195.60400391    0.98000002    2.01999998
   20.05222130  194.35400391    0.98000002    2.01999998
   20.05360985  189.75999451    0.98000002    2.01999998
   20.05583191  192.46699524    0.98000002    2.01999998
   20.05916595  187.76300049    0.98000002    2.01999998
   20.06250000  193.05400085    0.98000002    2.01999998
   20.06555557  210.95799255    0.98000002    2.01999998
   20.06888962  218.06300354    0.98000002    2.01999998
   20.07194519  220.35299683    0.98000002    2.01999998
   20.07527924  215.93699646    0.98000002    2.01999998
   20.07861137  214.03500366    0.98000002    2.01999998
   20.08166695  217.06300354    0.98000002    2.01999998
   20.08777809  217.06300354    0.98000002    2.01999998
   20.09194565  206.36300659    0.98000002    2.01999998
   20.09527779  197.40600586    0.98000002    2.01999998
   20.09833336  229.95199585    0.98000002    2.01999998
   20.10166740  197.30900574    0.98000002    2.01999998
   20.10472298  191.57899475    0.98000002    2.01999998
   20.10805511  194.12699890    0.98000002    2.01999998
   20.11138916  212.87399292    0.98000002    2.01999998
   20.11444473  212.60600281    0.98000002    2.01999998
   20.11777878  207.73899841    0.98000002    2.01999998
   20.12027740  211.18400574    0.98000002    2.01999998
   20.12138939  234.93099976    0.98000002    2.01999998
   20.12472153  231.92999268    0.98000002    2.01999998
   20.13055611  231.92999268    0.98000002    2.01999998
   20.13472176  238.00300598    0.98000002    2.01999998
   20.13805580  257.17001343    0.98000002    2.01999998
   20.14111137  196.47000122    0.98000002    2.01999998
   20.14444351  229.36399841    0.98000002    2.01999998
   20.14777756  235.42799377    0.98000002    2.01999998
   20.15083313  286.83801270    0.98000002    2.01999998
   20.15361023  229.86900330    0.98000002    2.01999998
   20.15444374  209.77999878    0.98000002    2.01999998
   20.15777779  210.82699585    0.98000002    2.01999998
   20.16110992  222.35800171    0.98000002    2.01999998
   20.16416550  208.71299744    0.98000002    2.01999998
   20.16749954  206.60699463    0.98000002    2.01999998
   20.17361069  206.60699463    0.98000002    2.01999998
   20.17749977  211.50100708    0.98000002    2.01999998
   20.18083191  219.27600098    0.98000002    2.01999998
   20.18416595  199.42900085    0.98000002    2.01999998
   20.18694305  191.40600586    0.98000002    2.01999998
   20.18750000  191.86099243    0.98000002    2.01999998
   20.19083214  200.26800537    0.98000002    2.01999998
   20.19416618  202.59800720    0.98000002    2.01999998
   20.19722176  194.62100220    0.98000002    2.01999998
   20.20055580  196.99800110    0.98000002    2.01999998
   20.20388985  198.30799866    0.98000002    2.01999998
   20.20694542  195.42700195    0.98000002    2.01999998
   20.21027946  196.83799744    0.98000002    2.01999998
   20.21638870  196.83799744    0.98000002    2.01999998
   20.22055626  194.50100708    0.98000002    2.01999998
   20.22361183  204.20399475    0.98000002    2.01999998
   20.22694588  197.11099243    0.98000002    2.01999998
   20.23027802  221.34199524    0.98000002    2.01999998
   20.23333359  274.77099609    0.98000002    2.01999998
   20.23666763  199.52999878    0.98000002    2.01999998
   20.23972321  205.97900391    0.98000002    2.01999998
   20.24305534  199.72399902    0.98000002    2.01999998
   20.24638939  204.29100037    0.98000002    2.01999998
   20.24944496  196.03199768    0.98000002    2.01999998
   20.25277710  191.81300354    0.98000002    2.01999998
   20.25361061  188.64300537    0.98000002    2.01999998
   20.25916672  188.64300537    0.98000002    2.01999998
   20.26333427  193.56500244    0.98000002    2.01999998
   20.26666641  194.77600098    0.98000002    2.01999998
   20.26972198  193.41700745    0.98000002    2.01999998
   20.27305603  190.50500488    0.98000002    2.01999998
   20.27638817  191.92799377    0.98000002    2.01999998
   20.27944374  194.24699402    0.98000002    2.01999998
   20.28277779  196.10699463    0.98000002    2.01999998
   20.28610992  187.31399536    0.98000002    2.01999998
   20.28694344  191.53799438    0.98000002    2.01999998
   20.28944397  193.85699463    0.98000002    2.01999998
   20.29277802  196.09599304    0.98000002    2.01999998
   20.29611015  188.09100342    0.98000002    2.01999998
   20.30194283  188.09100342    0.98000002    2.01999998
   20.30611038  193.81199646    0.98000002    2.01999998
   20.30944443  200.91299438    0.98000002    2.01999998
   20.31250000  208.23699951    0.98000002    2.01999998
   20.31583214  212.80200195    0.98000002    2.01999998
   20.31916809  203.18099976    0.98000002    2.01999998
   20.32027817  215.33999634    0.98000002    2.01999998
   20.32250023  206.48599243    0.98000002    2.01999998
   20.32583427  194.94000244    0.98000002    2.01999998
   20.32916832  192.93099976    0.98000002    2.01999998
   20.33222389  193.97999573    0.98000002    2.01999998
   20.33555603  186.86099243    0.98000002    2.01999998
   20.33889008  191.39399719    0.98000002    2.01999998
   20.34500122  191.39399719    0.98000002    2.01999998
   20.34889030  195.65899658    0.98000002    2.01999998
   20.35222244  189.16299438    0.98000002    2.01999998
   20.35361099  193.06300354    0.98000002    2.01999998
   20.35583305  198.39900208    0.98000002    2.01999998
   20.35916710  192.89199829    0.98000002    2.01999998
   20.36250114  198.95199585    0.98000002    2.01999998
   20.36555672  191.12699890    0.98000002    2.01999998
   20.36888885  199.72500610    0.98000002    2.01999998
   20.37222290  190.73100281    0.98000002    2.01999998
   20.37527847  202.38099670    0.98000002    2.01999998
   20.37861061  204.03199768    0.98000002    2.01999998
   20.38166618  203.09899902    0.98000002    2.01999998
   20.38777733  203.09899902    0.98000002    2.01999998
   20.39194489  198.90299988    0.98000002    2.01999998
   20.39500046  209.08000183    0.98000002    2.01999998
   20.39833260  208.90199280    0.98000002    2.01999998
   20.40166664  203.11799622    0.98000002    2.01999998
   20.40472221  207.06399536    0.98000002    2.01999998
   20.40805435  195.67500305    0.98000002    2.01999998
   20.41110992  205.07600403    0.98000002    2.01999998
   20.41444397  203.10800171    0.98000002    2.01999998
   20.41777802  201.95399475    0.98000002    2.01999998
   20.42027664  198.39100647    0.98000002    2.01999998
   20.42138863  192.56599426    0.98000002    2.01999998
   20.42444420  207.45500183    0.98000002    2.01999998
   20.43055534  207.45500183    0.98000002    2.01999998
   20.43472099  200.60400391    0.98000002    2.01999998
   20.43805504  196.17300415    0.98000002    2.01999998
   20.44111061  192.29200745    0.98000002    2.01999998
   20.44444275  214.67900085    0.98000002    2.01999998
   20.44749832  214.16000366    0.98000002    2.01999998
   20.45083427  208.98300171    0.98000002    2.01999998
   20.45361137  205.08000183    0.98000002    2.01999998
   20.45472336  200.14999390    0.98000002    2.01999998
   20.45777893  199.53500366    0.98000002    2.01999998
   20.46111107  205.75000000    0.98000002    2.01999998
   20.46416664  204.96800232    0.98000002    2.01999998
   20.46750069  199.40199280    0.98000002    2.01999998
   20.47333336  199.40199280    0.98000002    2.01999998
   20.47750092  219.14300537    0.98000002    2.01999998
   20.48083305  238.96400452    0.98000002    2.01999998
   20.48388863  207.33399963    0.98000002    2.01999998
   20.48694420  207.46800232    0.98000002    2.01999998
   20.48777771  218.39900208    0.98000002    2.01999998
   20.49083328  208.32699585    0.98000002    2.01999998
   20.49416733  220.89199829    0.98000002    2.01999998
   20.49722290  210.67900085    0.98000002    2.01999998
   20.50055504  202.27799988    0.98000002    2.01999998
   20.50388908  218.50999451    0.98000002    2.01999998
   20.50694466  220.97300720    0.98000002    2.01999998
   20.51027870  199.03700256    0.98000002    2.01999998
   20.51638794  199.03700256    0.98000002    2.01999998
   20.52027702  217.13699341    0.98000002    2.01999998
   20.52361107  223.30000305    0.98000002    2.01999998
   20.52694511  230.22399902    0.98000002    2.01999998
   20.53000069  255.43600464    0.98000002    2.01999998
   20.53333282  259.67498779    0.98000002    2.01999998
   20.53666687  312.28399658    0.98000002    2.01999998
   20.53972244  320.76300049    0.98000002    2.01999998
   20.54305458  292.27099609    0.98000002    2.01999998
   20.54611015  294.85598755    0.98000002    2.01999998
   20.54944420  297.36499023    0.98000002    2.01999998
   20.55277634  304.67300415    0.98000002    2.01999998
   20.55360985  334.02700806    0.98000002    2.01999998
   20.55916595  334.02700806    0.98000002    2.01999998
   20.56333351  249.50999451    0.98000002    2.01999998
   20.56638718  224.69500732    0.98000002    2.01999998
   20.56972313  249.43099976    0.98000002    2.01999998
