    HOUR (UT)   FLARE FACTOR    SKY TESTER    SUN TESTER
   11.07972240   -1.00000000   -1.00000000   -1.00000000
   11.10972214  194.41600037    4.90999985    2.19000006
   11.11305618  203.03999329    4.90999985    2.21000004
   11.11611176  184.73899841    4.90999985    2.19000006
   11.11944485  191.53999329    4.90999985    2.21000004
   11.12250042  191.76100159    4.90999985    2.21000004
   11.12583351  195.15600586    4.90999985    2.21000004
   11.13000011  195.15600586    4.90999985    2.21000004
   11.13416672  175.13200378    4.90999985    2.21000004
   11.13722229  191.66900635    4.90999985    2.21000004
   11.14055538  182.94500732    4.90999985    2.21000004
   11.14305496  188.45899963    4.90999985    2.21000004
   11.14416695  203.79400635    4.90999985    2.21000004
   11.14750004  185.00900269    4.90999985    2.23000002
   11.15083313  200.50599670    4.90999985    2.23000002
   11.15388870  179.94799805    4.90999985    2.23000002
   11.15722179  183.25399780    4.90999985    2.21000004
   11.16055489  173.97000122    4.90999985    2.23000002
   11.16361046  192.95100403    4.90999985    2.23000002
   11.16694450  194.39700317    4.90999985    2.25000000
   11.17277813  194.39700317    4.90999985    2.23000002
   11.17694473  180.05099487    4.90999985    2.25000000
   11.18027782  175.82299805    4.90999985    2.25000000
   11.18333340  180.04899597    4.90999985    2.25000000
   11.18666649  170.29200745    4.90999985    2.25000000
   11.19000053  187.43200684    4.90999985    2.25000000
   11.19305515  173.30499268    4.90999985    2.25000000
   11.19638920  179.79899597    4.90999985    2.25000000
   11.19944477  182.00300598    4.90999985    2.25000000
   11.20277786  178.64999390    4.90999985    2.26999998
   11.20611095  169.27499390    4.90999985    2.26999998
   11.20916653  174.59399414    4.90999985    2.26999998
   11.20972157  182.22599792    4.90999985    2.26999998
   11.21555519  182.22599792    4.90999985    2.26999998
   11.21972179  176.40199280    4.90999985    2.28999996
   11.22305489  171.44500732    4.90999985    2.26999998
   11.22611046  178.35299683    4.90999985    2.26999998
   11.22944355  172.12300110    4.90999985    2.26999998
   11.23277760  168.28399658    4.90999985    2.28999996
   11.23583317  175.13900757    4.90999985    2.28999996
   11.23916721  179.77699280    4.90999985    2.28999996
   11.24250031  180.21600342    4.90999985    2.28999996
   11.24305534  177.10000610    4.90999985    2.28999996
   11.24611092  185.30299377    4.90999985    2.28999996
   11.24916649  175.83299255    4.90999985    2.28999996
   11.25249958  185.80700684    4.90999985    2.28999996
   11.25861073  185.80700684    4.90999985    2.28999996
   11.26249981  177.41499329    4.90999985    2.30999994
   11.26583290  170.36399841    4.90999985    2.30999994
   11.26916599  174.24299622    4.90999985    2.30999994
   11.27250004  181.69900513    4.90999985    2.30999994
   11.27555561  169.66700745    4.90999985    2.30999994
   11.27638817  170.78100586    4.90999985    2.30999994
   11.27916622  172.27200317    4.90999985    2.30999994
   11.28249931  178.30700684    4.90999985    2.30999994
   11.28555584  178.56799316    4.90999985    2.32999992
   11.28888893  173.56300354    4.90999985    2.32999992
   11.29194450  184.26100159    4.90999985    2.32999992
   11.29527855  171.27400208    4.90999985    2.32999992
   11.30138874  171.27400208    4.90999985    2.32999992
   11.30555534  177.79899597    4.90999985    2.32999992
   11.30861092  183.11599731    4.90999985    2.32999992
   11.30972195  171.34399414    4.90999985    2.32999992
   11.31250000  172.46699524    4.90999985    2.32999992
   11.31583309  178.66600037    4.90999985    2.32999992
   11.31888866  185.86900330    4.90999985    2.32999992
   11.32222176  193.16700745    4.90999985    2.34999990
   11.32527733  176.27999878    4.90999985    2.34999990
   11.32861137  169.29800415    4.90999985    2.34999990
   11.33194447  172.28100586    4.90999985    2.34999990
   11.33500004  174.22300720    4.90999985    2.34999990
   11.33833313  181.59300232    4.90999985    2.34999990
   11.34416676  181.59300232    4.90999985    2.34999990
   11.34833336  171.08799744    4.90999985    2.34999990
   11.35166740  167.66400146    4.90999985    2.34999990
   11.35472298  178.28999329    4.90999985    2.36999989
   11.35805607  166.09899902    4.90999985    2.36999989
   11.36111164  166.93400574    4.90999985    2.36999989
   11.36444473  161.75500488    4.90999985    2.36999989
   11.36777782  161.52999878    4.90999985    2.36999989
   11.37083340  177.50799561    4.90999985    2.36999989
   11.37416649  168.12199402    4.90999985    2.36999989
   11.37638855  163.73800659    4.90999985    2.36999989
   11.37777805  164.86099243    4.90999985    2.36999989
   11.38083363  170.81100464    4.90999985    2.39000010
   11.38694477  170.81100464    4.90999985    2.39000010
   11.39111137  172.76199341    4.90999985    2.39000010
   11.39444447  164.69900513    4.90999985    2.39000010
   11.39750004  162.58099365    4.90999985    2.39000010
   11.40083313  166.29299927    4.90999985    2.39000010
   11.40416622  167.24899292    4.90999985    2.39000010
   11.40722179  185.89599609    4.90999985    2.39000010
   11.40972137  180.98599243    4.90999985    2.39000010
   11.41111088  176.40400696    4.90999985    2.39000010
   11.41416645  154.41400146    4.90999985    2.39000010
   11.41750050  170.05400085    4.90999985    2.39000010
   11.42083359  171.59300232    4.90999985    2.39000010
   11.42388916  160.06100464    4.90999985    2.39000010
   11.43000031  160.06100464    4.90999985    2.40000010
   11.43388939  159.52999878    4.90999985    2.40000010
   11.43722248  163.41000366    4.90999985    2.40000010
   11.44055557  166.85899353    4.90999985    2.40000010
   11.44305515  159.23100281    4.90999985    2.40000010
   11.44416714  159.51300049    4.90999985    2.42000008
   11.44722271  154.75500488    4.90999985    2.40000010
   11.45055580  162.11099243    4.90999985    2.40000010
   11.45388889  161.85299683    4.90999985    2.40000010
   11.45694447  160.83599854    4.90999985    2.42000008
   11.46027756  167.40699768    4.90999985    2.40000010
   11.46361065  162.81599426    4.90999985    2.40000010
   11.46666622  164.23399353    4.90999985    2.42000008
   11.47277737  164.23399353    4.90999985    2.42000008
   11.47694397  169.48899841    4.90999985    2.42000008
   11.47999954  173.64599609    4.90999985    2.42000008
   11.48333359  167.04699707    4.90999985    2.42000008
   11.48666668  170.36700439    4.90999985    2.44000006
   11.48972225  164.63299561    4.90999985    2.44000006
   11.49305534  161.34500122    4.90999985    2.44000006
   11.49611092  158.19900513    4.90999985    2.44000006
   11.49944496  163.28799438    4.90999985    2.44000006
   11.50277805  164.21800232    4.90999985    2.44000006
   11.50583363  173.72599792    4.90999985    2.44000006
   11.50916672  160.96800232    4.90999985    2.44000006
   11.50972176  168.71400452    4.90999985    2.44000006
   11.51555538  168.71400452    4.90999985    2.44000006
   11.51972198  167.60600281    4.90999985    2.46000004
   11.52305508  156.88099670    4.90999985    2.44000006
   11.52611065  159.56700134    4.90999985    2.46000004
   11.52944374  156.65600586    4.90999985    2.46000004
   11.53249931  162.72500610    4.90999985    2.46000004
   11.53583336  163.06799316    4.90999985    2.46000004
   11.53916740  161.09599304    4.90999985    2.46000004
   11.54222298  161.73100281    4.90999985    2.46000004
   11.54305553  164.21099854    4.90999985    2.46000004
   11.54583359  157.30499268    4.90999985    2.46000004
   11.54916668  159.05499268    4.90999985    2.46000004
   11.55222225  155.08299255    4.90999985    2.46000004
   11.55833340  155.08299255    4.90999985    2.46000004
   11.56250000  160.49200439    4.90999985    2.46000004
   11.56583309  160.71200562    4.90999985    2.46000004
   11.56888866  162.21800232    4.90999985    2.48000002
   11.57222176  158.98300171    4.90999985    2.48000002
   11.57555580  156.84199524    4.90999985    2.46000004
   11.57638836  160.83000183    4.90999985    2.48000002
   11.57916641  159.47399902    4.90999985    2.48000002
   11.58249950  161.94200134    4.90999985    2.48000002
   11.58555508  159.03900146    4.90999985    2.48000002
   11.58888817  158.27999878    4.90999985    2.48000002
   11.59194374  156.93299866    4.90999985    2.48000002
   11.59527779  163.37899780    4.90999985    2.48000002
   11.60138893  163.37899780    4.90999985    2.48000002
   11.60527802  159.62699890    4.90999985    2.48000002
   11.60861111  163.74200439    4.90999985    2.48000002
   11.60972214  160.18200684    4.90999985    2.48000002
   11.61222267  158.10299683    4.90999985    2.48000002
   11.61555576  163.97399902    4.90999985    2.50000000
   11.61861134  151.64900208    4.90999985    2.48000002
   11.62194443  153.65899658    4.90999985    2.50000000
   11.62500000  149.17199707    4.90999985    2.50000000
   11.62833309  155.54200745    4.90999985    2.50000000
   11.63166714  152.15600586    4.90999985    2.50000000
   11.63472176  151.11799622    4.90999985    2.50000000
   11.63805580  159.35899353    4.90999985    2.50000000
   11.64416695  159.35899353    4.90999985    2.51999998
   11.64833355  157.58399963    4.90999985    2.50000000
   11.65138817  150.30799866    4.90999985    2.50000000
   11.65472221  157.44500732    4.90999985    2.50000000
   11.65805531  152.74299622    4.90999985    2.50000000
   11.66111088  160.28500366    4.90999985    2.50000000
   11.66444397  159.23899841    4.90999985    2.50000000
   11.66750050  158.71099854    4.90999985    2.51999998
   11.67083359  158.67900085    4.90999985    2.51999998
   11.67416668  157.90800476    4.90999985    2.50000000
   11.67638874  162.67199707    4.90999985    2.51999998
   11.67777824  154.45300293    4.90999985    2.51999998
   11.68111134  156.22000122    4.90999985    2.51999998
   11.68694496  156.22000122    4.90999985    2.51999998
   11.69111156  156.07699585    4.90999985    2.51999998
   11.69444466  159.89799500    4.90999985    2.51999998
   11.69750023  151.59100342    4.90999985    2.51999998
   11.70083332  155.17599487    4.90999985    2.51999998
   11.70416641  154.98699951    4.90999985    2.51999998
   11.70722198  157.78399658    4.90999985    2.51999998
   11.70972157  161.11700439    4.90999985    2.51999998
   11.71083355  168.00100708    4.90999985    2.53999996
   11.71416664  153.56300354    4.90999985    2.53999996
   11.71722221  157.34300232    4.90999985    2.53999996
   11.72055531  162.23100281    4.90999985    2.53999996
   11.72361088  154.47500610    4.90999985    2.53999996
   11.72972202  154.47500610    4.90999985    2.53999996
   11.73388958  153.74600220    4.90999985    2.53999996
   11.73722267  155.28900146    4.90999985    2.53999996
   11.74027824  158.27799988    4.90999985    2.53999996
   11.74305534  156.52200317    4.90999985    2.55999994
   11.74416733  157.08900452    4.90999985    2.55999994
   11.74750042  166.71299744    4.90999985    2.55999994
   11.75055599  162.80700684    4.90999985    2.55999994
   11.75388908  154.52400208    4.90999985    2.53999996
   11.75694466  150.78599548    4.90999985    2.53999996
   11.76027775  161.05900574    4.90999985    2.53999996
   11.76361084  159.73599243    4.90999985    2.53999996
   11.76666641  158.85299683    4.90999985    2.53999996
   11.77277756  158.85299683    4.90999985    2.55999994
   11.77666664  152.80400085    4.90999985    2.55999994
   11.77999973  152.36999512    4.90999985    2.55999994
   11.78333378  154.89999390    4.90999985    2.55999994
   11.78638935  147.99800110    4.90999985    2.55999994
   11.78972244  160.86399841    4.90999985    2.55999994
   11.79305553  153.03199768    4.90999985    2.55999994
   11.79611111  150.61399841    4.90999985    2.55999994
   11.79944515  150.13800049    4.90999985    2.55999994
   11.80249977  152.01199341    4.90999985    2.55999994
   11.80583382  152.81100464    4.90999985    2.55999994
   11.80916691  153.84199524    4.90999985    2.55999994
   11.80972195  159.84100342    4.90999985    2.55999994
   11.81555557  159.84100342    4.90999985    2.57999992
   11.81972218  156.49499512    4.90999985    2.57999992
   11.82277775  156.94000244    4.90999985    2.57999992
   11.82611084  151.94400024    4.90999985    2.55999994
   11.82944393  143.55400085    4.90999985    2.57999992
   11.83249950  151.79499817    4.90999985    2.57999992
   11.83583260  149.22799683    4.90999985    2.57999992
   11.83888817  152.02900696    4.90999985    2.57999992
   11.84222221  148.63699341    4.90999985    2.57999992
   11.84305477  147.28799438    4.90999985    2.57999992
   11.84583282  145.46299744    4.90999985    2.57999992
   11.84916592  150.61099243    4.90999985    2.57999992
   11.85222244  153.11000061    4.90999985    2.57999992
   11.85833359  153.11000061    4.90999985    2.57999992
   11.86250019  153.18600464    4.90999985    2.57999992
   11.86583328  148.18099976    4.90999985    2.57999992
   11.86888885  150.64399719    4.90999985    2.57999992
   11.87222195  153.24200439    4.90999985    2.57999992
   11.87527752  148.57699585    4.90999985    2.57999992
   11.87638855  150.70599365    4.90999985    2.57999992
   11.87888908  143.38600159    4.90999985    2.57999992
   11.88222218  149.82099915    4.90999985    2.59999990
   11.88527775  154.21299744    4.90999985    2.59999990
   11.88861084  143.16900635    4.90999985    2.59999990
   11.89194393  152.30499268    4.90999985    2.59999990
   11.89499950  150.50100708    4.90999985    2.57999992
   11.90111065  150.50100708    4.90999985    2.59999990
   11.90527725  148.69700623    4.90999985    2.59999990
   11.90861034  144.57800293    4.90999985    2.59999990
   11.90972137  148.19299316    4.90999985    2.59999990
   11.91222191  150.32000732    4.90999985    2.59999990
   11.91555500  144.63900757    4.90999985    2.59999990
   11.91861153  138.93499756    4.90999985    2.59999990
   11.92194462  148.34300232    4.90999985    2.59999990
   11.92527771  156.41200256    4.90999985    2.59999990
   11.92833328  145.77400208    4.90999985    2.59999990
   11.93166733  147.23800659    4.90999985    2.59999990
   11.93472195  143.84500122    4.90999985    2.59999990
   11.93805599  149.24699402    4.90999985    2.61999989
   11.94416714  149.24699402    4.90999985    2.61999989
   11.94805527  151.77000427    4.90999985    2.61999989
   11.95138836  146.34800720    4.90999985    2.61999989
   11.95472240  148.94400024    4.90999985    2.61999989
   11.95777798  146.70399475    4.90999985    2.61999989
   11.96111107  145.18499756    4.90999985    2.61999989
   11.96444416  149.87399292    4.90999985    2.61999989
   11.96749973  138.59899902    4.90999985    2.61999989
   11.97083282  144.58599854    4.90999985    2.61999989
   11.97388840  143.66799927    4.90999985    2.61999989
   11.97638798  148.47300720    4.90999985    2.61999989
   11.97749996  145.82000732    4.90999985    2.61999989
   11.98083305  141.78700256    4.90999985    2.61999989
   11.98694515  141.78700256    4.90999985    2.61999989
   11.99111176  140.16799927    4.90999985    2.64000010
   11.99416733  142.89599609    4.90999985    2.64000010
   11.99750042  138.06799316    4.90999985    2.64000010
   12.00083351  145.37199402    4.90999985    2.61999989
   12.00388908  143.57099915    4.90999985    2.61999989
   12.00722218  146.10099792    4.90999985    2.64000010
   12.00972176  142.40400696    4.90999985    2.61999989
   12.01083374  147.45700073    4.90999985    2.61999989
   12.01416683  140.85499573    4.90999985    2.61999989
   12.01722240  137.07499695    4.90999985    2.64000010
   12.02055550  142.51199341    4.90999985    2.64000010
   12.02388859  169.84599304    4.90999985    2.64000010
   12.02972221  169.84599304    4.90999985    2.64000010
   12.03388977  171.11900330    4.90999985    2.64000010
   12.03722286  174.21000671    4.90999985    2.64000010
   12.04027843  149.50300598    4.90999985    2.64000010
   12.04305553  174.70500183    4.90999985    2.64000010
   12.04388905  170.26800537    4.90999985    2.64000010
   12.04722309  179.36999512    4.90999985    2.64000010
   12.05027771  172.22099304    4.90999985    2.64000010
   12.05361176  167.18400574    4.90999985    2.64000010
   12.05694485  178.65499878    4.90999985    2.64000010
   12.06000042  168.87699890    4.90999985    2.64000010
   12.06333351  215.86500549    4.90999985    2.64000010
   12.06638908  195.40699768    4.90999985    2.64000010
   12.07250023  195.40699768    4.90999985    2.64000010
   12.07666683  210.16400146    4.90999985    2.66000009
   12.07999992  196.32299805    4.90999985    2.66000009
   12.08305550  199.28300476    4.90999985    2.64000010
   12.08638859  197.38099670    4.90999985    2.66000009
   12.08972168  209.48199463    4.90999985    2.66000009
   12.09277725  194.03900146    4.90999985    2.66000009
   12.09611034  198.43200684    4.90999985    2.66000009
   12.09944439  206.05200195    4.90999985    2.64000010
   12.10249996  193.92999268    4.90999985    2.66000009
   12.10583401  228.93600464    4.90999985    2.66000009
   12.10888958  190.92399597    4.90999985    2.66000009
   12.11000061  177.64300537    4.90999985    2.66000009
   12.13055611  177.64300537    4.90999985    2.67000008
   12.13472176  176.37500000    4.90999985    2.66000009
   12.13805580  183.98399353    4.90999985    2.66000009
   12.14111137  187.63400269    4.90999985    2.67000008
   12.14333344  184.97700500    4.90999985    2.66000009
   12.14472198  185.76800537    4.90999985    2.67000008
   12.14805508  188.33200073    4.90999985    2.66000009
   12.15111065  184.74899292    4.90999985    2.67000008
   12.15444374  189.66400146    4.90999985    2.67000008
   12.15777779  165.98599243    4.90999985    2.66000009
   12.16083336  177.87699890    4.90999985    2.67000008
   12.16416645  169.28500366    4.90999985    2.67000008
   12.16750050  177.35699463    4.90999985    2.67000008
   12.17333412  177.35699463    4.90999985    2.66000009
   12.17750072  180.73199463    4.90999985    2.69000006
   12.18083382  177.50199890    4.90999985    2.67000008
   12.18388939  183.82499695    4.90999985    2.67000008
   12.18722248  170.79899597    4.90999985    2.67000008
   12.19027805  193.13499451    4.90999985    2.67000008
   12.19361115  192.64199829    4.90999985    2.67000008
   12.19694424  164.21099854    4.90999985    2.67000008
   12.19999981  172.49299622    4.90999985    2.67000008
   12.20333290  161.47000122    4.90999985    2.67000008
   12.20666695  178.09100342    4.90999985    2.67000008
   12.20972157  164.39599609    4.90999985    2.67000008
   12.21027756  153.92300415    4.90999985    2.67000008
   12.21611118  153.92300415    4.90999985    2.67000008
   12.22027779  171.93699646    4.90999985    2.67000008
   12.22361088  146.24000549    4.90999985    2.69000006
   12.22666645  151.63400269    4.90999985    2.69000006
   12.22999954  157.33099365    4.90999985    2.69000006
   12.23333359  134.57600403    4.90999985    2.69000006
   12.23638916  175.38000488    4.90999985    2.69000006
   12.23972225  139.84199524    4.90999985    2.69000006
   12.24277782  149.03700256    4.90999985    2.69000006
   12.24361134  169.86999512    4.90999985    2.69000006
   12.24666691  150.18200684    4.90999985    2.69000006
   12.24972248  144.09899902    4.90999985    2.69000006
   12.25305557  141.78300476    4.90999985    2.69000006
   12.25888920  141.78300476    4.90999985    2.69000006
   12.26305580  148.16099548    4.90999985    2.69000006
   12.26638889  151.17500305    4.90999985    2.69000006
   12.26972198  143.04400635    4.90999985    2.69000006
   12.27277756  142.42999268    4.90999985    2.69000006
   12.27611065  142.07800293    4.90999985    2.69000006
   12.27694416  144.88600159    4.90999985    2.69000006
   12.27972221  164.89700317    4.90999985    2.69000006
   12.28277779  148.94500732    4.90999985    2.69000006
   12.28611183  146.46499634    4.90999985    2.69000006
   12.28944492  147.73800659    4.90999985    2.69000006
   12.29250050  172.75900269    4.90999985    2.69000006
   12.29583359  159.56900024    4.90999985    2.69000006
   12.30194473  159.56900024    4.90999985    2.71000004
   12.30611134  166.14199829    4.90999985    2.71000004
   12.30916691  152.14900208    4.90999985    2.69000006
   12.31027794  161.58500671    4.90999985    2.69000006
   12.31277752  173.32200623    4.90999985    2.71000004
   12.31583309  162.21200562    4.90999985    2.71000004
   12.31916618  163.67399597    4.90999985    2.69000006
   12.32250023  144.84599304    4.90999985    2.71000004
   12.32555580  149.70399475    4.90999985    2.71000004
   12.32888889  164.98300171    4.90999985    2.71000004
   12.33222198  158.92500305    4.90999985    2.71000004
   12.33527756  152.64700317    4.90999985    2.71000004
   12.33861065  146.91999817    4.90999985    2.71000004
   12.34472179  146.91999817    4.90999985    2.71000004
   12.34888840  159.89100647    4.90999985    2.69000006
   12.35194492  163.03999329    4.90999985    2.69000006
   12.35527802  146.78199768    4.90999985    2.71000004
   12.35861111  153.24499512    4.90999985    2.71000004
   12.36166668  134.99600220    4.90999985    2.71000004
   12.36500072  150.02400208    4.90999985    2.71000004
   12.36833382  134.57000732    4.90999985    2.71000004
   12.37138939  155.97700500    4.90999985    2.71000004
   12.37472248  137.15100098    4.90999985    2.71000004
   12.37694454  147.80400085    4.90999985    2.71000004
   12.37833309  141.04100037    4.90999985    2.71000004
   12.38166714  136.37600708    4.90999985    2.73000002
   12.38749981  136.37600708    4.90999985    2.71000004
   12.39166641  140.98699951    4.90999985    2.71000004
   12.39499950  144.08900452    4.90999985    2.71000004
   12.39805508  134.96099854    4.90999985    2.71000004
   12.40138817  140.78999329    4.90999985    2.73000002
   12.40472221  139.35600281    4.90999985    2.71000004
   12.40777779  132.51499939    4.90999985    2.73000002
   12.41027737  132.66700745    4.90999985    2.71000004
   12.41138840  139.90499878    4.90999985    2.71000004
   12.41472149  137.36999512    4.90999985    2.71000004
   12.41777802  132.75799561    4.90999985    2.71000004
   12.42111111  132.56700134    4.90999985    2.73000002
   12.42416668  134.11000061    4.90999985    2.71000004
   12.43055630  134.11000061    4.90999985    2.71000004
   12.43444443  123.69699860    4.90999985    2.71000004
   12.43777752  137.15499878    4.90999985    2.73000002
   12.44111156  132.50500488    4.90999985    2.73000002
   12.44361115  132.89399719    4.90999985    2.73000002
   12.44472218  127.88400269    4.90999985    2.73000002
   12.44777775  127.94200134    4.90999985    2.73000002
   12.45111084  127.31300354    4.90999985    2.73000002
   12.45444393  130.76499939    4.90999985    2.73000002
   12.45749950  129.55599976    4.90999985    2.73000002
   12.46083355  129.50999451    4.90999985    2.73000002
   12.46416664  132.98399353    4.90999985    2.73000002
   12.46722221  130.63699341    4.90999985    2.73000002
   12.47333336  130.63699341    4.90999985    2.73000002
   12.47749996  127.69200134    4.90999985    2.75000000
   12.48055553  136.82000732    4.90999985    2.73000002
   12.48388958  139.48599243    4.90999985    2.73000002
   12.48694515  135.94500732    4.90999985    2.73000002
   12.49027824  136.10699463    4.90999985    2.73000002
   12.49361134  131.81100464    4.90999985    2.73000002
   12.49666691  132.11799622    4.90999985    2.73000002
   12.50000000  132.38299561    4.90999985    2.73000002
   12.50333309  130.85499573    4.90999985    2.73000002
   12.50638866  124.76100159    4.90999985    2.73000002
   12.50972176  133.81399536    4.90999985    2.75000000
   12.51027775  127.28299713    4.90999985    2.75000000
   12.51611137  127.28299713    4.90999985    2.75000000
   12.52027798  137.83599854    4.90999985    2.75000000
   12.52333355  134.90800476    4.90999985    2.73000002
   12.52666664  132.89799500    4.90999985    2.73000002
   12.52999973  128.86300659    4.90999985    2.73000002
   12.53305531  140.54800415    4.90999985    2.75000000
   12.53638935  141.90899658    4.90999985    2.75000000
   12.53972244  134.46200562    4.90999985    2.75000000
   12.54277802  133.64900208    4.90999985    2.75000000
   12.54361153  134.05200195    4.90999985    2.75000000
   12.54638958  133.42300415    4.90999985    2.75000000
   12.54972267  129.84100342    4.90999985    2.75000000
   12.55277824  126.07299805    4.90999985    2.75000000
   12.55888939  126.07299805    4.90999985    2.75000000
   12.56305599  125.86299896    4.90999985    2.75000000
   12.56638908  122.20200348    4.90999985    2.75000000
   12.56944466  131.62800598    4.90999985    2.75000000
   12.57277775  130.61500549    4.90999985    2.75000000
   12.57611084  131.42199707    4.90999985    2.75000000
   12.57694435  126.54199982    4.90999985    2.75000000
   12.57972240  124.91300201    4.90999985    2.75000000
   12.58305550  131.32600403    4.90999985    2.75000000
   12.58611107  137.60600281    4.90999985    2.75000000
   12.58944416  132.35099792    4.90999985    2.75000000
   12.59249973  135.37100220    4.90999985    2.75000000
   12.59583282  135.35499573    4.90999985    2.75000000
   12.60166740  135.35499573    4.90999985    2.75000000
   12.60583401  125.44200134    4.90999985    2.76999998
   12.60916710  128.51300049    4.90999985    2.75000000
   12.61027813  123.67400360    4.90999985    2.75000000
   12.61277771  134.17799377    4.90999985    2.76999998
   12.61611176  128.18699646    4.90999985    2.75000000
   12.61916637  125.80400085    4.90999985    2.76999998
   12.62250042  130.09599304    4.90999985    2.75000000
   12.62555599  128.09800720    4.90999985    2.75000000
   12.62888908  124.36299896    4.90999985    2.75000000
   12.63222218  128.93600464    4.90999985    2.76999998
   12.63555527  123.71399689    4.90999985    2.76999998
   12.63861084  127.46499634    4.90999985    2.75000000
   12.64472198  127.46499634    4.90999985    2.75000000
   12.64888859  127.28500366    4.90999985    2.76999998
   12.65194416  126.47299957    4.90999985    2.75000000
   12.65527725  127.88899994    4.90999985    2.76999998
   12.65833282  130.56399536    4.90999985    2.76999998
   12.66166592  129.06300354    4.90999985    2.76999998
   12.66499996  128.96600342    4.90999985    2.76999998
   12.66805553  129.44200134    4.90999985    2.76999998
   12.67138958  130.45700073    4.90999985    2.76999998
   12.67472267  127.41000366    4.90999985    2.76999998
   12.67694473  131.69000244    4.90999985    2.76999998
   12.67833328  118.74600220    4.90999985    2.75000000
   12.68166733  123.66600037    4.90999985    2.75000000
   12.68750000  123.66600037    4.90999985    2.76999998
   12.69166660  121.50199890    4.90999985    2.76999998
   12.69472218  129.62500000    4.90999985    2.76999998
   12.69805527  134.28199768    4.90999985    2.76999998
   12.70138836  120.40499878    4.90999985    2.76999998
   12.70444393  123.47799683    4.90999985    2.76999998
   12.70777798  130.02699280    4.90999985    2.76999998
   12.71027756  120.51899719    4.90999985    2.78999996
   12.71138859  122.46299744    4.90999985    2.75000000
   12.71472168  124.60099792    4.90999985    2.76999998
   12.71777725  125.38700104    4.90999985    2.78999996
   12.72111034  128.12600708    4.90999985    2.78999996
   12.72444439  122.50499725    4.90999985    2.76999998
   12.73027706  122.50499725    4.90999985    2.78999996
   12.73444462  124.50499725    4.90999985    2.76999998
   12.73777771  122.02600098    4.90999985    2.78999996
   12.74083328  121.33300018    4.90999985    2.76999998
   12.74361134  126.36399841    4.90999985    2.76999998
   12.74444485  123.04100037    4.90999985    2.76999998
   12.74777794  131.00399780    4.90999985    2.76999998
   12.75083351  124.34100342    4.90999985    2.76999998
   12.75416660  124.44899750    4.90999985    2.76999998
   12.75722218  130.17500305    4.90999985    2.78999996
   12.76055527  123.18099976    4.90999985    2.78999996
   12.76388931  126.28900146    4.90999985    2.78999996
   12.76694393  120.56600189    4.90999985    2.76999998
   12.77305508  120.56600189    4.90999985    2.76999998
   12.77722168  122.63999939    4.90999985    2.76999998
   12.78055573  126.73699951    4.90999985    2.78999996
   12.78361130  131.82499695    4.90999985    2.76999998
   12.78694534  123.82900238    4.90999985    2.78999996
   12.79027843  125.43000031    4.90999985    2.78999996
   12.79333401  127.44499969    4.90999985    2.78999996
   12.79666710  121.15100098    4.90999985    2.76999998
   12.80000019  128.73699951    4.90999985    2.78999996
   12.80305576  129.43699646    4.90999985    2.78999996
   12.80638885  129.94200134    4.90999985    2.76999998
   12.80944443  120.37000275    4.90999985    2.76999998
   12.81027794  122.70999908    4.90999985    2.78999996
   12.81611156  122.70999908    4.90999985    2.76999998
   12.81999969  127.05400085    4.90999985    2.78999996
   12.82333374  124.53500366    4.90999985    2.78999996
   12.82666683  117.98000336    4.90999985    2.78999996
   12.82972240  125.60299683    4.90999985    2.78999996
   12.83305550  122.99500275    4.90999985    2.78999996
   12.83638859  127.08300018    4.90999985    2.78999996
   12.83944416  124.03399658    4.90999985    2.78999996
   12.84277725  127.05699921    4.90999985    2.78999996
   12.84361076  122.80300140    4.90999985    2.78999996
   12.84638882  119.43699646    4.90999985    2.78999996
   12.84972191  129.17300415    4.90999985    2.78999996
   12.85277843  124.54900360    4.90999985    2.80999994
   12.85888958  124.54900360    4.90999985    2.78999996
   12.86305618  120.43900299    4.90999985    2.78999996
   12.86611176  122.89800262    4.90999985    2.78999996
   12.86944485  122.11799622    4.90999985    2.78999996
   12.87277794  121.18699646    4.90999985    2.80999994
   12.87583351  121.03299713    4.90999985    2.78999996
   12.87694454  128.92599487    4.90999985    2.78999996
   12.87944412  121.96499634    4.90999985    2.78999996
   12.88277817  127.07800293    4.90999985    2.78999996
   12.88583279  120.58999634    4.90999985    2.78999996
   12.88916683  120.59999847    4.90999985    2.78999996
   12.89249992  122.51899719    4.90999985    2.78999996
   12.89555550  120.91799927    4.90999985    2.78999996
   12.90166664  120.91799927    4.90999985    2.80999994
   12.90583324  122.57499695    4.90999985    2.78999996
   12.90916634  120.21600342    4.90999985    2.78999996
   12.91027737  123.21499634    4.90999985    2.80999994
   12.91277695  121.62799835    4.90999985    2.78999996
   12.91611099  122.28399658    4.90999985    2.78999996
   12.91916656  124.24400330    4.90999985    2.78999996
   12.92250061  129.11700439    4.90999985    2.78999996
   12.92583370  121.36900330    4.90999985    2.80999994
   12.92888927  127.59600067    4.90999985    2.80999994
   12.93222237  124.81999969    4.90999985    2.78999996
   12.93527794  124.16400146    4.90999985    2.80999994
   12.93861103  126.55799866    4.90999985    2.80999994
   12.94444466  126.55799866    4.90999985    2.80999994
   12.94861126  121.20899963    4.90999985    2.80999994
   12.95194435  125.92500305    4.90999985    2.80999994
   12.95527744  126.34400177    4.90999985    2.80999994
   12.95833302  126.98899841    4.90999985    2.80999994
   12.96166611  121.18699646    4.90999985    2.80999994
   12.96500015  126.98699951    4.90999985    2.80999994
   12.96805477  124.17600250    4.90999985    2.82999992
   12.97138882  134.14700317    4.90999985    2.82999992
   12.97444439  123.00199890    4.90999985    2.80999994
   12.97694397  130.48800659    4.90999985    2.80999994
   12.97805500  125.11599731    4.90999985    2.80999994
   12.98138809  122.62799835    4.90999985    2.80999994
   12.98750019  122.62799835    4.90999985    2.80999994
   12.99166679  122.01599884    4.90999985    2.80999994
   12.99472237  126.36399841    4.90999985    2.80999994
   12.99805546  128.72000122    4.90999985    2.80999994
   13.00111103  130.72799683    4.90999985    2.80999994
   13.00444412  124.90200043    4.90999985    2.80999994
   13.00777817  125.33599854    4.90999985    2.82999992
   13.01027775  123.29299927    4.90999985    2.82999992
   13.01138878  126.79599762    4.90999985    2.80999994
   13.01472187  125.58000183    4.90999985    2.80999994
   13.01777744  124.79900360    4.90999985    2.80999994
   13.02111053  124.72299957    4.90999985    2.80999994
   13.02444458  127.02600098    4.90999985    2.80999994
   13.03027725  127.02600098    4.90999985    2.80999994
   13.03444481  126.38700104    4.90999985    2.82999992
   13.03750038  122.06700134    4.90999985    2.80999994
   13.04083347  132.48399353    4.90999985    2.82999992
   13.04361153  127.82499695    4.90999985    2.80999994
   13.04444504  126.53800201    4.90999985    2.80999994
   13.04777813  128.62399292    4.90999985    2.80999994
   13.05083370  132.41400146    4.90999985    2.80999994
   13.05416679  128.06599426    4.90999985    2.80999994
   13.05749989  126.36799622    4.90999985    2.80999994
   13.06055546  129.86599731    4.90999985    2.80999994
   13.06388950  130.63499451    4.90999985    2.80999994
   13.06694412  125.09999847    4.90999985    2.80999994
   13.07305527  125.09999847    4.90999985    2.82999992
   13.07722187  127.02899933    4.90999985    2.82999992
   13.08055592  122.24299622    4.90999985    2.82999992
   13.08361053  124.46900177    4.90999985    2.80999994
   13.08694458  123.97599792    4.90999985    2.80999994
   13.09027767  126.15299988    4.90999985    2.82999992
   13.09333324  126.11900330    4.90999985    2.82999992
   13.09666634  124.64199829    4.90999985    2.82999992
   13.09972191  127.04299927    4.90999985    2.82999992
   13.10305595  119.69200134    4.90999985    2.80999994
   13.10638905  130.49600220    4.90999985    2.82999992
   13.10944462  135.23399353    4.90999985    2.82999992
   13.11055565  131.36599731    4.90999985    2.82999992
   13.11583328  131.36599731    4.90999985    2.82999992
   13.11999989  125.86399841    4.90999985    2.82999992
   13.12333393  133.85299683    4.90999985    2.82999992
   13.12666702  125.41100311    4.90999985    2.82999992
   13.14416695  121.05999756    4.90999985    2.82999992
   13.14666653  123.39299774    4.90999985    2.82999992
   13.14972210  128.08700562    4.90999985    2.82999992
   13.15305519  127.49800110    4.90999985    2.82999992
   13.15888882  127.49800110    4.90999985    2.82999992
   13.16305542  123.37500000    4.90999985    2.82999992
   13.16638851  127.12400055    4.90999985    2.82999992
   13.16944504  119.87200165    4.90999985    2.82999992
   13.17277813  121.96499634    4.90999985    2.82999992
   13.17611122  125.32599640    4.90999985    2.84999990
   13.17750072  125.78199768    4.90999985    2.82999992
   13.17972279  122.47899628    4.90999985    2.82999992
   13.18305588  127.29299927    4.90999985    2.82999992
   13.18611145  123.07199860    4.90999985    2.82999992
   13.18944454  126.31099701    4.90999985    2.82999992
   13.19277763  117.22699738    4.90999985    2.82999992
   13.19583321  124.79299927    4.90999985    2.84999990
   13.20194435  124.79299927    4.90999985    2.82999992
   13.20583344  125.90699768    4.90999985    2.84999990
   13.20916653  124.82099915    4.90999985    2.82999992
   13.21083355  125.30500031    4.90999985    2.82999992
   13.21277714  130.14399719    4.90999985    2.82999992
   13.21611118  126.90200043    4.90999985    2.84999990
   13.21916580  125.04100037    4.90999985    2.82999992
   13.22249985  131.54299927    4.90999985    2.82999992
   13.22583294  123.89600372    4.90999985    2.82999992
   13.22888851  117.69999695    4.90999985    2.82999992
   13.23222160  128.40100098    4.90999985    2.84999990
   13.23555565  121.96099854    4.90999985    2.82999992
   13.23861122  122.70300293    4.90999985    2.82999992
   13.24472237  122.70300293    4.90999985    2.84999990
   13.24888897  121.15299988    4.90999985    2.84999990
   13.25194454  121.58599854    4.90999985    2.84999990
   13.25527763  121.54399872    4.90999985    2.82999992
   13.25833321  120.50099945    4.90999985    2.84999990
   13.26166630  119.16899872    4.90999985    2.84999990
   13.26500034  117.14099884    4.90999985    2.82999992
   13.26805496  120.62899780    4.90999985    2.82999992
   13.27138901  122.20400238    4.90999985    2.84999990
   13.27472210  126.85399628    4.90999985    2.84999990
   13.27750015  124.09899902    4.90999985    2.84999990
   13.27833271  122.91100311    4.90999985    2.84999990
   13.28166676  121.50499725    4.90999985    2.84999990
   13.28750038  121.50499725    4.90999985    2.84999990
   13.29166698  123.93099976    4.90999985    2.82999992
   13.29472256  126.91200256    4.90999985    2.84999990
   13.29805565  115.10800171    4.90999985    2.84999990
   13.30138874  123.94100189    4.90999985    2.84999990
   13.30444431  127.16000366    4.90999985    2.84999990
   13.30777836  129.77900696    4.90999985    2.84999990
   13.31083393  129.46400452    4.90999985    2.84999990
   13.31138897  120.89600372    4.90999985    2.84999990
   13.31472206  122.73999786    4.90999985    2.84999990
   13.31777763  133.45899963    4.90999985    2.86999989
   13.32111073  126.18199921    4.90999985    2.86999989
   13.32444477  123.47100067    4.90999985    2.86999989
   13.33027744  123.47100067    4.90999985    2.84999990
   13.33444405  127.56199646    4.90999985    2.86999989
   13.33777714  127.72699738    4.90999985    2.84999990
   13.34083271  130.10000610    4.90999985    2.84999990
   13.34416676  128.09500122    4.90999985    2.86999989
   13.34444427  125.57900238    4.90999985    2.86999989
   13.34777737  125.73799896    4.90999985    2.84999990
   13.35083389  130.66999817    4.90999985    2.84999990
   13.35416698  127.63400269    4.90999985    2.84999990
   13.35750008  126.01599884    4.90999985    2.86999989
   13.36055565  130.22799683    4.90999985    2.86999989
   13.36388969  125.06900024    4.90999985    2.86999989
   13.36722279  125.71900177    4.90999985    2.84999990
   13.37305546  125.71900177    4.90999985    2.84999990
   13.37750053  120.92600250    4.90999985    2.84999990
   13.37777805  117.37500000    4.90999985    2.84999990
   13.38111115  129.41600037    4.90999985    2.84999990
   13.38444424  122.64900208    4.90999985    2.84999990
   13.38749981  124.43699646    4.90999985    2.86999989
   13.39083290  126.74600220    4.90999985    2.84999990
   13.39388847  125.28199768    4.90999985    2.84999990
   13.39722252  125.60500336    4.90999985    2.84999990
   13.40055561  124.44400024    4.90999985    2.86999989
   13.40361118  122.65499878    4.90999985    2.84999990
   13.40694427  131.51499939    4.90999985    2.84999990
   13.41027737  127.68499756    4.90999985    2.84999990
   13.41083336  130.79800415    4.90999985    2.84999990
   13.41611099  130.79800415    4.90999985    2.84999990
   13.42027855  126.12500000    4.90999985    2.86999989
   13.42333412  128.71000671    4.90999985    2.86999989
   13.42666721  129.84700012    4.90999985    2.86999989
   13.43000031  128.02000427    4.90999985    2.84999990
   13.43305588  134.79200745    4.90999985    2.86999989
   13.43638897  129.24699402    4.90999985    2.84999990
   13.43944454  132.18400574    4.90999985    2.86999989
   13.44277763  129.50999451    4.90999985    2.84999990
   13.44416714  132.10600281    4.90999985    2.86999989
   13.44638920  130.47799683    4.90999985    2.86999989
   13.44972229  129.12399292    4.90999985    2.84999990
   13.45305538  140.04899597    4.90999985    2.84999990
   13.45888901  140.04899597    4.90999985    2.84999990
   13.46305561  144.91499329    4.90999985    2.86999989
   13.46638870  136.70899963    4.90999985    2.86999989
   13.46944427  134.68200684    4.90999985    2.86999989
   13.47277737  140.13000488    4.90999985    2.86999989
   13.47583294  140.08599854    4.90999985    2.84999990
   13.47749996  140.32699585    4.90999985    2.84999990
   13.47944355  143.91600037    4.90999985    2.86999989
   13.48277760  149.26600647    4.90999985    2.86999989
   13.48611164  142.75100708    4.90999985    2.84999990
   13.48916721  145.79899597    4.90999985    2.84999990
   13.49250031  145.85099792    4.90999985    2.84999990
   13.49583340  142.69400024    4.90999985    2.86999989
   13.50166702  142.69400024    4.90999985    2.86999989
   13.50583363  141.01600647    4.90999985    2.86999989
   13.50916672  146.28999329    4.90999985    2.86999989
   13.51083374  151.20599365    4.90999985    2.86999989
   13.51249981  153.28999329    4.90999985    2.86999989
   13.51583290  153.64300537    4.90999985    2.86999989
   13.51916599  150.92199707    4.90999985    2.86999989
   13.52222157  154.72999573    4.90999985    2.86999989
   13.52555561  149.02799988    4.90999985    2.86999989
   13.52861118  169.15299988    4.90999985    2.86999989
   13.53194427  162.46299744    4.90999985    2.86999989
   13.53527832  168.44599915    4.90999985    2.86999989
   13.53833389  168.03799438    4.90999985    2.86999989
   13.54472256  168.03799438    4.90999985    2.86999989
   13.54861164  182.47399902    4.90999985    2.86999989
   13.55194473  172.63400269    4.90999985    2.86999989
   13.55527782  182.94299316    4.90999985    2.86999989
   13.55833340  189.69500732    4.90999985    2.86999989
   13.56166649  191.67900085    4.90999985    2.86999989
   13.56500053  190.19500732    4.90999985    2.86999989
   13.56805515  202.06700134    4.90999985    2.86999989
   13.57138920  203.04200745    4.90999985    2.86999989
   13.57444477  210.46600342    4.90999985    2.86999989
   13.57750034  213.94200134    4.90999985    2.86999989
   13.57805538  211.69999695    4.90999985    2.86999989
   13.58138847  222.39799500    4.90999985    2.86999989
   13.58749962  222.39799500    4.90999985    2.86999989
   13.59166622  244.29499817    4.90999985    2.84999990
   13.59472179  263.11099243    4.90999985    2.86999989
   13.59805489  241.03900146    4.90999985    2.86999989
   13.60111141  261.31100464    4.90999985    2.86999989
   13.60444450  244.00399780    4.90999985    2.86999989
   13.60777855  247.22000122    4.90999985    2.86999989
   13.61083412  274.95098877    4.90999985    2.86999989
   13.61111164  286.69400024    4.90999985    2.86999989
   13.61444473  285.06600952    4.90999985    2.86999989
   13.61777782  297.52999878    4.90999985    2.86999989
   13.62083340  332.83999634    4.90999985    2.86999989
   13.62416649  299.35000610    4.90999985    2.89000010
   13.63027763  299.35000610    4.90999985    2.89000010
   13.63444424  296.47299194    4.90999985    2.86999989
   13.63749981  286.71499634    4.90999985    2.86999989
   13.64083290  277.05099487    4.90999985    2.86999989
   13.64416695  257.35800171    4.90999985    2.86999989
   13.64444447  235.77200317    4.90999985    2.86999989
   13.64777756  206.89700317    4.90999985    2.89000010
   13.65111065  222.24099731    4.90999985    2.89000010
   13.65416622  175.70500183    4.90999985    2.86999989
   13.65749931  180.03599548    4.90999985    2.86999989
   13.66055489  153.40800476    4.90999985    2.89000010
   13.66444397  158.61700439    4.90999985    2.86999989
   13.66777802  122.43199921    4.90999985    2.89000010
   13.67305565  122.43199921    4.90999985    2.86999989
   13.67722225  132.97900391    4.90999985    2.86999989
   13.67777824  129.69400024    4.90999985    2.86999989
   13.68111134  132.41600037    4.90999985    2.86999989
   13.68416691  134.55799866    4.90999985    2.86999989
   13.68750000  132.03900146    4.90999985    2.86999989
   13.69055557  129.60800171    4.90999985    2.89000010
   13.69388866  128.42999268    4.90999985    2.86999989
   13.69722271  130.43200684    4.90999985    2.89000010
   13.70027733  125.95999908    4.90999985    2.86999989
   13.70361137  126.20800018    4.90999985    2.89000010
   13.70694447  129.33999634    4.90999985    2.89000010
   13.71000004  128.25599670    4.90999985    2.89000010
   13.71111107  124.87699890    4.90999985    2.91000009
   13.71611118  124.87699890    4.90999985    2.89000010
   13.71999931  125.53700256    4.90999985    2.89000010
   13.72333336  122.18900299    4.90999985    2.89000010
   13.72666645  124.61199951    4.90999985    2.89000010
   13.72972202  132.85899353    4.90999985    2.89000010
   13.73305511  127.66200256    4.90999985    2.89000010
   13.73638916  130.12300110    4.90999985    2.89000010
   13.73944473  126.44300079    4.90999985    2.89000010
   13.74277782  129.16400146    4.90999985    2.86999989
   13.74444485  135.11999512    4.90999985    2.89000010
   13.74638939  126.39800262    4.90999985    2.89000010
   13.74944496  126.60299683    4.90999985    2.89000010
   13.75277805  122.81199646    4.90999985    2.89000010
   13.75888920  122.81199646    4.90999985    2.89000010
   13.76305580  125.51799774    4.90999985    2.89000010
   13.76611137  119.17299652    4.90999985    2.86999989
   13.76944447  122.01300049    4.90999985    2.89000010
   13.77250004  123.22499847    4.90999985    2.89000010
   13.77583313  124.12200165    4.90999985    2.89000010
   13.77777767  124.88200378    4.90999985    2.89000010
   13.77972221  124.69999695    4.90999985    2.91000009
   13.78277779  125.54699707    4.90999985    2.89000010
   13.78611183  119.29399872    4.90999985    2.89000010
   13.78944492  125.37200165    4.90999985    2.89000010
   13.79250050  123.78700256    4.90999985    2.89000010
   13.79583359  126.96800232    4.90999985    2.91000009
   13.80166721  126.96800232    4.90999985    2.89000010
   13.80583382  118.62500000    4.90999985    2.89000010
   13.80888939  120.11299896    4.90999985    2.89000010
   13.81111145  115.56199646    4.90999985    2.91000009
   13.81277752  123.22100067    4.90999985    2.91000009
   13.81583309  120.47299957    4.90999985    2.89000010
   13.81916618  130.59300232    4.90999985    2.91000009
   13.82250023  122.49600220    4.90999985    2.89000010
   13.82555580  129.01199341    4.90999985    2.89000010
   13.82888889  122.31900024    4.90999985    2.89000010
   13.83194447  116.20500183    4.90999985    2.89000010
   13.83527756  121.83200073    4.90999985    2.89000010
   13.83861065  125.62899780    4.90999985    2.89000010
   13.84444427  125.62899780    4.90999985    2.89000010
   13.84861088  124.27899933    4.90999985    2.91000009
   13.85194492  121.54100037    4.90999985    2.91000009
   13.85500050  122.69400024    4.90999985    2.89000010
   13.85833359  127.89299774    4.90999985    2.89000010
   13.86166668  120.34700012    4.90999985    2.89000010
   13.86472225  117.89800262    4.90999985    2.89000010
   13.86805534  120.30999756    4.90999985    2.89000010
   13.87111092  128.33799744    4.90999985    2.89000010
   13.87444496  119.69100189    4.90999985    2.89000010
   13.87777805  117.16400146    4.90999985    2.89000010
   13.87833309  120.58699799    4.90999985    2.89000010
   13.88138866  118.44400024    4.90999985    2.89000010
   13.88722229  118.44400024    4.90999985    2.91000009
   13.89138889  123.72399902    4.90999985    2.91000009
   13.89472198  117.55500031    4.90999985    2.89000010
   13.89805508  129.59399414    4.90999985    2.91000009
   13.90111065  120.50499725    4.90999985    2.89000010
   13.90444374  120.93199921    4.90999985    2.89000010
   13.90749931  121.41799927    4.90999985    2.89000010
   13.91083336  121.62999725    4.90999985    2.91000009
   13.91166592  119.39700317    4.90999985    2.89000010
   13.91444397  115.20300293    4.90999985    2.91000009
   13.91777802  126.13600159    4.90999985    2.91000009
   13.92111111  118.90899658    4.90999985    2.91000009
   13.92416668  120.89700317    4.90999985    2.91000009
   13.93027782  120.89700317    4.90999985    2.91000009
   13.93444443  125.08999634    4.90999985    2.89000010
   13.93750000  123.09700012    4.90999985    2.91000009
   13.94083309  124.54199982    4.90999985    2.91000009
   13.94388866  116.52999878    4.90999985    2.91000009
   13.94499969  119.03800201    4.90999985    2.91000009
   13.94750023  127.37699890    4.90999985    2.91000009
   13.95083332  129.44700623    4.90999985    2.91000009
   13.95416641  125.16100311    4.90999985    2.91000009
   13.95722198  122.17299652    4.90999985    2.91000009
   13.96055508  126.49400330    4.90999985    2.91000009
   13.96361065  128.87800598    4.90999985    2.91000009
   13.96694374  118.13700104    4.90999985    2.91000009
   13.97305489  118.13700104    4.90999985    2.91000009
   13.97722149  126.65200043    4.90999985    2.91000009
   13.97833252  124.98899841    4.90999985    2.91000009
   13.98083305  119.40599823    4.90999985    2.91000009
   13.98416710  123.18900299    4.90999985    2.91000009
   13.98750019  119.76100159    4.90999985    2.91000009
   13.99055576  121.96199799    4.90999985    2.93000007
   13.99388885  122.09600067    4.90999985    2.89000010
   13.99694443  122.87000275    4.90999985    2.89000010
   14.00027752  117.22899628    4.90999985    2.91000009
   14.00361156  124.38800049    4.90999985    2.91000009
   14.00666714  124.91699982    4.90999985    2.91000009
   14.01000023  121.63700104    4.90999985    2.91000009
   14.01166630  120.28700256    4.90999985    2.89000010
   14.01583290  120.28700256    4.90999985    2.91000009
   14.01999950  117.66300201    4.90999985    2.91000009
   14.02333355  122.87899780    4.90999985    2.91000009
   14.02638817  124.00700378    4.90999985    2.91000009
   14.02972221  123.04799652    4.90999985    2.93000007
   14.03305531  122.48400116    4.90999985    2.93000007
   14.03611183  117.45899963    4.90999985    2.91000009
   14.03944492  123.26300049    4.90999985    2.91000009
   14.04250050  118.07800293    4.90999985    2.89000010
   14.04500008  118.91600037    4.90999985    2.91000009
   14.04611111  119.54599762    4.90999985    2.91000009
   14.04944515  118.01499939    4.90999985    2.91000009
   14.05277824  123.88099670    4.90999985    2.91000009
   14.05861092  123.88099670    4.90999985    2.93000007
   14.06277752  115.79399872    4.90999985    2.91000009
   14.06611156  121.36000061    4.90999985    2.91000009
   14.06944466  121.72299957    4.90999985    2.93000007
   14.07250023  127.64700317    4.90999985    2.91000009
   14.07583332  118.68699646    4.90999985    2.93000007
   14.07833290  120.62699890    4.90999985    2.91000009
   14.07944393  119.54599762    4.90999985    2.91000009
   14.08277798  117.50900269    4.90999985    2.91000009
   14.08611107  120.16899872    4.90999985    2.91000009
   14.08916664  120.50099945    4.90999985    2.91000009
   14.09249973  119.92600250    4.90999985    2.93000007
   14.09555531  119.82099915    4.90999985    2.93000007
   14.10166740  119.82099915    4.90999985    2.91000009
   14.10583401  116.87100220    4.90999985    2.91000009
   14.10888958  125.35199738    4.90999985    2.91000009
   14.11166668  118.09500122    4.90999985    2.93000007
   14.11250019  123.39800262    4.90999985    2.93000007
   14.11583328  122.64900208    4.90999985    2.91000009
   14.11916637  117.95400238    4.90999985    2.91000009
   14.12222195  122.98200226    4.90999985    2.91000009
   14.12555599  120.25700378    4.90999985    2.91000009
   14.12861156  119.40200043    4.90999985    2.93000007
   14.13194466  116.70099640    4.90999985    2.93000007
   14.13527775  121.32599640    4.90999985    2.93000007
   14.13833332  122.66699982    4.90999985    2.91000009
   14.14444447  122.66699982    4.90999985    2.91000009
   14.16277695  113.26000214    4.90999985    2.93000007
   14.16611099  125.00599670    4.90999985    2.91000009
   14.16916656  114.30699921    4.90999985    2.91000009
   14.17250061  121.80599976    4.90999985    2.93000007
   14.17583370  114.58300018    4.90999985    2.93000007
   14.17888927  126.42199707    4.90999985    2.91000009
   14.18222237  121.94799805    4.90999985    2.93000007
   14.18750000  121.94799805    4.90999985    2.91000009
   14.19166660  114.12699890    4.90999985    2.91000009
   14.19499969  116.58000183    4.90999985    2.91000009
   14.19583321  121.65200043    4.90999985    2.93000007
   14.19861126  120.76100159    4.90999985    2.93000007
   14.20166683  122.97200012    4.90999985    2.91000009
   14.20499992  119.96700287    4.90999985    2.93000007
   14.20833302  126.06400299    4.90999985    2.93000007
   14.21138859  125.74600220    4.90999985    2.91000009
   14.21472168  124.80799866    4.90999985    2.91000009
   14.21777725  119.76599884    4.90999985    2.93000007
   14.22111034  121.58699799    4.90999985    2.91000009
   14.22444439  125.23100281    4.90999985    2.93000007
   14.23027706  125.23100281    4.90999985    2.93000007
   14.23444462  120.93399811    4.90999985    2.93000007
   14.23777771  118.87000275    4.90999985    2.93000007
   14.24083328  122.16699982    4.90999985    2.91000009
   14.24416733  124.84500122    4.90999985    2.93000007
   14.24750042  121.84100342    4.90999985    2.93000007
   14.25083351  118.45300293    4.90999985    2.93000007
   14.25388908  122.99700165    4.90999985    2.93000007
   14.25722218  123.41000366    4.90999985    2.91000009
   14.26027775  124.28299713    4.90999985    2.91000009
   14.26249981  121.05999756    4.90999985    2.91000009
   14.26416683  122.82099915    4.90999985    2.91000009
   14.26722240  117.32900238    4.90999985    2.93000007
   14.27333355  117.32900238    4.90999985    2.93000007
   14.27722168  120.38099670    4.90999985    2.94000006
   14.28055573  120.79799652    4.90999985    2.93000007
   14.28388977  124.19999695    4.90999985    2.93000007
   14.28694534  123.36000061    4.90999985    2.93000007
   14.29027843  121.26899719    4.90999985    2.93000007
   14.29361153  124.40000153    4.90999985    2.93000007
   14.29583359  129.33900452    4.90999985    2.93000007
   14.29722309  122.12400055    4.90999985    2.93000007
   14.30027771  119.57299805    4.90999985    2.93000007
   14.30361176  125.43800354    4.90999985    2.91000009
   14.30694485  116.95200348    4.90999985    2.93000007
   14.31000042  122.85600281    4.90999985    2.93000007
   14.31611156  122.85600281    4.90999985    2.93000007
   14.32027817  124.79599762    4.90999985    2.93000007
   14.32333374  119.77899933    4.90999985    2.93000007
   14.32666683  120.59899902    4.90999985    2.93000007
   14.32916641  114.96499634    4.90999985    2.93000007
   14.33027744  125.79199982    4.90999985    2.93000007
   14.33333302  122.66400146    4.90999985    2.93000007
   14.33666611  119.77400208    4.90999985    2.93000007
   14.34000015  120.91300201    4.90999985    2.93000007
   14.34305477  126.72499847    4.90999985    2.94000006
   14.34638882  123.43900299    4.90999985    2.93000007
   14.34972191  122.48600006    4.90999985    2.93000007
   14.35277843  118.03900146    4.90999985    2.93000007
   14.35888958  118.03900146    4.90999985    2.93000007
   14.36305618  124.36399841    4.90999985    2.91000009
   14.36638927  115.58000183    4.90999985    2.93000007
   14.36944485  127.52600098    4.90999985    2.93000007
   14.37277794  124.17900085    4.90999985    2.93000007
   14.37583351  121.14299774    4.90999985    2.94000006
   14.37916660  117.96800232    4.90999985    2.93000007
   14.38249969  123.24800110    4.90999985    2.94000006
   14.38555527  123.53099823    4.90999985    2.93000007
   14.38888836  121.19699860    4.90999985    2.93000007
   14.39222240  119.96700287    4.90999985    2.93000007
   14.39527798  119.81999969    4.90999985    2.93000007
   14.39583302  118.22899628    4.90999985    2.93000007
   14.40166664  118.22899628    4.90999985    2.93000007
   14.40583324  115.26999664    4.90999985    2.93000007
   14.40916634  123.50299835    4.90999985    2.94000006
   14.41222191  123.95899963    4.90999985    2.93000007
   14.41555500  118.46199799    4.90999985    2.93000007
   14.41888905  127.80699921    4.90999985    2.93000007
   14.42194462  117.49900055    4.90999985    2.93000007
   14.42527771  126.96399689    4.90999985    2.93000007
   14.42861176  118.83599854    4.90999985    2.93000007
   14.42916679  122.62500000    4.90999985    2.94000006
   14.43222237  128.82899475    4.90999985    2.93000007
   14.43527794  123.30699921    4.90999985    2.93000007
   14.43861103  125.96099854    4.90999985    2.93000007
   14.44472218  125.96099854    4.90999985    2.93000007
   14.44861126  129.03100586    4.90999985    2.93000007
   14.45194435  126.79900360    4.90999985    2.93000007
   14.45527744  124.09500122    4.90999985    2.93000007
   14.45833302  123.93599701    4.90999985    2.93000007
   14.46166611  128.40600586    4.90999985    2.93000007
   14.46249962  119.48699951    4.90999985    2.93000007
   14.46527767  121.14900208    4.90999985    2.93000007
   14.46833324  122.24700165    4.90999985    2.93000007
   14.47166634  121.91999817    4.90999985    2.93000007
   14.47499943  127.18000031    4.90999985    2.93000007
   14.47805500  122.80100250    4.90999985    2.93000007
   14.48138809  125.67800140    4.90999985    2.94000006
   14.48750019  125.67800140    4.90999985    2.94000006
   14.49166679  123.65599823    4.90999985    2.93000007
   14.49472237  110.76100159    4.90999985    2.93000007
   14.49583340  126.34700012    4.90999985    2.93000007
   14.49861145  116.82099915    4.90999985    2.93000007
   14.50194454  122.62899780    4.90999985    2.93000007
   14.50500011  118.68699646    4.90999985    2.93000007
   14.50833321  121.26399994    4.90999985    2.94000006
   14.51138878  125.31999969    4.90999985    2.94000006
   14.51472187  116.71700287    4.90999985    2.94000006
   14.51805496  120.37400055    4.90999985    2.93000007
   14.52111053  122.34899902    4.90999985    2.93000007
   14.52444458  123.84600067    4.90999985    2.93000007
   14.53027725  123.84600067    4.90999985    2.93000007
   14.53444481  119.17199707    4.90999985    2.93000007
   14.53750038  119.63500214    4.90999985    2.94000006
   14.54083347  115.23799896    4.90999985    2.93000007
   14.54416752  119.75499725    4.90999985    2.93000007
   14.54722309  123.91100311    4.90999985    2.93000007
   14.55055618  124.61299896    4.90999985    2.93000007
   14.55388927  121.56800079    4.90999985    2.94000006
   14.55694485  116.45800018    4.90999985    2.94000006
   14.56027794  118.36199951    4.90999985    2.94000006
   14.56250000  120.62400055    4.90999985    2.93000007
   14.56388950  121.92299652    4.90999985    2.94000006
   14.56722260  123.18699646    4.90999985    2.93000007
   14.57305527  123.18699646    4.90999985    2.93000007
   14.57722187  121.56800079    4.90999985    2.93000007
   14.58055592  118.22200012    4.90999985    2.94000006
   14.58361053  119.19599915    4.90999985    2.93000007
   14.58694458  120.12699890    4.90999985    2.93000007
   14.59027767  117.87500000    4.90999985    2.93000007
   14.59333324  118.81400299    4.90999985    2.93000007
   14.59583282  121.59899902    4.90999985    2.93000007
   14.59694386  120.49500275    4.90999985    2.93000007
   14.60027790  117.15399933    4.90999985    2.94000006
   14.60333347  119.42600250    4.90999985    2.93000007
   14.60666752  123.66000366    4.90999985    2.94000006
   14.60972214  118.92600250    4.90999985    2.93000007
   14.61611176  118.92600250    4.90999985    2.93000007
   14.61999989  124.04799652    4.90999985    2.93000007
   14.62333393  117.50099945    4.90999985    2.94000006
   14.62666702  129.27799988    4.90999985    2.94000006
   14.62916660  117.16300201    4.90999985    2.94000006
   14.63027763  119.99600220    4.90999985    2.94000006
   14.63361073  126.98500061    4.90999985    2.94000006
   14.63666630  122.43599701    4.90999985    2.94000006
   14.64000034  115.79499817    4.90999985    2.93000007
   14.64305496  119.61199951    4.90999985    2.93000007
   14.64638901  122.20200348    4.90999985    2.94000006
   14.64972210  114.46800232    4.90999985    2.93000007
   14.65277767  123.11399841    4.90999985    2.94000006
   14.65888882  123.11399841    4.90999985    2.94000006
   14.66305542  107.79699707    4.90999985    2.94000006
   14.66611099  121.18800354    4.90999985    2.94000006
   14.66944504  118.96800232    4.90999985    2.94000006
   14.67277813  121.19699860    4.90999985    2.93000007
   14.67583370  122.14700317    4.90999985    2.93000007
   14.67916679  119.93499756    4.90999985    2.93000007
   14.68222237  122.59700012    4.90999985    2.94000006
   14.68555546  115.06800079    4.90999985    2.94000006
   14.68888855  116.58300018    4.90999985    2.94000006
   14.69194412  116.77899933    4.90999985    2.94000006
   14.69527817  118.73999786    4.90999985    2.94000006
   14.69583321  121.81800079    4.90999985    2.94000006
   14.70166683  121.81800079    4.90999985    2.94000006
   14.70583344  118.88099670    4.90999985    2.93000007
   14.70888901  114.80699921    4.90999985    2.94000006
   14.71222210  127.34200287    4.90999985    2.94000006
   14.71555519  118.87300110    4.90999985    2.94000006
   14.71861076  127.82900238    4.90999985    2.93000007
   14.72194386  120.48300171    4.90999985    2.93000007
   14.72527695  122.41799927    4.90999985    2.94000006
   14.72833252  123.64299774    4.90999985    2.94000006
   14.72916603  123.44100189    4.90999985    2.94000006
   14.73194408  125.34400177    4.90999985    2.94000006
   14.73527813  119.58999634    4.90999985    2.93000007
   14.73833370  119.53700256    4.90999985    2.94000006
   14.74444485  119.53700256    4.90999985    2.94000006
   14.74861145  121.97399902    4.90999985    2.94000006
   14.75194454  130.11799622    4.90999985    2.93000007
   14.75500011  121.55100250    4.90999985    2.94000006
   14.75833321  123.98600006    4.90999985    2.94000006
   14.76166630  120.03199768    4.90999985    2.94000006
   14.76249981  123.79299927    4.90999985    2.94000006
   14.76527786  120.77300262    4.90999985    2.94000006
   14.76861095  121.33000183    4.90999985    2.94000006
   14.77166653  122.78099823    4.90999985    2.94000006
   14.77499962  116.66300201    4.90999985    2.94000006
   14.77833271  121.35199738    4.90999985    2.93000007
   14.78138828  123.32800293    4.90999985    2.94000006
   14.78722286  123.32800293    4.90999985    2.94000006
   14.79138947  122.47399902    4.90999985    2.94000006
   14.79472256  123.49800110    4.90999985    2.94000006
   14.79583359  117.79100037    4.90999985    2.94000006
   14.79833412  132.91499329    4.90999985    2.94000006
   14.80166721  117.56700134    4.90999985    2.94000006
   14.80472279  119.76200104    4.90999985    2.94000006
   14.80805588  116.37599945    4.90999985    2.94000006
   14.81138897  120.65699768    4.90999985    2.94000006
   14.81444454  120.87599945    4.90999985    2.94000006
   14.81777763  116.95200348    4.90999985    2.94000006
   14.82083321  123.61499786    4.90999985    2.94000006
   14.82416630  122.58999634    4.90999985    2.94000006
   14.83027744  122.58999634    4.90999985    2.94000006
   14.83444405  119.34600067    4.90999985    2.94000006
   14.83749962  116.80100250    4.90999985    2.94000006
   14.84083271  119.24900055    4.90999985    2.96000004
   14.84388828  118.80500031    4.90999985    2.94000006
   14.84722233  115.19899750    4.90999985    2.96000004
   14.85055637  123.68699646    4.90999985    2.93000007
   14.85361195  118.03900146    4.90999985    2.94000006
   14.85694504  122.10600281    4.90999985    2.94000006
   14.86027813  122.68499756    4.90999985    2.93000007
   14.86250019  116.78500366    4.90999985    2.94000006
   14.86388969  120.87799835    4.90999985    2.94000006
   14.86722279  117.31099701    4.90999985    2.94000006
   14.87305546  117.31099701    4.90999985    2.94000006
   14.87722206  117.53099823    4.90999985    2.93000007
   14.88027763  118.93599701    4.90999985    2.94000006
   14.88361073  114.05999756    4.90999985    2.94000006
   14.88694477  116.57599640    4.90999985    2.94000006
   14.89000034  115.66100311    4.90999985    2.94000006
   14.89333344  118.55699921    4.90999985    2.94000006
   14.89583302  117.98000336    4.90999985    2.94000006
   14.89694405  121.70200348    4.90999985    2.94000006
   14.90027714  123.79199982    4.90999985    2.94000006
   14.90333271  123.52400208    4.90999985    2.94000006
   14.90666676  126.88400269    4.90999985    2.94000006
   14.90999985  123.05100250    4.90999985    2.94000006
   14.91583252  123.05100250    4.90999985    2.94000006
   14.92000008  117.33100128    4.90999985    2.94000006
   14.92333412  123.14099884    4.90999985    2.94000006
   14.92638874  116.15499878    4.90999985    2.94000006
   14.92916679  115.16500092    4.90999985    2.96000004
   14.93000031  114.11699677    4.90999985    2.96000004
   14.93333340  119.50499725    4.90999985    2.94000006
   14.93638897  122.63700104    4.90999985    2.94000006
   14.93972206  115.26699829    4.90999985    2.94000006
   14.94305515  119.52799988    4.90999985    2.94000006
   14.94611073  123.73300171    4.90999985    2.94000006
   14.94944477  116.90399933    4.90999985    2.94000006
   14.95249939  119.85299683    4.90999985    2.94000006
   14.95861053  119.85299683    4.90999985    2.94000006
   14.96277714  121.34300232    4.90999985    2.94000006
   14.96611118  125.71499634    4.90999985    2.94000006
   14.96944427  124.39800262    4.90999985    2.94000006
   14.97249985  129.37800598    4.90999985    2.94000006
   14.97583294  125.17500305    4.90999985    2.94000006
   14.97888851  124.18000031    4.90999985    2.94000006
   14.98222160  122.36799622    4.90999985    2.94000006
   14.98555565  121.11699677    4.90999985    2.94000006
   14.98861122  124.04699707    4.90999985    2.94000006
   14.99194431  125.19400024    4.90999985    2.94000006
   14.99527836  124.26999664    4.90999985    2.94000006
   14.99583340  120.50499725    4.90999985    2.94000006
   15.00166702  120.50499725    4.90999985    2.94000006
   15.00583363  120.54599762    4.90999985    2.94000006
   15.00888920  120.53099823    4.90999985    2.94000006
   15.01222229  117.95400238    4.90999985    2.94000006
   15.01527786  121.68499756    4.90999985    2.94000006
   15.01861095  124.09999847    4.90999985    2.94000006
   15.02194405  126.50499725    4.90999985    2.94000006
   15.02527714  126.24099731    4.90999985    2.94000006
   15.02833271  122.54599762    4.90999985    2.94000006
   15.02916622  122.38999939    4.90999985    2.94000006
   15.03194427  121.74900055    4.90999985    2.94000006
   15.03527832  125.84100342    4.90999985    2.94000006
   15.03833389  127.30100250    4.90999985    2.94000006
   15.04444504  127.30100250    4.90999985    2.94000006
   15.04861164  128.42500305    4.90999985    2.94000006
   15.05166721  117.72200012    4.90999985    2.94000006
   15.15361118   -1.00000000   -1.00000000   -1.00000000
   15.32805538   -1.00000000   -1.00000000   -1.00000000
   15.54083347   -1.00000000   -1.00000000   -1.00000000
   15.74277782   85.54949951    4.90999985    2.96000004
   15.74583340  127.81600189    4.90999985    2.96000004
   15.74916649  129.82499695    4.90999985    2.96000004
   15.75222206  130.91299438    4.90999985    2.96000004
   15.75555515  129.72399902    4.90999985    2.98000002
   15.75888920  126.93399811    4.90999985    2.96000004
   15.76305580  126.93399811    4.90999985    2.96000004
   15.76694393  129.96600342    4.90999985    2.96000004
   15.77027798  123.99500275    4.90999985    2.96000004
   15.77361107  130.51300049    4.90999985    2.96000004
   15.77611065  124.67400360    4.90999985    2.98000002
   15.77722168  126.09799957    4.90999985    2.96000004
   15.78055573  128.82800293    4.90999985    2.96000004
   15.78361130  130.90800476    4.90999985    2.96000004
   15.78694534  127.78500366    4.90999985    2.98000002
   15.79027843  132.75900269    4.90999985    2.98000002
   15.79333401  130.62199402    4.90999985    2.96000004
   15.79666710  126.04199982    4.90999985    2.94000006
   15.80000019  126.66500092    4.90999985    2.96000004
   15.80583382  126.66500092    4.90999985    2.96000004
   15.81000042  118.02300262    4.90999985    2.96000004
   15.81305599  123.35600281    4.90999985    2.96000004
   15.81638908  128.22500610    4.90999985    2.96000004
   15.81972218  124.53199768    4.90999985    2.96000004
   15.82277775  120.85900116    4.90999985    2.96000004
   15.82611084  135.73899841    4.90999985    2.96000004
   15.82916641  122.82099915    4.90999985    2.96000004
   15.83249950  126.29599762    4.90999985    2.96000004
   15.83583260  122.70500183    4.90999985    2.96000004
   15.83888817  126.72299957    4.90999985    2.96000004
   15.84222221  124.74400330    4.90999985    2.96000004
   15.84277725  124.87400055    4.90999985    2.98000002
   15.84861088  124.87400055    4.90999985    2.96000004
   15.85277843  128.76800537    4.90999985    2.96000004
   15.85611153  122.07099915    4.90999985    2.96000004
   15.85916710  128.64599609    4.90999985    2.96000004
   15.86250019  119.12599945    4.90999985    2.98000002
   15.86555576  122.34700012    4.90999985    2.96000004
   15.86888885  127.83899689    4.90999985    2.96000004
   15.87222195  123.38300323    4.90999985    2.96000004
   15.87527752  120.77100372    4.90999985    2.96000004
   15.87611103  120.64600372    4.90999985    2.96000004
   15.87916660  124.00800323    4.90999985    2.96000004
   15.88222218  125.79199982    4.90999985    2.96000004
   15.88555527  124.09999847    4.90999985    2.96000004
   15.89138889  124.09999847    4.90999985    2.98000002
   15.89555550  127.79499817    4.90999985    2.94000006
   15.89888859  121.30100250    4.90999985    2.96000004
   15.90194416  129.61199951    4.90999985    2.98000002
   15.90527725  126.96800232    4.90999985    2.96000004
   15.90861034  126.85600281    4.90999985    2.96000004
   15.90944386  125.27100372    4.90999985    2.96000004
   15.91222191  123.08599854    4.90999985    2.96000004
   15.91527748  134.39199829    4.90999985    2.96000004
   15.91861153  126.49500275    4.90999985    2.96000004
   15.92166710  126.53900146    4.90999985    2.96000004
   15.92500019  124.58799744    4.90999985    2.96000004
   15.92833328  129.78900146    4.90999985    2.96000004
   15.93444443  129.78900146    4.90999985    2.98000002
   15.93833351  130.42199707    4.90999985    2.96000004
   15.94166660  115.65599823    4.90999985    2.96000004
   15.94277763  122.05899811    4.90999985    2.96000004
   15.94555569  126.97299957    4.90999985    2.96000004
   15.94861126  126.00900269    4.90999985    2.96000004
   15.95194435  120.03900146    4.90999985    2.96000004
   15.95499992  128.97399902    4.90999985    2.96000004
   15.95833302  126.73899841    4.90999985    2.96000004
   15.96166611  121.39700317    4.90999985    2.96000004
   15.96472168  124.88200378    4.90999985    2.98000002
   15.96805477  121.85600281    4.90999985    2.96000004
   15.97138882  122.62799835    4.90999985    2.98000002
   15.97722149  122.62799835    4.90999985    2.98000002
   15.98138809  123.63600159    4.90999985    2.94000006
   15.98444462  120.23899841    4.90999985    2.96000004
   15.98777771  118.19999695    4.90999985    2.98000002
   15.99111176  122.48400116    4.90999985    2.94000006
   15.99416733  112.93000031    4.90999985    2.96000004
   15.99750042  118.85099792    4.90999985    2.96000004
   16.00055504  109.76899719    4.90999985    2.96000004
   16.00388908  114.81700134    4.90999985    2.98000002
   16.00722313  116.63099670    4.90999985    2.98000002
   16.00944519  117.73999786    4.90999985    2.96000004
   16.01083374  120.76499939    4.90999985    2.96000004
   16.01388931  119.22599792    4.90999985    2.98000002
   16.02000046  119.22599792    4.90999985    2.94000006
   16.02416611  114.49199677    4.90999985    2.96000004
   16.02750015  115.16100311    4.90999985    2.96000004
   16.03055573  121.91999817    4.90999985    2.96000004
   16.03388786  116.47899628    4.90999985    2.98000002
   16.03694344  121.90399933    4.90999985    2.96000004
   16.04027748  117.19300079    4.90999985    2.96000004
   16.04277802  119.32599640    4.90999985    2.96000004
   16.04416656  118.95300293    4.90999985    2.96000004
   16.04722214  127.51100159    4.90999985    2.96000004
   16.05055428  125.42500305    4.90999985    2.98000002
   16.05360985  127.31500244    4.90999985    2.96000004
   16.05694389  125.53700256    4.90999985    2.96000004
   16.06277657  125.53700256    4.90999985    2.94000006
   16.06694603  124.23600006    4.90999985    2.96000004
   16.07027817  124.47200012    4.90999985    2.96000004
   16.07333374  133.20899963    4.90999985    2.98000002
   16.07611275  130.50199890    4.90999985    2.96000004
   16.07722282  127.81400299    4.90999985    2.96000004
   16.08027840  127.49900055    4.90999985    2.96000004
   16.08361244  127.10199738    4.90999985    2.96000004
   16.08666801  124.51300049    4.90999985    2.96000004
   16.09000015  116.13899994    4.90999985    2.94000006
   16.09333420  127.21099854    4.90999985    2.96000004
   16.09638977  135.22300720    4.90999985    2.96000004
   16.09972191  127.77899933    4.90999985    2.96000004
   16.10583305  127.77899933    4.90999985    2.96000004
   16.10972214  121.58699799    4.90999985    2.96000004
   16.11305618  120.15000153    4.90999985    2.96000004
   16.11638832  122.81999969    4.90999985    2.94000006
   16.11944389  120.21399689    4.90999985    2.96000004
   16.12277794  116.60199738    4.90999985    2.96000004
   16.12611198  123.85700226    4.90999985    2.96000004
   16.12916756  118.34200287    4.90999985    2.96000004
   16.13249969  120.47499847    4.90999985    2.96000004
   16.13555527  114.94799805    4.90999985    2.96000004
   16.13888931  120.99299622    4.90999985    2.96000004
   16.14222145  123.53700256    4.90999985    2.96000004
   16.14277840  113.11199951    4.90999985    2.96000004
   16.14861107  113.11199951    4.90999985    2.96000004
   16.15277672  112.73899841    4.90999985    2.96000004
   16.15583229  121.12400055    4.90999985    2.98000002
   16.15916634  123.93000031    4.90999985    2.98000002
   16.16250038  124.19300079    4.90999985    2.96000004
   16.16555595  120.28399658    4.90999985    2.96000004
   16.16888809  120.21499634    4.90999985    2.98000002
   16.17222214  112.49400330    4.90999985    2.96000004
   16.17527771  114.74199677    4.90999985    2.96000004
   16.17611122  120.59700012    4.90999985    2.96000004
   16.17916679  110.96399689    4.90999985    2.96000004
   16.18222237  124.31099701    4.90999985    2.96000004
   16.18555450  118.68199921    4.90999985    2.96000004
   16.19138718  118.68199921    4.90999985    2.96000004
   16.19555473  122.73100281    4.90999985    2.96000004
   16.19888878  117.25399780    4.90999985    2.98000002
   16.20194435  115.17800140    4.90999985    2.96000004
   16.20527840  115.13800049    4.90999985    2.96000004
   16.20833397  115.83499908    4.90999985    2.98000002
   16.20944595  113.75599670    4.90999985    2.96000004
   16.21222305  122.02600098    4.90999985    2.98000002
   16.21527863  123.68099976    4.90999985    2.98000002
   16.21861076  114.49299622    4.90999985    2.98000002
   16.22194481  124.44000244    4.90999985    2.98000002
   16.22500038  119.93399811    4.90999985    2.96000004
   16.22833443  120.74099731    4.90999985    2.98000002
   16.23416710  120.74099731    4.90999985    2.98000002
   16.23833275  127.78399658    4.90999985    2.98000002
   16.24166679  127.87400055    4.90999985    2.96000004
   16.24277878  122.22799683    4.90999985    2.96000004
   16.24527740  127.52400208    4.90999985    2.96000004
   16.24833298  125.83200073    4.90999985    2.96000004
   16.25166702  121.70300293    4.90999985    2.98000002
   16.25499916  126.65499878    4.90999985    2.96000004
   16.25805473  136.94999695    4.90999985    2.96000004
   16.26138878  119.07199860    4.90999985    2.98000002
   16.26472282  121.13700104    4.90999985    2.98000002
   16.26777840  121.26100159    4.90999985    2.96000004
   16.27111053  140.28599548    4.90999985    2.96000004
   16.27694511  140.28599548    4.90999985    2.96000004
   16.28111076  121.28600311    4.90999985    2.96000004
   16.28444481  115.28800201    4.90999985    2.96000004
   16.28750038  124.99900055    4.90999985    2.96000004
   16.29083252  127.30799866    4.90999985    2.96000004
   16.29416656  130.91999817    4.90999985    2.96000004
   16.29722214  124.72399902    4.90999985    2.96000004
   16.30055428  130.07600403    4.90999985    2.96000004
   16.30388832  124.09500122    4.90999985    2.96000004
   16.30694389  126.40000153    4.90999985    2.96000004
   16.30944443  127.58799744    4.90999985    2.96000004
   16.31083298  123.73799896    4.90999985    2.96000004
   16.31388855  129.05400085    4.90999985    2.98000002
   16.32000160  129.05400085    4.90999985    2.98000002
   16.32389069  115.46800232    4.90999985    2.96000004
   16.32722282  125.05000305    4.90999985    2.98000002
   16.33055687  121.91300201    4.90999985    2.98000002
   16.33361244  115.95300293    4.90999985    2.96000004
   16.33694458  119.30000305    4.90999985    2.96000004
   16.34027863  110.84999847    4.90999985    2.98000002
   16.34277916  119.86100006    4.90999985    2.98000002
   16.34388924  121.47399902    4.90999985    2.96000004
   16.34694481  120.48500061    4.90999985    2.96000004
   16.35027885  123.03199768    4.90999985    2.96000004
   16.35333443  120.94400024    4.90999985    2.96000004
   16.35666656  120.26999664    4.90999985    2.98000002
   16.36277771  120.26999664    4.90999985    2.98000002
   16.36694527  107.83100128    4.90999985    2.96000004
   16.37000084  118.15899658    4.90999985    2.96000004
   16.37333298  125.34999847    4.90999985    2.96000004
   16.37611198  115.32599640    4.90999985    2.96000004
   16.37694550  115.36000061    4.90999985    2.96000004
   16.38000107  117.43599701    4.90999985    2.96000004
   16.38333321  119.41300201    4.90999985    2.96000004
   16.38666725  121.96099854    4.90999985    2.96000004
   16.38972282  119.55200195    4.90999985    2.98000002
   16.39305496  129.83599854    4.90999985    2.96000004
   16.39611053  126.05899811    4.90999985    2.96000004
   16.39944458  122.72799683    4.90999985    2.96000004
   16.40555573  122.72799683    4.90999985    2.96000004
   16.40972137  123.63300323    4.90999985    2.96000004
   16.41305542  123.18399811    4.90999985    2.98000002
   16.41611099  121.73300171    4.90999985    2.96000004
   16.41944313  115.16000366    4.90999985    2.98000002
   16.42277718  119.05300140    4.90999985    2.96000004
   16.42583275  116.39700317    4.90999985    2.98000002
   16.42916679  114.15399933    4.90999985    2.96000004
   16.43222237  113.39900208    4.90999985    2.96000004
   16.43555450  115.40799713    4.90999985    2.96000004
   16.43888855  109.21900177    4.90999985    2.96000004
   16.44194412  118.43299866    4.90999985    2.96000004
   16.44277763  116.30100250    4.90999985    2.96000004
   16.44833183  116.30100250    4.90999985    2.96000004
   16.45250130  122.21600342    4.90999985    2.96000004
   16.45583344  118.90399933    4.90999985    2.96000004
   16.45916748  119.27899933    4.90999985    2.96000004
   16.46222305  125.16699982    4.90999985    2.94000006
   16.46555710  122.29900360    4.90999985    2.96000004
   16.46861076  124.23799896    4.90999985    2.94000006
   16.47194481  123.94100189    4.90999985    2.98000002
   16.47527885  116.70400238    4.90999985    2.96000004
   16.47611237  120.53900146    4.90999985    2.96000004
   16.47888947  122.31800079    4.90999985    2.96000004
   16.48194504  123.07700348    4.90999985    2.96000004
   16.48527718  122.37899780    4.90999985    2.96000004
   16.49138832  122.37899780    4.90999985    2.96000004
   16.49555588  119.80500031    4.90999985    2.96000004
   16.49861145  122.03900146    4.90999985    2.96000004
   16.50194359  116.72899628    4.90999985    2.96000004
   16.50499916  116.80599976    4.90999985    2.98000002
   16.50833321  120.85600281    4.90999985    2.96000004
   16.50944519  117.23999786    4.90999985    2.96000004
   16.51194382  122.38300323    4.90999985    2.96000004
   16.51499939  121.05500031    4.90999985    2.98000002
   16.51833344  122.96499634    4.90999985    2.96000004
   16.52166557  118.11299896    4.90999985    2.96000004
   16.52472115  120.82399750    4.90999985    2.96000004
   16.52805519  127.05500031    4.90999985    2.96000004
   16.53416634  127.05500031    4.90999985    2.96000004
   16.53833199  124.34500122    4.90999985    2.98000002
   16.54138756  120.49600220    4.90999985    2.96000004
   16.54277802  118.28299713    4.90999985    2.98000002
   16.54527664  114.72100067    4.90999985    2.96000004
   16.54833221  123.68900299    4.90999985    2.96000004
   16.55166626  119.64399719    4.90999985    2.96000004
   16.55499840  118.83300018    4.90999985    2.96000004
   16.55805397  120.54100037    4.90999985    2.96000004
   16.56138802  120.69999695    4.90999985    2.96000004
   16.56472206  112.51399994    4.90999985    2.96000004
   16.56777954  116.11599731    4.90999985    2.96000004
   16.57111168  118.98300171    4.90999985    2.98000002
   16.57694626  118.98300171    4.90999985    2.98000002
   16.58111191  112.81600189    4.90999985    2.96000004
   16.58444595  120.75599670    4.90999985    2.96000004
   16.58750153  112.35299683    4.90999985    2.96000004
   16.59083366  118.80799866    4.90999985    2.98000002
   16.59416771  115.72299957    4.90999985    2.98000002
   16.59722328  119.08799744    4.90999985    2.98000002
   16.60055542  113.46299744    4.90999985    2.98000002
   16.60361099  116.77799988    4.90999985    2.98000002
   16.60694504  119.31199646    4.90999985    2.98000002
   16.60944557  119.49700165    4.90999985    2.98000002
   16.61055565  117.33699799    4.90999985    2.98000002
   16.61361122  118.26599884    4.90999985    2.98000002
   16.61972237  118.26599884    4.90999985    2.96000004
   16.62388992  114.74500275    4.90999985    2.96000004
   16.62722206  109.21700287    4.90999985    2.96000004
   16.63027763  117.69899750    4.90999985    2.98000002
   16.63361168  116.18900299    4.90999985    2.96000004
   16.63694382  124.30899811    4.90999985    2.96000004
   16.63999939  118.19899750    4.90999985    2.98000002
   16.64277840  119.94300079    4.90999985    2.98000002
   16.64388847  122.14099884    4.90999985    2.96000004
   16.64694405  113.00499725    4.90999985    2.98000002
   16.65027809  123.23999786    4.90999985    2.96000004
   16.65361023  114.65100098    4.90999985    2.96000004
   16.65666580  116.44200134    4.90999985    2.98000002
   16.66277695  116.44200134    4.90999985    2.96000004
   16.66666603  118.76499939    4.90999985    2.96000004
   16.67000008  118.76100159    4.90999985    2.96000004
   16.67333221  115.58000183    4.90999985    2.96000004
   16.67611122  117.07599640    4.90999985    2.96000004
   16.67694473  116.29299927    4.90999985    2.98000002
   16.68000031  116.86299896    4.90999985    2.98000002
   16.68333244  119.73300171    4.90999985    2.96000004
   16.68666649  120.76100159    4.90999985    2.98000002
   16.68972206  117.81700134    4.90999985    2.96000004
   16.69305420  126.78500366    4.90999985    2.96000004
   16.69638824  119.63899994    4.90999985    2.96000004
   16.69944382  121.75900269    4.90999985    2.96000004
   16.70555687  121.75900269    4.90999985    2.96000004
   16.70972252  116.34500122    4.90999985    2.96000004
   16.71277809  116.66899872    4.90999985    2.96000004
   16.71611214  116.91000366    4.90999985    2.96000004
   16.71944427  118.98899841    4.90999985    2.96000004
   16.72249985  120.49400330    4.90999985    2.96000004
   16.72583389  125.82399750    4.90999985    2.96000004
   16.72888947  121.96199799    4.90999985    2.94000006
   16.73222351  116.39800262    4.90999985    2.96000004
   16.73555565  121.26999664    4.90999985    2.96000004
   16.73861122  118.73200226    4.90999985    2.96000004
   16.74194527  116.94599915    4.90999985    2.96000004
   16.74277878  121.76200104    4.90999985    2.98000002
   16.76361084  121.76200104    4.90999985    2.96000004
   16.76777840  120.17400360    4.90999985    2.98000002
   16.77083397  114.61499786    4.90999985    2.96000004
   16.77416611  116.79699707    4.90999985    2.96000004
   16.77611160  118.69999695    4.90999985    2.96000004
   16.77777672  112.37599945    4.90999985    2.94000006
   16.78111076  115.42800140    4.90999985    2.96000004
   16.78416634  118.53800201    4.90999985    2.96000004
   16.78750038  122.30300140    4.90999985    2.98000002
   16.79055595  121.37500000    4.90999985    2.96000004
   16.79388809  108.53600311    4.90999985    2.96000004
   16.79722214  112.50800323    4.90999985    2.94000006
   16.80027771  112.80799866    4.90999985    2.96000004
   16.80638885  112.80799866    4.90999985    2.96000004
   16.81055450  118.93900299    4.90999985    2.96000004
   16.81361008  123.34400177    4.90999985    2.96000004
   16.81694603  117.87000275    4.90999985    2.96000004
   16.82000160  117.79699707    4.90999985    2.96000004
   16.82333374  115.56199646    4.90999985    2.96000004
   16.82666779  116.66600037    4.90999985    2.96000004
   16.82972336  127.67199707    4.90999985    2.96000004
   16.83305550  114.92400360    4.90999985    2.96000004
   16.83638954  113.16000366    4.90999985    2.96000004
   16.83944511  119.59799957    4.90999985    2.96000004
   16.84277916  124.27999878    4.90999985    2.96000004
   16.84333420  126.59100342    4.90999985    2.96000004
   16.84916687  126.59100342    4.90999985    2.96000004
   16.85333443  122.15100098    4.90999985    2.96000004
   16.85639000  117.55999756    4.90999985    2.96000004
   16.85972214  116.29799652    4.90999985    2.96000004
   16.86305618  111.06199646    4.90999985    2.94000006
   16.86611176  119.99900055    4.90999985    2.94000006
   16.86944389  112.15100098    4.90999985    2.94000006
   16.87277794  116.70899963    4.90999985    2.94000006
   16.87583351  118.53700256    4.90999985    2.94000006
   16.87666702  119.97499847    4.90999985    2.94000006
   16.87944412  149.67100525    4.90999985    2.96000004
   16.88277817  124.58599854    4.90999985    2.94000006
   16.88611031  114.29100037    4.90999985    2.94000006
   16.89194489  114.29100037    4.90999985    2.96000004
   16.89611053  114.36399841    4.90999985    2.96000004
   16.89944458  116.22399902    4.90999985    2.94000006
   16.90250015  118.76399994    4.90999985    2.96000004
   16.90583229  121.76899719    4.90999985    2.96000004
   16.90916634  127.67700195    4.90999985    2.98000002
   16.90999985  121.16000366    4.90999985    2.96000004
   16.91250038  124.17500305    4.90999985    2.96000004
   16.91583252  121.00700378    4.90999985    2.96000004
   16.91916656  119.48799896    4.90999985    2.96000004
   16.92222214  111.01799774    4.90999985    2.94000006
   16.92555428  118.16600037    4.90999985    2.96000004
   16.92888832  123.59600067    4.90999985    2.96000004
   16.93472099  123.59600067    4.90999985    2.96000004
   16.93888855  119.82099915    4.90999985    2.94000006
   16.94222069  124.49800110    4.90999985    2.94000006
   16.94333267  117.20200348    4.90999985    2.94000006
   16.94583321  126.30599976    4.90999985    2.94000006
   16.94916534  118.91999817    4.90999985    2.94000006
   16.95250130  127.45600128    4.90999985    2.94000006
   16.95555687  125.00499725    4.90999985    2.94000006
   16.95888901  121.33100128    4.90999985    2.94000006
   16.96222305  122.28500366    4.90999985    2.94000006
   16.96527863  121.54399872    4.90999985    2.94000006
   16.96861076  130.62300110    4.90999985    2.94000006
   16.97166634  124.36900330    4.90999985    2.94000006
   16.97777748  124.36900330    4.90999985    2.94000006
   16.98194504  121.86199951    4.90999985    2.94000006
   16.98500061  123.57499695    4.90999985    2.94000006
   16.98833275  122.30200195    4.90999985    2.94000006
   16.99138832  126.34999847    4.90999985    2.94000006
   16.99472237  115.92700195    4.90999985    2.94000006
   16.99805641  116.96900177    4.90999985    2.94000006
   17.00111198  126.54900360    4.90999985    2.94000006
   17.00444412  124.02400208    4.90999985    2.94000006
   17.00777817  126.50900269    4.90999985    2.94000006
   17.01000023  125.75499725    4.90999985    2.94000006
   17.01111031  123.02700043    4.90999985    2.94000006
   17.01444435  115.80699921    4.90999985    2.94000006
   17.02055550  115.80699921    4.90999985    2.94000006
   17.02472115  127.67199707    4.90999985    2.93000007
   17.02777672  123.02200317    4.90999985    2.94000006
   17.03111076  117.03800201    4.90999985    2.94000006
   17.03444481  123.97000122    4.90999985    2.94000006
   17.03750038  124.22599792    4.90999985    2.94000006
   17.04083252  116.35299683    4.90999985    2.94000006
   17.04333305  122.59899902    4.90999985    2.94000006
   17.04416656  123.24700165    4.90999985    2.94000006
   17.04749870  128.73899841    4.90999985    2.94000006
   17.05083275  115.07399750    4.90999985    2.94000006
   17.05388832  127.10900116    4.90999985    2.94000006
   17.05722237  126.81999969    4.90999985    2.94000006
   17.06333351  126.81999969    4.90999985    2.94000006
   17.06750107  118.98799896    4.90999985    2.94000006
   17.07083511  117.68800354    4.90999985    2.94000006
   17.07389069  123.04399872    4.90999985    2.94000006
   17.07666779  120.83100128    4.90999985    2.94000006
   17.07777786  122.97499847    4.90999985    2.94000006
   17.08083344  120.74900055    4.90999985    2.94000006
   17.08416748  115.06199646    4.90999985    2.94000006
   17.08722305  125.12400055    4.90999985    2.94000006
   17.09055710  125.30300140    4.90999985    2.94000006
   17.09388924  124.73799896    4.90999985    2.94000006
   17.09694481  118.61100006    4.90999985    2.94000006
   17.10027885  117.03199768    4.90999985    2.94000006
   17.10611153  117.03199768    4.90999985    2.94000006
   17.11027908  129.32800293    4.90999985    2.94000006
   17.11361122  119.65200043    4.90999985    2.96000004
   17.11666679  120.46600342    4.90999985    2.94000006
   17.12000084  127.21600342    4.90999985    2.94000006
   17.12333298  118.27100372    4.90999985    2.94000006
   17.12638855  128.07400513    4.90999985    2.94000006
   17.12972260  124.41000366    4.90999985    2.94000006
   17.13305473  117.92299652    4.90999985    2.94000006
   17.13611031  135.64799500    4.90999985    2.94000006
   17.13944435  128.44700623    4.90999985    2.94000006
   17.14249992  130.87100220    4.90999985    2.96000004
   17.14333344  124.52700043    4.90999985    2.94000006
   17.14916611  124.52700043    4.90999985    2.94000006
   17.15305519  122.30400085    4.90999985    2.94000006
   17.15638924  122.33899689    4.90999985    2.94000006
   17.15972137  117.89199829    4.90999985    2.94000006
   17.16277695  117.55799866    4.90999985    2.94000006
   17.16611099  116.39600372    4.90999985    2.94000006
   17.16944313  117.57800293    4.90999985    2.93000007
   17.17249870  113.54699707    4.90999985    2.94000006
   17.17583275  113.94799805    4.90999985    2.94000006
   17.17666626  110.50299835    4.90999985    2.94000006
   17.17944336  118.23100281    4.90999985    2.94000006
   17.18249893  109.59700012    4.90999985    2.94000006
   17.18583298  119.27300262    4.90999985    2.94000006
   17.19194412  119.27300262    4.90999985    2.94000006
   17.19610977  120.42099762    4.90999985    2.94000006
   17.19916534  119.20899963    4.90999985    2.93000007
   17.20250130  118.58499908    4.90999985    2.94000006
   17.20583344  120.65200043    4.90999985    2.94000006
   17.20888901  117.91899872    4.90999985    2.94000006
   17.21000099  121.37899780    4.90999985    2.94000006
   17.21277809  118.65499878    4.90999985    2.94000006
   17.21583366  120.10099792    4.90999985    2.94000006
   17.21916771  121.01999664    4.90999985    2.94000006
   17.22222328  121.55799866    4.90999985    2.94000006
   17.22555542  119.30699921    4.90999985    2.94000006
   17.22888947  120.76499939    4.90999985    2.94000006
   17.23472214  120.76499939    4.90999985    2.94000006
   17.23888969  118.72699738    4.90999985    2.94000006
   17.24222183  120.98799896    4.90999985    2.94000006
   17.24333382  113.74600220    4.90999985    2.94000006
   17.24583435  116.00599670    4.90999985    2.94000006
   17.24888992  113.92500305    4.90999985    2.94000006
   17.25222206  116.08799744    4.90999985    2.94000006
   17.25527763  118.88800049    4.90999985    2.94000006
   17.25861168  130.15899658    4.90999985    2.94000006
   17.26194382  117.31800079    4.90999985    2.94000006
   17.26527786  118.47100067    4.90999985    2.93000007
   17.26833344  121.96199799    4.90999985    2.93000007
   17.27166557  117.52700043    4.90999985    2.93000007
   17.27750015  117.52700043    4.90999985    2.93000007
   17.28166580  120.13500214    4.90999985    2.94000006
   17.28499985  123.29399872    4.90999985    2.94000006
   17.28805542  120.92099762    4.90999985    2.94000006
   17.29138756  126.79000092    4.90999985    2.93000007
   17.29472160  124.27999878    4.90999985    2.93000007
   17.29777718  121.80699921    4.90999985    2.93000007
   17.30111122  114.90899658    4.90999985    2.93000007
   17.30444336  117.71499634    4.90999985    2.94000006
   17.30749893  121.33599854    4.90999985    2.93000007
   17.30999947  128.90199280    4.90999985    2.93000007
   17.31138802  122.77300262    4.90999985    2.93000007
   17.31444359  118.55699921    4.90999985    2.94000006
   17.32055664  118.55699921    4.90999985    2.93000007
   17.32444572  127.33899689    4.90999985    2.94000006
   17.32777786  117.06199646    4.90999985    2.93000007
   17.33111191  125.59300232    4.90999985    2.93000007
   17.33416748  121.93099976    4.90999985    2.93000007
   17.33750153  115.54399872    4.90999985    2.93000007
   17.34083366  122.69200134    4.90999985    2.93000007
   17.34333420  126.02300262    4.90999985    2.93000007
   17.34444427  125.68900299    4.90999985    2.93000007
   17.34749985  126.28299713    4.90999985    2.94000006
   17.35083389  117.41200256    4.90999985    2.94000006
   17.35416794  109.74800110    4.90999985    2.93000007
   17.35722351  120.14600372    4.90999985    2.93000007
   17.36333466  120.14600372    4.90999985    2.93000007
   17.36750031  123.08100128    4.90999985    2.94000006
   17.37055588  121.28900146    4.90999985    2.93000007
   17.37388992  123.30200195    4.90999985    2.93000007
   17.37666702  122.16699982    4.90999985    2.94000006
   17.37750053  122.38600159    4.90999985    2.94000006
   17.38055611  112.45700073    4.90999985    2.93000007
   17.38388824  116.94899750    4.90999985    2.94000006
   17.38694382  118.84500122    4.90999985    2.94000006
   17.39027786  118.58200073    4.90999985    2.94000006
   17.39361191  113.29399872    4.90999985    2.94000006
   17.39666748  110.01599884    4.90999985    2.93000007
   17.39999962  112.39600372    4.90999985    2.93000007
   17.40611076  112.39600372    4.90999985    2.94000006
   17.41027832  118.53099823    4.90999985    2.93000007
   17.41361046  107.26999664    4.90999985    2.93000007
   17.41666603  121.21800232    4.90999985    2.93000007
   17.42000008  119.50800323    4.90999985    2.94000006
   17.42305565  115.73300171    4.90999985    2.94000006
   17.42638779  117.82599640    4.90999985    2.93000007
   17.42972183  117.83999634    4.90999985    2.94000006
   17.43277740  117.58200073    4.90999985    2.93000007
   17.43610954  121.82199860    4.90999985    2.93000007
   17.43944359  119.72499847    4.90999985    2.93000007
   17.44249916  117.31300354    4.90999985    2.94000006
   17.44333267  121.89600372    4.90999985    2.94000006
   17.44888878  121.89600372    4.90999985    2.94000006
   17.45305634  115.31500244    4.90999985    2.94000006
   17.45639038  109.75000000    4.90999985    2.94000006
   17.45944595  122.20600128    4.90999985    2.94000006
   17.46277809  122.52700043    4.90999985    2.93000007
   17.46611214  116.60099792    4.90999985    2.93000007
   17.46916771  123.87300110    4.90999985    2.93000007
   17.47249985  124.30699921    4.90999985    2.93000007
   17.47583389  122.26200104    4.90999985    2.93000007
   17.47666740  124.95300293    4.90999985    2.93000007
   17.47944450  126.37500000    4.90999985    2.93000007
   17.48250008  119.17099762    4.90999985    2.93000007
   17.48583412  121.99600220    4.90999985    2.93000007
   17.49194527  121.99600220    4.90999985    2.93000007
   17.49583435  126.34400177    4.90999985    2.93000007
   17.49916649  121.71800232    4.90999985    2.93000007
   17.50250053  124.91200256    4.90999985    2.94000006
   17.50555611  122.65599823    4.90999985    2.93000007
   17.50888824  123.04000092    4.90999985    2.93000007
   17.51000023  115.11599731    4.90999985    2.93000007
   17.51250076  120.22000122    4.90999985    2.94000006
   17.51555634  119.93800354    0.30000001    2.42000008
   17.51888847  118.16799927    0.09000000    0.50000000
   17.52222252  121.30100250    0.05000000    0.19000000
   17.52527809  119.73300171    0.05000000    0.19000000
   17.52861023  119.16500092    0.05000000    0.19000000
   17.53472137  119.16500092    0.05000000    0.19000000
   17.53888893  125.88899994    0.05000000    0.19000000
   17.54194450  124.00800323    0.05000000    0.19000000
   17.54333305  128.43899536    0.05000000    0.19000000
   17.54583359  123.11799622    0.05000000    0.19000000
   17.54888916  118.43800354    0.05000000    0.19000000
   17.55222130  125.58100128    0.05000000    0.19000000
   17.55555534  121.84300232    0.05000000    0.19000000
   17.55861092  127.03700256    0.05000000    0.19000000
