    HOUR (UT)   FLARE FACTOR    SKY TESTER    SUN TESTER
   12.02583313   -1.00000000   -1.00000000   -1.00000000
   12.10638905  127.69000244    0.64999998    1.91999996
   12.10972214  148.77600098    0.64999998    1.91999996
   12.11305618  135.59599304    0.64999998    1.91999996
   12.11611176  131.75300598    0.64999998    1.91999996
   12.11944485  163.15299988    0.63000000    1.91999996
   12.12277794  141.78100586    0.63000000    1.91999996
   12.12666702  141.78100586    0.63000000    1.94000006
   12.13083363  162.58999634    0.63000000    1.94000006
   12.13416672  181.04200745    0.63000000    1.94000006
   12.13749981  148.10099792    0.63000000    1.94000006
   12.13972187  159.97999573    0.63000000    1.94000006
   12.14111137  150.12500000    0.63000000    1.94000006
   12.14416695  158.88499451    0.63000000    1.94000006
   12.14750004  137.54400635    0.63000000    1.94000006
   12.15083313  153.03799438    0.63000000    1.96000004
   12.15388870  150.11500549    0.63000000    1.96000004
   12.15722179  140.81500244    0.63000000    1.96000004
   12.16055489  139.69799805    0.63000000    1.96000004
   12.16361046  144.83599854    0.63000000    1.96000004
   12.16972256  144.83599854    0.63000000    1.96000004
   12.17388916  159.98500061    0.61000001    1.98000002
   12.17694473  162.11999512    0.61000001    1.98000002
   12.18027782  151.08599854    0.61000001    1.98000002
   12.18333340  149.17799377    0.61000001    1.98000002
   12.18666649  138.63999939    0.61000001    1.98000002
   12.19000053  154.84199524    0.61000001    1.98000002
   12.19305515  153.48199463    0.61000001    1.98000002
   12.19638920  158.78900146    0.61000001    1.98000002
   12.19972229  167.74499512    0.58999997    2.00000000
   12.20277786  175.68800354    0.58999997    2.00000000
   12.20611095  160.61399841    0.58999997    2.00000000
   12.20666695  144.16799927    0.58999997    2.00000000
   12.21249962  144.16799927    0.58999997    2.00000000
   12.21666622  128.63299561    0.58999997    2.00000000
   12.21972179  148.10000610    0.58999997    2.01999998
   12.22305489  148.11599731    0.61000001    2.01999998
   12.22638798  124.78399658    0.58999997    2.01999998
   12.22944355  114.21700287    0.58999997    2.01999998
   12.23277760  120.20600128    0.58999997    2.01999998
   12.23611164  133.68400574    0.58999997    2.01999998
   12.23916721  147.63699341    0.58999997    2.01999998
   12.24000072  130.85600281    0.58999997    2.01999998
   12.24277782  133.02499390    0.58999997    2.01999998
   12.24611092  135.67999268    0.58999997    2.03999996
   12.24944496  139.41499329    0.58999997    2.03999996
   12.25527763  139.41499329    0.58999997    2.03999996
   12.25944424  161.02000427    0.58999997    2.03999996
   12.26277733  140.90600586    0.58999997    2.03999996
   12.26583290  139.03900146    0.58999997    2.03999996
   12.26916599  143.32499695    0.58999997    2.03999996
   12.27222157  148.23599243    0.58999997    2.05999994
   12.27333355  142.53599548    0.58999997    2.05999994
   12.27583313  159.22799683    0.58999997    2.05999994
   12.27916622  152.48199463    0.58999997    2.05999994
   12.28249931  155.15699768    0.58999997    2.05999994
   12.28555584  158.21499634    0.58999997    2.05999994
   12.28888893  144.13000488    0.58999997    2.05999994
   12.29194450  153.88400269    0.58999997    2.07999992
   12.29805565  153.88400269    0.58999997    2.05999994
   12.30222225  156.03599548    0.58999997    2.07999992
   12.30555534  153.31700134    0.58999997    2.07999992
   12.30666733  169.63099670    0.58999997    2.07999992
   12.30916691  144.87600708    0.61000001    2.07999992
   12.31250000  138.99099731    0.58999997    2.07999992
   12.31583309  141.27099609    0.58999997    2.07999992
   12.31888866  159.17100525    0.58999997    2.07999992
   12.32222176  158.98800659    0.58999997    2.09999990
   12.32527733  139.39500427    0.58999997    2.09999990
   12.32861137  155.33999634    0.58999997    2.09999990
   12.33194447  153.51300049    0.58999997    2.09999990
   12.33500004  140.94200134    0.58999997    2.09999990
   12.34111118  140.94200134    0.58999997    2.09999990
   12.34499931  141.18299866    0.58999997    2.09999990
   12.34833336  148.08299255    0.58999997    2.09999990
   12.35166740  148.83399963    0.56999999    2.09999990
   12.35472298  152.57000732    0.58999997    2.09999990
   12.35805607  153.08999634    0.58999997    2.09999990
   12.36138916  137.36900330    0.56999999    2.09999990
   12.36444473  154.87899780    0.56999999    2.11999989
   12.36777782  151.77299500    0.56999999    2.11999989
   12.37083340  166.40400696    0.56999999    2.11999989
   12.37333393  149.28599548    0.56999999    2.11999989
   12.37444496  163.57699585    0.56999999    2.13000011
   12.37777805  164.10800171    0.56999999    2.11999989
   12.38388920  164.10800171    0.56999999    2.13000011
   12.38805580  173.04800415    0.56999999    2.13000011
   12.39111137  164.94999695    0.55000001    2.13000011
   12.39444447  167.98899841    0.55000001    2.13000011
   12.39750004  149.63499451    0.55000001    2.13000011
   12.40083313  164.93800354    0.55000001    2.13000011
   12.40416622  150.08200073    0.55000001    2.13000011
   12.40666676  172.39199829    0.55000001    2.13000011
   12.40749931  174.54200745    0.52999997    2.13000011
   12.41083336  158.29800415    0.52999997    2.13000011
   12.41416645  159.39900208    0.52999997    2.15000010
   12.41722298  154.42599487    0.52999997    2.13000011
   12.42055607  174.29299927    0.52999997    2.15000010
   12.42666721  174.29299927    0.52999997    2.15000010
   12.43083382  144.77000427    0.52999997    2.15000010
   12.43416691  149.45399475    0.52999997    2.15000010
   12.43750000  141.60800171    0.52999997    2.15000010
   12.44000053  161.05599976    0.51999998    2.15000010
   12.44111156  153.66000366    0.51999998    2.15000010
   12.44444466  174.90699768    0.52999997    2.15000010
   12.44777775  172.82699585    0.51999998    2.15000010
   12.45083332  148.61399841    0.51999998    2.17000008
   12.45416641  160.45799255    0.51999998    2.17000008
   12.45722198  174.17100525    0.51999998    2.17000008
   12.46055508  142.62899780    0.51999998    2.17000008
   12.46388912  140.91900635    0.51999998    2.17000008
   12.46944427  140.91900635    0.51999998    2.17000008
   12.47361088  157.59899902    0.51999998    2.17000008
   12.47694397  150.36799622    0.50000000    2.19000006
   12.47999954  167.77299500    0.50000000    2.19000006
   12.48333359  144.06799316    0.50000000    2.19000006
   12.48666668  155.01699829    0.50000000    2.19000006
   12.48972225  160.14799500    0.50000000    2.19000006
   12.49305534  157.68899536    0.51999998    2.19000006
   12.49638939  153.28599548    0.51999998    2.19000006
   12.49944496  157.44999695    0.50000000    2.21000004
   12.50277805  159.82899475    0.50000000    2.21000004
   12.50583363  152.77299500    0.50000000    2.19000006
   12.50666714  157.46800232    0.50000000    2.21000004
   12.51249981  157.46800232    0.50000000    2.19000006
   12.51638889  141.50399780    0.50000000    2.21000004
   12.51972198  152.19200134    0.50000000    2.21000004
   12.52305508  146.60099792    0.50000000    2.19000006
   12.52611065  131.84100342    0.50000000    2.19000006
   12.52944374  164.46499634    0.50000000    2.21000004
   12.53277779  166.91799927    0.50000000    2.21000004
   12.53583336  140.58500671    0.47999999    2.21000004
   12.53916740  155.22900391    0.47999999    2.21000004
   12.54000092  156.69900513    0.47999999    2.21000004
   12.54277802  156.22900391    0.47999999    2.21000004
   12.54611111  153.31900024    0.47999999    2.21000004
   12.54944515  155.91999817    0.47999999    2.21000004
   12.55527782  155.91999817    0.47999999    2.21000004
   12.55944443  148.13900757    0.46000001    2.23000002
   12.56250000  161.63900757    0.47999999    2.23000002
   12.56583309  152.20799255    0.47999999    2.23000002
   12.56916618  144.43699646    0.46000001    2.23000002
   12.57222176  146.48800659    0.47999999    2.21000004
   12.57333374  155.35000610    0.46000001    2.23000002
   12.57583332  145.31100464    0.46000001    2.23000002
   12.57916641  153.61099243    0.46000001    2.23000002
   12.58249950  149.66499329    0.46000001    2.23000002
   12.58555508  168.02900696    0.46000001    2.23000002
   12.58888817  145.83999634    0.46000001    2.23000002
   12.59222221  140.47999573    0.46000001    2.23000002
   12.59805489  140.47999573    0.46000001    2.25000000
   12.60222244  132.43899536    0.46000001    2.25000000
   12.60555553  154.94000244    0.46000001    2.25000000
   12.60666752  147.31700134    0.46000001    2.25000000
   12.60916710  156.15499878    0.46000001    2.25000000
   12.61250019  164.82800293    0.46000001    2.25000000
   12.61555576  161.28799438    0.46000001    2.25000000
   12.61888885  150.16099548    0.46000001    2.25000000
   12.62222195  147.92700195    0.46000001    2.25000000
   12.62527752  148.49000549    0.46000001    2.25000000
   12.62861156  151.81100464    0.46000001    2.25000000
   12.63166714  151.29100037    0.47999999    2.25000000
   12.63500023  161.06900024    0.46000001    2.25000000
   12.64083290  161.06900024    0.46000001    2.25000000
   12.64499950  141.96000671    0.46000001    2.26999998
   12.64833355  147.37399292    0.44000000    2.26999998
   12.65138817  152.83999634    0.44000000    2.26999998
   12.65472221  149.30999756    0.44000000    2.26999998
   12.65805531  133.66799927    0.44000000    2.26999998
   12.66111088  158.93200684    0.44000000    2.26999998
   12.66444397  147.08500671    0.44000000    2.28999996
   12.66777802  147.08900452    0.44000000    2.28999996
   12.67083359  146.38699341    0.44000000    2.26999998
   12.67333412  145.58799744    0.44000000    2.28999996
   12.67444515  141.03799438    0.44000000    2.28999996
   12.67777824  146.21899414    0.44000000    2.28999996
   12.68388939  146.21899414    0.44000000    2.28999996
   12.68777752  137.67900085    0.44000000    2.28999996
   12.69111156  138.68600464    0.44000000    2.28999996
   12.69444466  140.01199341    0.44000000    2.28999996
   12.69750023  151.29699707    0.44000000    2.28999996
   12.70083332  145.65100098    0.44000000    2.28999996
   12.70388889  152.32299805    0.44000000    2.28999996
   12.70666695  147.41000366    0.44000000    2.28999996
   12.70749950  140.98599243    0.44000000    2.28999996
   12.71083355  138.84899902    0.44000000    2.28999996
   12.71416664  143.68800354    0.44000000    2.28999996
   12.71722221  154.26199341    0.44000000    2.28999996
   12.72055531  149.05700684    0.44000000    2.28999996
   12.72666645  149.05700684    0.44000000    2.30999994
   12.73083305  128.42500305    0.44000000    2.28999996
   12.73388958  143.67799377    0.44000000    2.30999994
   12.73722267  140.94000244    0.44000000    2.30999994
   12.74000072  131.91799927    0.44000000    2.30999994
   12.74055576  142.92100525    0.41999999    2.30999994
   12.74388885  140.98199463    0.41999999    2.30999994
   12.74722290  144.60899353    0.41999999    2.30999994
   12.75027752  131.27900696    0.41999999    2.30999994
   12.75361156  139.97399902    0.41999999    2.30999994
   12.75694466  133.62899780    0.41999999    2.30999994
   12.76000023  136.80499268    0.41999999    2.32999992
   12.76333332  143.29899597    0.41999999    2.30999994
   12.76944447  143.29899597    0.41999999    2.32999992
   12.77361107  136.81799316    0.41999999    2.32999992
   12.77666664  137.40899658    0.41999999    2.30999994
   12.77999973  137.79800415    0.41999999    2.32999992
   12.78333378  133.24899292    0.41999999    2.32999992
   12.78638935  141.60200500    0.41999999    2.32999992
   12.78972244  133.54100037    0.41999999    2.32999992
   12.79305553  129.79299927    0.40000001    2.32999992
   12.79611111  136.58900452    0.41999999    2.32999992
   12.79944515  130.45500183    0.41999999    2.32999992
   12.80249977  143.55000305    0.40000001    2.32999992
   12.80583382  134.35400391    0.40000001    2.32999992
   12.80666733  140.67799377    0.40000001    2.32999992
   12.81222248  140.67799377    0.41999999    2.32999992
   12.81638908  151.51300049    0.40000001    2.34999990
   12.81972218  136.24699402    0.40000001    2.32999992
   12.82305527  132.98300171    0.40000001    2.32999992
   12.82611084  136.66700745    0.40000001    2.34999990
   12.82944393  142.46000671    0.40000001    2.34999990
   12.83277798  138.92199707    0.40000001    2.36999989
   12.83583260  130.09300232    0.40000001    2.34999990
   12.83916664  146.90899658    0.40000001    2.34999990
   12.84000015  134.18099976    0.40000001    2.36999989
   12.84277725  134.63099670    0.40000001    2.36999989
   12.84583282  134.90199280    0.40000001    2.34999990
   12.84916592  135.14599609    0.40000001    2.34999990
   12.85500050  135.14599609    0.40000001    2.34999990
   12.86000061  140.93800354    0.40000001    2.36999989
   12.86305618  131.65400696    0.40000001    2.36999989
   12.86638927  132.42700195    0.40000001    2.36999989
   12.86972237  126.04699707    0.40000001    2.36999989
   12.87277794  134.31900024    0.40000001    2.36999989
   12.87333393  144.66400146    0.40000001    2.36999989
   12.87638855  134.36000061    0.40000001    2.36999989
   12.87944412  135.92500305    0.40000001    2.36999989
   12.88277817  136.29800415    0.40000001    2.36999989
   12.88611126  139.35000610    0.40000001    2.36999989
   12.88916683  137.39599609    0.40000001    2.36999989
   12.89249992  135.96400452    0.40000001    2.36999989
   12.89805508  135.96400452    0.40000001    2.36999989
   12.90222168  133.19000244    0.40000001    2.36999989
   12.90527725  139.45599365    0.40000001    2.36999989
   12.90666676  132.47399902    0.40000001    2.36999989
   12.90916634  130.31799316    0.40000001    2.36999989
   12.91222191  135.66799927    0.40000001    2.36999989
   12.91555500  133.25300598    0.38000000    2.36999989
   12.91888905  150.28199768    0.40000001    2.36999989
   12.92194462  136.06300354    0.40000001    2.39000010
   12.92527771  135.79899597    0.38000000    2.36999989
   12.92861176  141.71400452    0.38000000    2.36999989
   12.93166733  133.37399292    0.38000000    2.39000010
   12.93500042  138.46400452    0.38000000    2.39000010
   12.94083309  138.46400452    0.38000000    2.39000010
   12.94499969  129.19500732    0.38000000    2.39000010
   12.94833374  134.57099915    0.38000000    2.39000010
   12.95138836  135.09300232    0.38000000    2.39000010
   12.95472240  132.87500000    0.38000000    2.39000010
   12.95777798  132.83200073    0.36000001    2.40000010
   12.96111107  124.23799896    0.36000001    2.39000010
   12.96444416  139.03700256    0.36000001    2.39000010
   12.96749973  128.72200012    0.36000001    2.39000010
   12.97083282  135.68800354    0.36000001    2.39000010
   12.97333336  131.88499451    0.38000000    2.40000010
   12.97444439  137.19099426    0.38000000    2.40000010
   12.97749996  136.37500000    0.38000000    2.40000010
   12.98361111  136.37500000    0.36000001    2.39000010
   12.98777771  124.04699707    0.38000000    2.40000010
   12.99111176  133.81900024    0.38000000    2.40000010
   12.99416733  137.02299500    0.38000000    2.40000010
   12.99750042  140.08200073    0.36000001    2.40000010
   13.00083351  138.35800171    0.36000001    2.40000010
   13.00388908  138.71499634    0.36000001    2.40000010
   13.00666714  140.36399841    0.36000001    2.40000010
   13.00749969  125.34600067    0.36000001    2.40000010
   13.01055527  145.42599487    0.36000001    2.40000010
   13.01388931  136.54400635    0.36000001    2.40000010
   13.01722240  134.61599731    0.36000001    2.40000010
   13.02027798  138.34800720    0.36000001    2.40000010
   13.02638817  138.34800720    0.36000001    2.40000010
   13.03055573  143.61599731    0.36000001    2.40000010
   13.03388977  142.25500488    0.36000001    2.40000010
   13.03722286  130.96299744    0.36000001    2.40000010
   13.04000092  137.49200439    0.38000000    2.42000008
   13.04083347  133.74200439    0.38000000    2.42000008
   13.04388905  134.56300354    0.38000000    2.40000010
   13.04722309  141.17799377    0.38000000    2.40000010
   13.05055618  141.42399597    0.36000001    2.42000008
   13.05361176  130.95100403    0.36000001    2.42000008
   13.05694485  136.68899536    0.36000001    2.42000008
   13.06027794  138.24000549    0.36000001    2.42000008
   13.06333351  137.42900085    0.38000000    2.42000008
   13.06944466  137.42900085    0.36000001    2.42000008
   13.07361126  139.57299805    0.38000000    2.42000008
   13.07666683  139.71400452    0.36000001    2.42000008
   13.07999992  144.24600220    0.36000001    2.42000008
   13.08305550  137.08099365    0.36000001    2.44000006
   13.08638859  147.00300598    0.36000001    2.42000008
   13.08972168  137.47000122    0.36000001    2.42000008
   13.09305477  133.44700623    0.36000001    2.42000008
   13.09638882  141.57299805    0.36000001    2.42000008
   13.09944439  135.40600586    0.36000001    2.42000008
   13.10277843  132.88200378    0.34000000    2.44000006
   13.10583401  108.97899628    0.34000000    2.42000008
   13.10666752  138.02099609    0.34000000    2.42000008
   13.12750053  138.02099609    0.36000001    2.44000006
   13.13166714  139.92300415    0.34000000    2.44000006
   13.13472176  135.48399353    0.34000000    2.44000006
   13.13805580  154.92399597    0.34000000    2.44000006
   13.14000034  140.59599304    0.34000000    2.44000006
   13.14166641  138.35000610    0.34000000    2.44000006
   13.14499950  147.79800415    0.34000000    2.44000006
   13.14805508  140.76100159    0.36000001    2.44000006
   13.15138817  149.11099243    0.34000000    2.44000006
   13.15444374  148.44599915    0.34000000    2.44000006
   13.15777779  138.72500610    0.34000000    2.44000006
   13.16111088  156.48399353    0.34000000    2.44000006
   13.16416645  152.10299683    0.34000000    2.46000004
   13.17027855  152.10299683    0.34000000    2.46000004
   13.17444515  150.41099548    0.34000000    2.46000004
   13.17750072  147.46600342    0.34000000    2.46000004
   13.18083382  148.60699463    0.34000000    2.46000004
   13.18388939  150.30200195    0.34000000    2.46000004
   13.18722248  138.48399353    0.34000000    2.46000004
   13.19055557  148.89199829    0.34000000    2.46000004
   13.19361115  146.22300720    0.34000000    2.46000004
   13.19694424  147.13499451    0.34000000    2.46000004
   13.20027733  143.18499756    0.34000000    2.46000004
   13.20333290  143.51899719    0.34000000    2.46000004
   13.20666695  141.31900024    0.34000000    2.46000004
   13.20722198  142.07899475    0.34000000    2.46000004
   13.21305561  142.07899475    0.34000000    2.46000004
   13.21722221  140.60400391    0.34000000    2.46000004
   13.22027779  146.94900513    0.34000000    2.46000004
   13.22388840  140.19999695    0.34000000    2.48000002
   13.22694397  139.18099976    0.34000000    2.46000004
   13.23027706  141.87899780    0.34000000    2.46000004
   13.23361111  148.51600647    0.34000000    2.48000002
   13.23666668  140.26600647    0.34000000    2.48000002
   13.24000072  139.16600037    0.34000000    2.46000004
   13.24055576  140.97799683    0.34000000    2.46000004
   13.24333382  151.06100464    0.34000000    2.46000004
   13.24666691  142.85600281    0.34000000    2.46000004
   13.25000000  144.30499268    0.34000000    2.46000004
   13.25583363  144.30499268    0.34000000    2.46000004
   13.26000023  144.80999756    0.34000000    2.46000004
   13.26333332  146.98300171    0.34000000    2.48000002
   13.26638889  149.78900146    0.31999999    2.46000004
   13.26972198  144.00399780    0.31999999    2.46000004
   13.27305508  145.23500061    0.34000000    2.48000002
   13.27388859  146.12199402    0.31999999    2.48000002
   13.27638817  151.43600464    0.31999999    2.48000002
   13.27972221  135.42500305    0.31999999    2.48000002
   13.28305531  139.25799561    0.34000000    2.48000002
   13.28611183  147.03199768    0.31999999    2.48000002
   13.28944492  141.74600220    0.31999999    2.48000002
   13.29277802  138.96600342    0.31999999    2.48000002
   13.29861164  138.96600342    0.31999999    2.48000002
   13.30277824  144.67799377    0.31999999    2.48000002
   13.30611134  147.48699951    0.31999999    2.48000002
   13.30722237  142.66299438    0.31999999    2.48000002
   13.30972195  140.17700195    0.31999999    2.48000002
   13.31305599  147.92999268    0.31999999    2.48000002
   13.31638908  140.63699341    0.31999999    2.48000002
   13.31944466  146.68200684    0.31999999    2.48000002
   13.32277775  136.95700073    0.31999999    2.48000002
   13.32611084  139.54200745    0.31999999    2.48000002
   13.32916641  126.69499969    0.31999999    2.48000002
   13.33249950  145.59500122    0.31999999    2.48000002
   13.33555508  139.57600403    0.31999999    2.48000002
   13.34166622  139.57600403    0.31999999    2.48000002
   13.34583282  135.68600464    0.31999999    2.50000000
   13.34916592  138.82800293    0.31999999    2.48000002
   13.35222244  133.61000061    0.31999999    2.50000000
   13.35555553  143.32800293    0.31999999    2.50000000
   13.35888958  141.25700378    0.31999999    2.48000002
   13.36194515  144.54800415    0.31999999    2.48000002
   13.36527824  137.74200439    0.31999999    2.50000000
   13.36861134  140.43600464    0.31999999    2.50000000
   13.37166691  142.11500549    0.31999999    2.50000000
   13.37388897  141.55700684    0.31999999    2.50000000
   13.37527752  137.67700195    0.31999999    2.50000000
   13.37861156  138.76899719    0.31999999    2.50000000
   13.38444424  138.76899719    0.31999999    2.50000000
   13.38861084  140.97599792    0.31999999    2.50000000
   13.39166641  139.96299744    0.31999999    2.51999998
   13.39499950  140.24699402    0.31999999    2.50000000
   13.39833355  138.96499634    0.31999999    2.50000000
   13.40138817  143.02799988    0.31999999    2.50000000
   13.40472221  139.49000549    0.31999999    2.50000000
   13.40722179  139.98199463    0.31999999    2.50000000
   13.40833282  138.95899963    0.31999999    2.50000000
   13.41166592  134.19900513    0.31999999    2.51999998
   13.41499996  135.33399963    0.31999999    2.50000000
   13.41805553  139.81100464    0.30000001    2.50000000
   13.42138958  137.73100281    0.30000001    2.50000000
   13.42722225  137.73100281    0.30000001    2.51999998
   13.43138885  131.39799500    0.31999999    2.51999998
   13.43472195  140.34899902    0.31999999    2.51999998
   13.43777752  129.16900635    0.31999999    2.51999998
   13.44055557  136.97200012    0.31999999    2.51999998
   13.44138908  136.17599487    0.30000001    2.51999998
   13.44472218  134.55200195    0.31999999    2.50000000
   13.44805527  136.84199524    0.31999999    2.50000000
   13.45111084  133.34399414    0.30000001    2.51999998
   13.45444393  142.29299927    0.30000001    2.51999998
   13.45777798  131.33200073    0.31999999    2.51999998
   13.46083355  138.57699585    0.30000001    2.51999998
   13.46416664  139.56399536    0.30000001    2.51999998
   13.46999931  139.56399536    0.30000001    2.51999998
   13.47416592  145.88400269    0.30000001    2.51999998
   13.47749996  136.15800476    0.30000001    2.51999998
   13.48083305  132.30900574    0.30000001    2.51999998
   13.48388958  132.08399963    0.30000001    2.51999998
   13.48722267  137.19299316    0.30000001    2.51999998
   13.49027824  131.87100220    0.30000001    2.51999998
   13.49361134  129.63400269    0.30000001    2.51999998
   13.49694443  146.88099670    0.30000001    2.51999998
   13.50000000  130.31500244    0.31999999    2.51999998
   13.50333309  140.92999268    0.30000001    2.51999998
   13.50666714  129.77400208    0.30000001    2.51999998
   13.50722218  134.58599854    0.30000001    2.51999998
   13.51305580  134.58599854    0.30000001    2.51999998
   13.51722240  139.61099243    0.30000001    2.51999998
   13.52027798  134.29400635    0.30000001    2.51999998
   13.52361107  128.72999573    0.31999999    2.53999996
   13.52666664  140.12800598    0.31999999    2.51999998
   13.52999973  130.87899780    0.31999999    2.53999996
   13.53333378  136.27799988    0.30000001    2.53999996
   13.53638935  133.01100159    0.31999999    2.53999996
   13.53972244  139.96099854    0.30000001    2.51999998
   13.54055595  140.55900574    0.30000001    2.53999996
   13.54333401  136.02799988    0.30000001    2.53999996
   13.54638958  138.88900757    0.30000001    2.53999996
   13.54972267  147.74400330    0.30000001    2.53999996
   13.55583382  147.74400330    0.30000001    2.53999996
   13.56000042  152.82499695    0.30000001    2.53999996
   13.56333351  157.13499451    0.30000001    2.51999998
   13.56638908  158.63499451    0.30000001    2.51999998
   13.56972218  171.75399780    0.30000001    2.53999996
   13.57277775  182.91099548    0.30000001    2.53999996
   13.57388878  175.38200378    0.30000001    2.53999996
   13.57666683  196.66000366    0.30000001    2.55999994
   13.57972240  201.96400452    0.30000001    2.53999996
   13.58305550  176.22099304    0.30000001    2.53999996
   13.58611107  178.74099731    0.30000001    2.53999996
   13.58944416  186.41400146    0.30000001    2.53999996
   13.59277725  196.66299438    0.30000001    2.55999994
   13.59861088  196.66299438    0.30000001    2.53999996
   13.60277843  176.36099243    0.30000001    2.53999996
   13.60611153  203.52499390    0.30000001    2.55999994
   13.60722256  188.13400269    0.30000001    2.53999996
   13.60972214  213.97599792    0.30000001    2.53999996
   13.61277771  216.08900452    0.30000001    2.53999996
   13.61611176  212.13600159    0.30000001    2.53999996
   13.61916637  198.20100403    0.30000001    2.53999996
   13.62250042  192.12699890    0.30000001    2.53999996
   13.62583351  213.19599915    0.30000001    2.55999994
   13.62916660  175.60000610    0.30000001    2.53999996
   13.63222218  178.26899719    0.30000001    2.53999996
   13.63555527  187.31199646    0.30000001    2.53999996
   13.64138889  187.31199646    0.30000001    2.53999996
   13.64555550  180.04499817    0.30000001    2.53999996
   13.64888859  187.14900208    0.30000001    2.53999996
   13.65222168  165.62300110    0.28000000    2.53999996
   13.65527725  175.58099365    0.30000001    2.53999996
   13.65861034  176.74299622    0.30000001    2.55999994
   13.66166592  167.58399963    0.30000001    2.53999996
   13.66499996  163.24400330    0.30000001    2.55999994
   13.66833401  165.18400574    0.30000001    2.55999994
   13.67138958  158.58200073    0.30000001    2.55999994
   13.67388916  149.30599976    0.30000001    2.55999994
   13.67527771  139.62699890    0.30000001    2.55999994
   13.67833328  132.88999939    0.30000001    2.55999994
   13.68444443  132.88999939    0.30000001    2.55999994
   13.68861103  137.50900269    0.30000001    2.55999994
   13.69166660  151.50199890    0.30000001    2.55999994
   13.69499969  129.19200134    0.30000001    2.55999994
   13.69833374  143.66200256    0.30000001    2.55999994
   13.70138836  135.57400513    0.30000001    2.55999994
   13.70472240  127.82199860    0.30000001    2.55999994
   13.70722198  131.73300171    0.30000001    2.55999994
   13.70833302  128.55299377    0.30000001    2.55999994
   13.71138859  131.96499634    0.30000001    2.55999994
   13.71472168  132.45199585    0.30000001    2.55999994
   13.71777725  137.30000305    0.30000001    2.55999994
   13.72111034  141.59800720    0.30000001    2.55999994
   13.72722149  141.59800720    0.30000001    2.55999994
   13.73138809  128.08200073    0.30000001    2.55999994
   13.73444462  126.62999725    0.30000001    2.55999994
   13.73777771  127.05200195    0.28000000    2.55999994
   13.74055576  128.39100647    0.30000001    2.55999994
   13.74138927  125.84700012    0.30000001    2.55999994
   13.74444485  127.07800293    0.30000001    2.55999994
   13.74777794  127.74299622    0.28000000    2.55999994
   13.75111103  135.67700195    0.28000000    2.55999994
   13.75416660  135.68800354    0.30000001    2.55999994
   13.75749969  129.30299377    0.30000001    2.55999994
   13.76055527  119.10199738    0.30000001    2.55999994
   13.76388931  124.86799622    0.30000001    2.57999992
   13.76999950  124.86799622    0.30000001    2.55999994
   13.77416611  126.15899658    0.30000001    2.55999994
   13.77750015  117.32700348    0.30000001    2.57999992
   13.78055573  126.23100281    0.30000001    2.57999992
   13.78388977  121.53700256    0.30000001    2.57999992
   13.78722286  123.55599976    0.30000001    2.57999992
   13.79027843  125.56199646    0.28000000    2.57999992
   13.79361153  124.51200104    0.28000000    2.55999994
   13.79666710  121.03900146    0.28000000    2.57999992
   13.80000019  122.21099854    0.30000001    2.57999992
   13.80333328  126.00599670    0.28000000    2.57999992
   13.80638885  126.66899872    0.28000000    2.57999992
   13.80722237  124.90200043    0.30000001    2.57999992
   13.81277752  124.90200043    0.30000001    2.55999994
   13.81694412  127.81199646    0.30000001    2.57999992
   13.82027817  126.83999634    0.28000000    2.57999992
   13.82361126  125.11599731    0.28000000    2.57999992
   13.82666683  129.00100708    0.30000001    2.57999992
   13.82999992  126.14800262    0.28000000    2.57999992
   13.83305550  124.19200134    0.28000000    2.57999992
   13.83638859  123.86199951    0.28000000    2.57999992
   13.83972168  124.63600159    0.30000001    2.55999994
   13.84055519  121.69899750    0.30000001    2.59999990
   13.84333324  124.04599762    0.30000001    2.57999992
   13.84638882  117.82499695    0.28000000    2.59999990
   13.84972191  123.29599762    0.28000000    2.57999992
   13.85583401  123.29599762    0.30000001    2.57999992
   13.86000061  119.68699646    0.30000001    2.57999992
   13.86305618  124.62500000    0.30000001    2.59999990
   13.86638927  122.33499908    0.30000001    2.57999992
   13.86944485  115.98200226    0.30000001    2.59999990
   13.87277794  113.68599701    0.30000001    2.57999992
   13.87388897  116.28700256    0.31999999    2.59999990
   13.87638855  130.89599609    0.30000001    2.59999990
   13.87944412  116.09500122    0.30000001    2.57999992
   13.88277817  120.97100067    0.30000001    2.57999992
   13.88611126  117.84500122    0.30000001    2.57999992
   13.88916683  114.28099823    0.30000001    2.59999990
   13.89249992  118.77300262    0.30000001    2.57999992
   13.89861107  118.77300262    0.30000001    2.59999990
   13.90277767  111.75000000    0.30000001    2.59999990
   13.90583324  112.39499664    0.30000001    2.59999990
   13.90722179  114.74700165    0.30000001    2.59999990
   13.90972137  114.71499634    0.30000001    2.59999990
   13.91277695  111.77799988    0.30000001    2.59999990
   13.91611099  113.23400116    0.30000001    2.59999990
   13.91944504  114.14399719    0.30000001    2.57999992
   13.92250061  112.14399719    0.31999999    2.59999990
   13.92583370  107.54000092    0.31999999    2.57999992
   13.92888927  108.82199860    0.31999999    2.59999990
   13.93222237  115.70400238    0.30000001    2.59999990
   13.93555546  114.30200195    0.30000001    2.59999990
   13.94138908  114.30200195    0.30000001    2.59999990
   13.94555569  111.30000305    0.30000001    2.59999990
   13.94888878  105.91000366    0.30000001    2.59999990
   13.95194435  115.07800293    0.30000001    2.59999990
   13.95527744  118.78199768    0.30000001    2.59999990
   13.95861053  112.26200104    0.30000001    2.59999990
   13.96166611  111.31900024    0.30000001    2.59999990
   13.96500015  107.10299683    0.30000001    2.59999990
   13.96833324  114.17299652    0.30000001    2.59999990
   13.97138882  111.00900269    0.28000000    2.59999990
   13.97388840  113.59200287    0.28000000    2.59999990
   13.97527695  113.82599640    0.28000000    2.59999990
   13.97833252  106.98600006    0.28000000    2.59999990
   13.98416710  106.98600006    0.28000000    2.59999990
   13.98833370  111.27700043    0.28000000    2.59999990
   13.99166679  101.03500366    0.28000000    2.61999989
   13.99499989  107.97100067    0.28000000    2.61999989
   13.99805546  112.78600311    0.28000000    2.59999990
   14.00138855  108.88500214    0.28000000    2.59999990
   14.00444412  110.12000275    0.25999999    2.61999989
   14.00722218  108.33000183    0.25999999    2.59999990
   14.00833321  110.78600311    0.25999999    2.59999990
   14.01138878  107.22899628    0.25999999    2.59999990
   14.01472187  114.03700256    0.28000000    2.59999990
   14.01805496  105.80400085    0.28000000    2.59999990
   14.02111053  110.19200134    0.28000000    2.59999990
   14.02722168  110.19200134    0.28000000    2.61999989
   14.03138828  102.93599701    0.28000000    2.61999989
   14.03444481  107.93900299    0.28000000    2.59999990
   14.03777790  103.99299622    0.28000000    2.61999989
   14.04055595  105.95400238    0.28000000    2.61999989
   14.04138947  108.39199829    0.28000000    2.61999989
   14.04444504  108.65000153    0.28000000    2.61999989
   14.04777813  113.39900208    0.28000000    2.61999989
   14.05111122  110.19999695    0.25999999    2.61999989
   14.05416679  108.17700195    0.25999999    2.61999989
   14.05749989  109.30500031    0.25999999    2.61999989
   14.06055546  106.24600220    0.25999999    2.61999989
   14.06388950  107.22599792    0.25999999    2.61999989
   14.06999969  107.22599792    0.25999999    2.61999989
   14.07416630  106.54399872    0.28000000    2.61999989
   14.07722187  103.35600281    0.28000000    2.59999990
   14.08055592  100.75800323    0.28000000    2.59999990
   14.08361053  102.62899780    0.28000000    2.61999989
   14.08694458  100.35500336    0.28000000    2.61999989
   14.09027767  100.97799683    0.25999999    2.61999989
   14.09333324  103.57199860    0.28000000    2.61999989
   14.09666634  104.35099792    0.28000000    2.61999989
   14.10000038  102.23600006    0.28000000    2.61999989
   14.10305595  104.94000244    0.28000000    2.61999989
   14.10638905  101.62999725    0.25999999    2.64000010
   14.10722256  105.84200287    0.28000000    2.64000010
   14.11277771  105.84200287    0.28000000    2.64000010
   14.11694431  107.04599762    0.28000000    2.64000010
   14.11999989  103.27400208    0.25999999    2.64000010
   14.12333393  106.99199677    0.28000000    2.61999989
   14.14111137   97.90679932    0.25999999    2.61999989
   14.14333344   98.90769958    0.25999999    2.61999989
   14.14666653   96.81189728    0.25999999    2.64000010
   14.14999962   88.44349670    0.25999999    2.64000010
   14.15583324   88.44349670    0.25999999    2.61999989
   14.15999985  103.28500366    0.25999999    2.61999989
   14.16333294  105.56600189    0.25999999    2.64000010
   14.16638851   99.05809784    0.25999999    2.61999989
   14.16972256  111.56900024    0.25999999    2.61999989
   14.17277813  116.67400360    0.25999999    2.61999989
   14.17416668  119.90000153    0.25999999    2.64000010
   14.17638874  126.22299957    0.25999999    2.64000010
   14.17972279  122.66999817    0.25999999    2.64000010
   14.18277836  140.78300476    0.25999999    2.64000010
   14.18611145  156.30099487    0.25999999    2.64000010
   14.18944454  157.03300476    0.25999999    2.61999989
   14.19250011  193.15800476    0.25999999    2.64000010
   14.19861126  193.15800476    0.25999999    2.61999989
   14.20277786  198.90299988    0.25999999    2.64000010
   14.20611095  237.50000000    0.25999999    2.61999989
   14.20749950  303.88900757    0.25999999    2.64000010
   14.20972157  247.06399536    0.25999999    2.64000010
   14.21305561  273.30801392    0.25999999    2.64000010
   14.21611118  121.21499634    0.25999999    2.64000010
   14.21944427   65.74680328    0.25999999    2.64000010
   14.22277737   23.57019997    0.25999999    2.64000010
   14.22583294   -1.00000000    0.25999999    2.64000010
   14.22916603   -1.00000000    0.25999999    2.64000010
   14.23249912   -1.00000000    0.25999999    2.64000010
   14.23555565   -1.00000000    0.25999999    2.64000010
   14.24166679   -1.00000000    0.25999999    2.64000010
   14.24555588   -1.00000000    0.25999999    2.64000010
   14.24888897   -1.00000000    0.25999999    2.64000010
   14.25222206   -1.00000000    0.25999999    2.64000010
   14.25527763   -1.00000000    0.25999999    2.64000010
   14.25861073   -1.00000000    0.25999999    2.64000010
   14.26194477   -1.00000000    0.25999999    2.64000010
   14.26500034   -1.00000000    0.25999999    2.64000010
   14.26833344   -1.00000000    0.25999999    2.64000010
   14.27138901   -1.00000000    0.25000000    2.64000010
   14.27499962   -1.00000000    0.25000000    2.64000010
   14.27805519   -1.00000000    0.25999999    2.64000010
   14.28833389   -1.00000000    0.25000000    2.64000010
   14.29166698   -1.00000000    0.25000000    2.64000010
   14.29500008   -1.00000000    0.25999999    2.64000010
   14.29805565   -1.00000000    0.25000000    2.64000010
   14.30138874   -1.00000000    0.25000000    2.64000010
   14.30472279   -1.00000000    0.25000000    2.64000010
   14.30833340   -1.00000000    0.25000000    2.64000010
   14.31138897   -1.00000000    0.25000000    2.64000010
   14.31472206   -1.00000000    0.25000000    2.64000010
   14.31805515   -1.00000000    0.25000000    2.66000009
   14.32111073   -1.00000000    0.25999999    2.66000009
   14.33138847   -1.00000000    0.25000000    2.64000010
   14.33444405   -1.00000000    0.25000000    2.64000010
   14.33777714   -1.00000000    0.25999999    2.66000009
   14.34138870   -1.00000000    0.25000000    2.66000009
   14.34444427   -1.00000000    0.25000000    2.64000010
   14.34777737   -1.00000000    0.25999999    2.64000010
   14.35111141   -1.00000000    0.25999999    2.64000010
   14.35416698   -1.00000000    0.25000000    2.64000010
   14.35750008   -1.00000000    0.25999999    2.66000009
   14.36055565   -1.00000000    0.25999999    2.66000009
   14.36388969   -1.00000000    0.25999999    2.66000009
   14.37416649   -1.00000000    0.25000000    2.64000010
   14.37777805   -1.00000000    0.25999999    2.66000009
   14.38111115   -1.00000000    0.25999999    2.66000009
   14.38444424   -1.00000000    0.25000000    2.66000009
   14.38749981   -1.00000000    0.25000000    2.66000009
   14.39083290   -1.00000000    0.25000000    2.66000009
   14.39388847   -1.00000000    0.25000000    2.66000009
   14.39722252   -1.00000000    0.25000000    2.66000009
   14.40055561   -1.00000000    0.25000000    2.66000009
   14.40361118   -1.00000000    0.25000000    2.66000009
   14.40694427   -1.00000000    0.25000000    2.67000008
   14.41694450   -1.00000000    0.25999999    2.66000009
   14.42027855   -1.00000000    0.25999999    2.66000009
   14.42333412   -1.00000000    0.25999999    2.66000009
   14.42666721   -1.00000000    0.25000000    2.66000009
   14.43000031   -1.00000000    0.25999999    2.66000009
   14.43305588   -1.00000000    0.25000000    2.66000009
   14.43638897   -1.00000000    0.25000000    2.66000009
   14.43972206   -1.00000000    0.25000000    2.66000009
   14.44305515   -1.00000000    0.25999999    2.66000009
   14.44638920   -1.00000000    0.25999999    2.66000009
   14.44944477   -1.00000000    0.25999999    2.66000009
   14.45583344   -1.00000000    0.25999999    2.67000008
   14.46000004  119.92800140    0.25999999    2.67000008
   14.46305561  110.95400238    0.25999999    2.66000009
   14.46638870  110.39900208    0.25999999    2.66000009
   14.46972179  112.67500305    0.25999999    2.66000009
   14.47277737  108.93499756    0.25999999    2.66000009
   14.47472191  115.94999695    0.25000000    2.66000009
   14.47666645  112.03800201    0.25999999    2.66000009
   14.47972202  114.15499878    0.25999999    2.66000009
   14.48305511  110.24800110    0.25999999    2.67000008
   14.48611164  113.47200012    0.25999999    2.66000009
   14.48944473  109.84100342    0.25999999    2.67000008
   14.49277782  110.17400360    0.25999999    2.67000008
   14.49861145  110.17400360    0.25999999    2.66000009
   14.50277805  110.61399841    0.25999999    2.66000009
   14.50611115  111.85800171    0.25999999    2.66000009
   14.50805569  117.67500305    0.25999999    2.66000009
   14.50972176  118.80500031    0.25999999    2.66000009
   14.51277733  114.18699646    0.25999999    2.66000009
   14.51611137  110.06999969    0.25999999    2.66000009
   14.51916599  118.23600006    0.25999999    2.66000009
   14.52250004  122.09100342    0.25999999    2.66000009
   14.52583313  119.70899963    0.25999999    2.66000009
   14.52888870  115.06199646    0.25999999    2.66000009
   14.53222179  117.44799805    0.25999999    2.67000008
   14.53555584  115.96700287    0.25999999    2.66000009
   14.54138947  115.96700287    0.25999999    2.67000008
   14.54555607  114.48000336    0.25999999    2.66000009
   14.54888916  117.35299683    0.25999999    2.64000010
   14.55194473  118.54499817    0.25999999    2.66000009
   14.55527782  117.99199677    0.25999999    2.67000008
   14.55861092  121.57800293    0.25999999    2.67000008
   14.56166649  122.26699829    0.25999999    2.67000008
   14.56500053  116.26300049    0.25999999    2.67000008
   14.56833363  112.54499817    0.25999999    2.67000008
   14.57138920  118.13500214    0.25999999    2.66000009
   14.57472229  122.91600037    0.25999999    2.67000008
   14.57499981  121.41100311    0.25999999    2.67000008
   14.57833290  126.09400177    0.25999999    2.66000009
   14.58444405  126.09400177    0.25999999    2.67000008
   14.58833313  119.08699799    0.25999999    2.67000008
   14.59166622  115.50000000    0.25999999    2.67000008
   14.59499931  120.38899994    0.25999999    2.67000008
   14.59805489  121.56500244    0.25000000    2.67000008
   14.60138893  125.30999756    0.25000000    2.67000008
   14.60472298  121.48600006    0.25999999    2.67000008
   14.60777855  118.25399780    0.25999999    2.66000009
   14.60833359  119.90899658    0.25999999    2.66000009
   14.61166668  120.57499695    0.25999999    2.67000008
   14.61472225  116.68000031    0.25999999    2.67000008
   14.61805534  126.44799805    0.25999999    2.66000009
   14.62138939  116.49700165    0.25999999    2.66000009
   14.62722206  116.49700165    0.25999999    2.67000008
   14.63138866  123.28399658    0.25999999    2.67000008
   14.63444424  119.47100067    0.25999999    2.67000008
   14.63777733  122.85099792    0.25999999    2.67000008
   14.64111137  125.62400055    0.25999999    2.67000008
   14.64166641  117.87100220    0.25999999    2.67000008
   14.64472198  121.10700226    0.28000000    2.67000008
   14.64777756  117.28500366    0.25999999    2.67000008
   14.65111065  119.90799713    0.25999999    2.67000008
   14.65444374  115.60700226    0.28000000    2.67000008
   14.65749931  123.76599884    0.28000000    2.67000008
   14.66083336  123.17099762    0.25999999    2.67000008
   14.66416645  121.62500000    0.25999999    2.67000008
   14.67000008  121.62500000    0.28000000    2.67000008
   14.67416668  127.09700012    0.28000000    2.67000008
   14.67500019  127.55799866    0.28000000    2.67000008
   14.67777824  131.35299683    0.25999999    2.67000008
   14.68083382  132.16400146    0.25999999    2.67000008
   14.68416691  129.82099915    0.25999999    2.67000008
   14.68750000  127.06400299    0.25999999    2.67000008
   14.69055557  124.27200317    0.30000001    2.67000008
   14.69388866  121.32599640    0.34000000    2.67000008
   14.69722271  125.76100159    0.34000000    2.67000008
   14.70027733  118.71600342    0.36000001    2.67000008
   14.70361137  119.91400146    0.44000000    2.67000008
   14.70666695  120.47899628    0.47999999    2.67000008
   14.70833302  127.33399963    0.50000000    2.67000008
   14.71277714  127.33399963    0.52999997    2.67000008
   14.71694374  131.34199524    0.51999998    2.69000006
   14.72027779  125.27999878    0.38000000    2.67000008
   14.72333336  119.78900146    0.36000001    2.67000008
   14.72666645  118.86599731    0.34000000    2.67000008
   14.72999954  122.76799774    0.34000000    2.67000008
   14.73333359  120.58200073    0.30000001    2.67000008
   14.73638916  122.79499817    0.30000001    2.69000006
   14.73972225  116.89299774    0.30000001    2.67000008
   14.74166679  115.23600006    0.31999999    2.67000008
   14.74333382  125.74400330    0.30000001    2.67000008
   14.74638939  125.86799622    0.30000001    2.67000008
   14.74972248  121.12799835    0.28000000    2.67000008
   14.75583363  121.12799835    0.28000000    2.67000008
   14.75972176  120.58699799    0.28000000    2.67000008
   14.76305580  125.49800110    0.25999999    2.67000008
   14.76638889  128.13000488    0.25999999    2.67000008
   14.76944447  124.32499695    0.25999999    2.67000008
   14.77277756  127.04799652    0.25999999    2.67000008
   14.77499962  127.17099762    0.25999999    2.67000008
   14.77638817  124.29599762    0.25999999    2.67000008
   14.77944374  122.78700256    0.25999999    2.67000008
   14.78277779  125.12500000    0.25999999    2.67000008
   14.78611183  131.99299622    0.25999999    2.67000008
   14.78916740  127.70700073    0.25999999    2.69000006
   14.79250050  123.11000061    0.25999999    2.67000008
   14.79861164  123.11000061    0.25999999    2.69000006
   14.80277824  112.27999878    0.28000000    2.69000006
   14.80583382  125.68000031    0.25999999    2.67000008
   14.80833340  124.13500214    0.25999999    2.67000008
   14.80972195  128.22300720    0.25999999    2.67000008
   14.81277752  119.48000336    0.25999999    2.69000006
   14.81611156  122.36199951    0.25999999    2.69000006
   14.81944466  132.64199829    0.25999999    2.69000006
   14.82250023  127.60800171    0.25999999    2.67000008
   14.82583332  127.24500275    0.28000000    2.69000006
   14.82916641  131.36900330    0.28000000    2.69000006
   14.83222198  123.75399780    0.28000000    2.69000006
   14.83555508  128.83599854    0.25999999    2.69000006
   14.84138870  128.83599854    0.25999999    2.69000006
   14.84555531  120.45099640    0.25999999    2.69000006
   14.84888840  117.86900330    0.25000000    2.69000006
   14.85194492  126.84500122    0.25000000    2.67000008
   14.85527802  130.41999817    0.25000000    2.67000008
   14.85833359  132.37199402    0.25999999    2.67000008
   14.86166668  136.91400146    0.25999999    2.67000008
   14.86500072  130.83799744    0.25000000    2.69000006
   14.86805534  120.24900055    0.25999999    2.69000006
   14.87138939  133.62199402    0.25000000    2.69000006
   14.87472248  123.60500336    0.25999999    2.69000006
   14.87638855  121.80799866    0.25999999    2.69000006
   14.87833309  124.94400024    0.25999999    2.69000006
   14.88416672  124.94400024    0.25999999    2.69000006
   14.88833332  110.53099823    0.25999999    2.69000006
   14.89166641  132.70300293    0.25999999    2.69000006
   14.89472198  121.80000305    0.25999999    2.69000006
   14.89805508  127.37400055    0.25999999    2.69000006
   14.90138817  124.34899902    0.25999999    2.69000006
   14.90444374  136.53500366    0.25999999    2.69000006
   14.90777779  120.51300049    0.28000000    2.69000006
   14.90972137  123.33000183    0.28000000    2.69000006
   14.91138840  119.23200226    0.28000000    2.69000006
   14.91444397  124.52899933    0.28000000    2.69000006
   14.91777802  127.04000092    0.28000000    2.69000006
   14.92111111  116.83000183    0.30000001    2.69000006
   14.92694473  116.83000183    0.28000000    2.69000006
   14.93111134  119.20500183    0.25999999    2.69000006
   14.93444443  122.30200195    0.25999999    2.69000006
   14.93777752  128.29499817    0.28000000    2.69000006
   14.94083309  127.97100067    0.28000000    2.69000006
   14.94333363  123.87999725    0.25999999    2.69000006
   14.94444466  127.68099976    0.25999999    2.69000006
   14.94777775  109.38899994    0.25999999    2.71000004
   14.95111084  128.83999634    0.25999999    2.69000006
   14.95416641  119.71499634    0.25999999    2.69000006
   14.95749950  114.40100098    0.25999999    2.69000006
   14.96083355  122.78099823    0.25999999    2.71000004
   14.96388912  121.53099823    0.25999999    2.71000004
   14.96999931  121.53099823    0.25000000    2.69000006
   14.97416592  111.71900177    0.25999999    2.69000006
   14.97666645  107.13099670    0.25999999    2.69000006
   14.97749996  118.72299957    0.25000000    2.69000006
   14.98083305  119.81500244    0.25000000    2.69000006
   14.98416710  122.02100372    0.25000000    2.69000006
   14.98722267  128.60099792    0.25000000    2.69000006
   14.99055576  124.16500092    0.25000000    2.69000006
   14.99388885  114.70600128    0.25000000    2.69000006
   14.99694443  125.46499634    0.25000000    2.69000006
   15.00027752  119.94000244    0.25000000    2.69000006
   15.00361156  124.03800201    0.25000000    2.71000004
   15.00666714  119.77600098    0.25000000    2.69000006
   15.01277733  119.77600098    0.25000000    2.69000006
   15.01694393  118.37400055    0.25000000    2.69000006
   15.01999950  125.15599823    0.25000000    2.69000006
   15.02333355  121.34799957    0.25000000    2.69000006
   15.02666664  127.30500031    0.25000000    2.69000006
   15.02972221  114.07700348    0.25000000    2.69000006
   15.03305531  117.52799988    0.25000000    2.67000008
   15.03638935  114.34799957    0.25000000    2.67000008
   15.03944492  123.28800201    0.25000000    2.69000006
   15.04277802  123.29699707    0.25000000    2.69000006
   15.04361153  113.85900116    0.25000000    2.69000006
   15.04638958  124.65000153    0.25000000    2.71000004
   15.04972267  114.18699646    0.25000000    2.71000004
   15.05555534  114.18699646    0.25000000    2.69000006
   15.05972195  116.43599701    0.25000000    2.71000004
   15.06305599  132.50900269    0.25000000    2.71000004
   15.06611156  118.45300293    0.25000000    2.69000006
   15.06944466  117.18499756    0.25000000    2.69000006
   15.07277775  116.42400360    0.25000000    2.69000006
   15.07583332  120.68299866    0.25000000    2.69000006
   15.07694435  120.41300201    0.25000000    2.69000006
   15.07944393  126.22399902    0.25000000    2.69000006
   15.08277798  119.76399994    0.25000000    2.71000004
   15.08583260  118.13899994    0.25000000    2.71000004
   15.08916664  121.80699921    0.25000000    2.69000006
   15.09222221  111.41100311    0.25000000    2.71000004
   15.09833336  111.41100311    0.25000000    2.69000006
   15.10249996  117.57700348    0.25000000    2.69000006
   15.10583401  120.88700104    0.25000000    2.69000006
   15.10916710  115.19599915    0.25000000    2.69000006
   15.11055565  118.66899872    0.23000000    2.69000006
   15.11277771  121.44300079    0.23000000    2.69000006
   15.11583328  121.75299835    0.23000000    2.69000006
   15.11916637  113.23000336    0.23000000    2.71000004
   15.12222195  124.05000305    0.25000000    2.69000006
   15.12555599  113.07800293    0.23000000    2.71000004
   15.12888908  120.32499695    0.23000000    2.71000004
   15.13194466  120.09600067    0.23000000    2.71000004
   15.13527775  130.75700378    0.25000000    2.71000004
   15.14138889  130.75700378    0.23000000    2.69000006
   15.15972137  119.57499695    0.23000000    2.71000004
   15.16305542  124.35800171    0.23000000    2.71000004
   15.16611099  115.63700104    0.23000000    2.71000004
   15.16944504  116.05100250    0.23000000    2.69000006
   15.17277813  110.32700348    0.25999999    2.69000006
   15.17583370  117.58899689    0.25000000    2.69000006
   15.17916679  113.69699860    0.25000000    2.69000006
   15.18444443  113.69699860    0.23000000    2.71000004
   15.18861103  116.91500092    0.23000000    2.71000004
   15.19166660  110.67400360    0.23000000    2.71000004
   15.19277763  122.29499817    0.23000000    2.71000004
   15.19555569  114.80400085    0.25000000    2.71000004
   15.19861126  112.90499878    0.23000000    2.71000004
   15.20194435  111.68499756    0.23000000    2.71000004
   15.20499992  119.73999786    0.25000000    2.71000004
   15.20833302  122.32499695    0.25000000    2.71000004
   15.21166611  114.39700317    0.25000000    2.71000004
   15.21472168  109.37500000    0.25000000    2.71000004
   15.21805477  110.95400238    0.25000000    2.71000004
   15.22138882  112.16000366    0.25000000    2.71000004
   15.22722149  112.16000366    0.25000000    2.71000004
   15.23138809  118.40699768    0.25999999    2.71000004
   15.23472214  123.57700348    0.25999999    2.71000004
   15.23777771  113.53500366    0.25000000    2.69000006
   15.24111176  116.54699707    0.25000000    2.71000004
   15.24416733  109.33100128    0.25000000    2.71000004
   15.24750042  113.23100281    0.25000000    2.71000004
   15.25083351  109.56500244    0.25000000    2.71000004
   15.25388908  111.44499969    0.25999999    2.71000004
   15.25722218  116.21800232    0.25999999    2.71000004
   15.25944424  108.82099915    0.28000000    2.71000004
   15.26083374  128.16000366    0.28000000    2.71000004
   15.26416683  112.45500183    0.25999999    2.71000004
   15.26999950  112.45500183    0.25999999    2.71000004
   15.27416611  105.16200256    0.28000000    2.71000004
   15.27750015  106.68399811    0.31999999    2.71000004
   15.28055573  112.37999725    0.25999999    2.71000004
   15.28388977  108.17500305    0.25000000    2.71000004
   15.28722286  109.24099731    0.25000000    2.71000004
   15.29027843  104.68099976    0.23000000    2.71000004
   15.29277802  114.07399750    0.23000000    2.69000006
   15.29416752  105.15000153    0.23000000    2.69000006
   15.29722309  107.25900269    0.23000000    2.71000004
   15.30055618  109.81199646    0.25000000    2.71000004
   15.30361176  114.69899750    0.25000000    2.71000004
   15.30694485  112.45999908    0.25000000    2.71000004
   15.31305599  112.45999908    0.28000000    2.71000004
   15.31694412  109.21800232    0.28000000    2.71000004
   15.32027817  110.58899689    0.28000000    2.71000004
   15.32361126  107.69599915    0.28000000    2.71000004
   15.32611084  109.18900299    0.28000000    2.71000004
   15.32722187  112.17500305    0.28000000    2.71000004
   15.33027744  107.86199951    0.28000000    2.71000004
   15.33361053  115.67199707    0.25999999    2.71000004
   15.33694458  110.28399658    0.25999999    2.71000004
   15.34000015  108.93599701    0.28000000    2.71000004
   15.34333324  104.90599823    0.28000000    2.71000004
   15.34638882  108.69000244    0.28000000    2.71000004
   15.34972191  110.05400085    0.25999999    2.71000004
   15.35583401  110.05400085    0.25999999    2.71000004
   15.36000061  101.69400024    0.25999999    2.71000004
   15.36305618  105.63600159    0.25999999    2.71000004
   15.36638927  101.74500275    0.25000000    2.71000004
   15.36972237   99.57720184    0.25999999    2.71000004
   15.37277794  105.07099915    0.25999999    2.71000004
   15.37611103  105.68900299    0.25999999    2.69000006
   15.37916660   95.69709778    0.25999999    2.71000004
   15.38249969  106.11399841    0.25000000    2.71000004
   15.38583279  103.74600220    0.23000000    2.71000004
   15.38888836  105.43499756    0.23000000    2.71000004
   15.39222240  104.35399628    0.23000000    2.71000004
   15.39277744   99.19670105    0.23000000    2.71000004
   15.39861107   99.19670105    0.23000000    2.71000004
   15.40277767  103.34700012    0.25000000    2.71000004
   15.40583324  107.04299927    0.23000000    2.71000004
   15.40916634  107.55400085    0.23000000    2.69000006
   15.41249943  101.91899872    0.23000000    2.71000004
   15.41583252  110.17600250    0.23000000    2.71000004
   15.50944424   -1.00000000   -1.00000000   -1.00000000
   15.66972256   -1.00000000   -1.00000000   -1.00000000
   15.77583313   -1.00000000   -1.00000000   -1.00000000
   15.79416752   67.46060181    0.25999999    2.71000004
   15.79750061  103.36000061    0.28000000    2.71000004
   15.80055618  101.30300140    0.28000000    2.71000004
   15.80388927  102.49700165    0.28000000    2.71000004
   15.80722237  105.43199921    0.28000000    2.71000004
   15.81027794   99.83570099    0.28000000    2.71000004
   15.81444454   99.83570099    0.28000000    2.71000004
   15.81861115  107.51499939    0.28000000    2.71000004
   15.82194424  101.39099884    0.28000000    2.71000004
   15.82499981   95.01290131    0.30000001    2.71000004
   15.82750034  100.24500275    0.30000001    2.71000004
   15.82888889   98.75920105    0.30000001    2.71000004
   15.83194447  101.30899811    0.30000001    2.71000004
   15.83527756  100.01200104    0.28000000    2.71000004
   15.83861065   98.27639771    0.28000000    2.71000004
   15.84166622  100.62599945    0.28000000    2.71000004
   15.84499931  101.22899628    0.25999999    2.71000004
   15.84833336   98.46440125    0.25999999    2.71000004
   15.85138893  101.35099792    0.25000000    2.71000004
   15.85722256  101.35099792    0.25000000    2.71000004
   15.86138916   95.91809845    0.25999999    2.71000004
   15.86472225   98.41049957    0.25999999    2.71000004
   15.86805534   98.37059784    0.25999999    2.71000004
   15.87111092   93.06420135    0.25999999    2.71000004
   15.87444496   94.02290344    0.25999999    2.71000004
   15.87750053   93.68869781    0.28000000    2.71000004
   15.88083363   93.73090363    0.25000000    2.71000004
   15.88416672   99.73960114    0.25999999    2.71000004
   15.88722229   91.91259766    0.25999999    2.73000002
   15.89055538  105.79699707    0.25999999    2.71000004
   15.89388847   97.21189880    0.25999999    2.71000004
   15.89416695   94.47679901    0.25999999    2.71000004
   15.90027714   94.47679901    0.25000000    2.71000004
   15.90444374   98.25990295    0.25999999    2.71000004
   15.90749931   97.07309723    0.28000000    2.73000002
   15.91083336   99.29750061    0.25999999    2.73000002
   15.91388893   94.54190063    0.28000000    2.71000004
   15.91722298   99.57980347    0.25999999    2.73000002
   15.92055607   99.62870026    0.25999999    2.71000004
   15.92361164   92.08609772    0.25999999    2.71000004
   15.92694473   94.75659943    0.25999999    2.71000004
   15.92777824   94.52349854    0.25999999    2.73000002
   15.93055630   93.72769928    0.25999999    2.71000004
   15.93388939   96.71450043    0.25999999    2.71000004
   15.93694496   95.04959869    0.25999999    2.71000004
   15.94305515   95.04959869    0.25999999    2.71000004
   15.94722271   91.56800079    0.25000000    2.71000004
   15.95027733   92.80290222    0.25000000    2.71000004
   15.95361137   89.62699890    0.25000000    2.71000004
   15.95694447   94.24939728    0.25000000    2.73000002
   15.96000004   90.21199799    0.25000000    2.71000004
   15.96111107   89.97250366    0.25000000    2.71000004
   15.96361065   94.18209839    0.25000000    2.73000002
   15.96694374   90.32469940    0.25000000    2.73000002
   15.96999931   92.51419830    0.25000000    2.73000002
   15.97333336   91.78869629    0.25999999    2.71000004
   15.97666645   85.84040070    0.25999999    2.71000004
   15.97972202   90.54070282    0.25999999    2.71000004
   15.98583317   90.54070282    0.25999999    2.71000004
   15.99000072   92.85820007    0.25000000    2.71000004
   15.99333382   90.77269745    0.25000000    2.71000004
   15.99444485   91.60169983    0.23000000    2.71000004
   15.99694443   86.89350128    0.25000000    2.73000002
   16.00027847   88.16239929    0.25000000    2.73000002
   16.00361061   91.35279846    0.25000000    2.71000004
   16.00666618   92.91840363    0.25000000    2.71000004
   16.01000023   92.54280090    0.25000000    2.71000004
   16.01305580   87.84100342    0.25000000    2.71000004
   16.01638794   93.23400116    0.25000000    2.71000004
   16.01972198   92.96430206    0.25000000    2.71000004
   16.02277756   91.16429901    0.25000000    2.71000004
   16.02861023   91.16429901    0.25000000    2.73000002
   16.03277779   88.93190002    0.25000000    2.73000002
   16.03610992   84.03780365    0.23000000    2.71000004
   16.03944397   87.58419800    0.25000000    2.73000002
   16.04249954   85.52700043    0.23000000    2.73000002
   16.04583359   88.48650360    0.23000000    2.71000004
   16.04888916   83.98829651    0.25999999    2.71000004
   16.05222130   87.70619965    0.25000000    2.73000002
   16.05555534   85.04679871    0.25000000    2.71000004
   16.05861092   85.28199768    0.25000000    2.71000004
   16.06110954   82.84739685    0.25000000    2.73000002
   16.06222153   85.27159882    0.25000000    2.73000002
   16.06555557   83.84770203    0.25000000    2.71000004
   16.07166672   83.84770203    0.25000000    2.71000004
   16.07583427   89.75789642    0.25000000    2.71000004
   16.07888985   90.96099854    0.25000000    2.71000004
   16.08222389   86.81369781    0.25000000    2.71000004
   16.08527756   88.66040039    0.25000000    2.71000004
   16.08861160   90.88030243    0.25000000    2.71000004
   16.09194565   89.58399963    0.25000000    2.71000004
   16.09444427   91.49939728    0.25000000    2.71000004
   16.09555626   93.12480164    0.25000000    2.71000004
   16.09889030   89.89399719    0.25000000    2.73000002
   16.10222244   92.00060272    0.25000000    2.71000004
   16.10527802   91.83560181    0.25000000    2.71000004
   16.10861206   91.37200165    0.25999999    2.71000004
   16.11444473   91.37200165    0.30000001    2.71000004
   16.11861038   91.03970337    0.28000000    2.71000004
   16.12166595   91.54010010    0.34000000    2.71000004
   16.12500000   87.10500336    0.31999999    2.71000004
   16.12777710   87.35679626    0.30000001    2.71000004
   16.12861061   85.92220306    0.25999999    2.71000004
   16.13194466   84.93009949    0.28000000    2.71000004
   16.13527679   89.34960175    0.28000000    2.71000004
   16.13861084   84.17880249    0.25999999    2.71000004
   16.14166641   85.64320374    0.25999999    2.71000004
   16.14500046   86.02610016    0.25000000    2.71000004
   16.14833260   85.54350281    0.25000000    2.71000004
   16.15138817   88.99279785    0.25000000    2.71000004
   16.15722275   88.99279785    0.25000000    2.73000002
   16.16138840   80.04460144    0.25000000    2.73000002
   16.16472244   85.16269684    0.25000000    2.71000004
   16.16777802   84.42720032    0.25000000    2.73000002
   16.17111015   84.09359741    0.25000000    2.71000004
   16.17444420   83.64530182    0.25000000    2.71000004
   16.17749977   88.29920197    0.25000000    2.71000004
   16.18083191   85.55169678    0.23000000    2.71000004
   16.18388748   73.15709686    0.23000000    2.71000004
   16.18722153   85.26300049    0.23000000    2.71000004
   16.19055557   94.22609711    0.23000000    2.73000002
   16.19361115   82.75209808    0.23000000    2.73000002
   16.19444275   83.88220215    0.23000000    2.73000002
   16.20000076   83.88220215    0.23000000    2.71000004
   16.20416832   88.30619812    0.23000000    2.73000002
   16.20750046   72.32039642    0.23000000    2.71000004
   16.21083450   85.44909668    0.25000000    2.73000002
   16.21389008   77.43900299    0.23000000    2.71000004
   16.21722221   80.61499786    0.23000000    2.73000002
   16.22055626   81.79019928    0.23000000    2.73000002
   16.22361183   80.84310150    0.23000000    2.71000004
   16.22694588   81.79299927    0.23000000    2.73000002
   16.22777748   86.38520050    0.23000000    2.71000004
   16.23055649   81.87370300    0.23000000    2.71000004
   16.23388863   75.92579651    0.23000000    2.73000002
   16.23722267   78.92410278    0.23000000    2.71000004
   16.24305534   78.92410278    0.23000000    2.71000004
   16.24722290   82.21739960    0.23000000    2.71000004
   16.25027847   82.84429932    0.23000000    2.71000004
   16.25361061   82.94480133    0.23000000    2.71000004
   16.25666618   82.13520050    0.23000000    2.73000002
   16.26000023   82.87640381    0.23000000    2.71000004
   16.26111031   80.74600220    0.23000000    2.71000004
   16.26361084   80.30509949    0.23000000    2.71000004
   16.26694489   85.21320343    0.23000000    2.71000004
   16.27027702   82.43180084    0.23000000    2.71000004
   16.27333260   86.13120270    0.25000000    2.71000004
   16.27666664   83.30660248    0.23000000    2.73000002
   16.27972221   82.18470001    0.23000000    2.73000002
   16.28583336   82.18470001    0.23000000    2.73000002
   16.28999901   82.13590240    0.23000000    2.71000004
   16.29305458   81.92489624    0.23000000    2.73000002
   16.29444313   81.37500000    0.23000000    2.73000002
   16.29666710   83.25740051    0.23000000    2.71000004
   16.29999924   83.85099792    0.23000000    2.71000004
   16.30333328   81.82099915    0.23000000    2.71000004
   16.30666542   89.11150360    0.23000000    2.73000002
   16.30972099   84.81539917    0.23000000    2.73000002
   16.31305504   88.78700256    0.23000000    2.71000004
   16.31611061   88.74569702    0.23000000    2.73000002
   16.31944466   95.03970337    0.23000000    2.73000002
   16.32277870   82.86150360    0.23000000    2.73000002
   16.32861137   82.86150360    0.25000000    2.71000004
   16.33277893   80.24590302    0.23000000    2.73000002
   16.33611107   82.28630066    0.23000000    2.73000002
   16.33916664   78.18849945    0.23000000    2.73000002
   16.34250069   78.97920227    0.25000000    2.71000004
   16.34583473   81.83380127    0.23000000    2.71000004
   16.34889030   81.44860077    0.25000000    2.73000002
   16.35222244   83.94020081    0.25000000    2.73000002
   16.35555649   82.19210052    0.25000000    2.71000004
   16.35861206   83.29000092    0.25000000    2.71000004
   16.36111069   82.26540375    0.25999999    2.73000002
   16.36222267   82.92469788    0.25999999    2.73000002
   16.36555672   81.47480011    0.25000000    2.73000002
   16.37138939   81.47480011    0.25000000    2.73000002
   16.37555504   85.85019684    0.25000000    2.73000002
   16.37888908   85.26699829    0.23000000    2.73000002
   16.38194466   81.94120026    0.25000000    2.71000004
   16.38527679   80.67669678    0.23000000    2.71000004
   16.38861084   81.92620087    0.23000000    2.73000002
   16.39194489   81.36450195    0.25000000    2.73000002
   16.39444351   84.22219849    0.25000000    2.71000004
   16.39527702   82.99320221    0.23000000    2.71000004
   16.39861107   82.14289856    0.25000000    2.73000002
   16.40194321   85.15769958    0.23000000    2.71000004
   16.40499878   88.84390259    0.23000000    2.73000002
   16.40833282   80.13680267    0.25000000    2.73000002
   16.41444397   80.13680267    0.25000000    2.73000002
   16.41833305   83.54740143    0.23000000    2.73000002
   16.42166519   84.85140228    0.23000000    2.71000004
   16.42499924   81.94339752    0.23000000    2.73000002
   16.42777634   81.13549805    0.25000000    2.73000002
   16.42833328   80.99130249    0.25000000    2.73000002
   16.43166542   82.86720276    0.23000000    2.73000002
   16.43499947   79.95690155    0.25000000    2.73000002
   16.43805504   82.22149658    0.25000000    2.73000002
   16.44138718   80.37870026    0.23000000    2.73000002
   16.44472122   82.00879669    0.25000000    2.73000002
   16.44777679   83.86930084    0.25000000    2.73000002
   16.45111275   79.12940216    0.23000000    2.73000002
   16.45722389   79.12940216    0.23000000    2.73000002
   16.46138954   86.34459686    0.25000000    2.73000002
   16.46472359   81.07730103    0.23000000    2.73000002
   16.46805573   84.60250092    0.23000000    2.71000004
   16.47111130   84.19879913    0.23000000    2.73000002
   16.47444534   81.23650360    0.23000000    2.73000002
   16.47750092   81.16419983    0.23000000    2.71000004
   16.48083305   84.23100281    0.23000000    2.73000002
   16.48416710   84.29850006    0.23000000    2.73000002
   16.48722267   80.66040039    0.23000000    2.73000002
   16.49055672   82.83730316    0.23000000    2.71000004
   16.49388885   83.03330231    0.23000000    2.71000004
   16.49444389   80.64810181    0.23000000    2.73000002
   16.50000000   80.64810181    0.23000000    2.73000002
   16.50416756   87.02300262    0.23000000    2.73000002
   16.50749969   82.66059875    0.23000000    2.73000002
   16.51055527   81.60769653    0.23000000    2.73000002
   16.51388931   84.21430206    0.23000000    2.73000002
   16.51722145   79.39589691    0.23000000    2.71000004
   16.52027702   81.85240173    0.23000000    2.71000004
   16.52361107   84.86380005    0.23000000    2.73000002
   16.52666664   81.95179749    0.23000000    2.73000002
   16.52777672   80.71219635    0.23000000    2.73000002
   16.53027725   79.86779785    0.23000000    2.73000002
   16.53361130   81.79940033    0.23000000    2.71000004
   16.53694344   80.01149750    0.23000000    2.71000004
   16.54277802   80.01149750    0.23000000    2.73000002
   16.54694366   80.59799957    0.23000000    2.73000002
   16.55027771   80.26909637    0.25000000    2.73000002
   16.55360985   79.61139679    0.25999999    2.73000002
   16.55666542   79.28690338    0.25999999    2.73000002
   16.55999947   80.15090179    0.25999999    2.73000002
   16.56110954   77.08360291    0.28000000    2.73000002
   16.56333351   77.19730377    0.28000000    2.73000002
   16.56666756   80.68830109    0.28000000    2.73000002
   16.57000160   77.58170319    0.28000000    2.73000002
   16.57305717   77.32910156    0.25999999    2.73000002
   16.57638931   78.12989807    0.25999999    2.73000002
   16.57972336   76.94589996    0.25000000    2.73000002
   16.58583450   76.94589996    0.25000000    2.73000002
   16.58972359   81.70429993    0.25000000    2.71000004
   16.59305573   78.61499786    0.25000000    2.71000004
   16.59444427   78.93000031    0.25000000    2.73000002
   16.59694481   74.98629761    0.25000000    2.73000002
   16.60000038   80.75990295    0.25000000    2.73000002
   16.60333443   81.49349976    0.23000000    2.73000002
   16.60639000   75.55480194    0.25000000    2.73000002
   16.60972214   75.36280060    0.25000000    2.73000002
   16.61305618   79.91850281    0.25000000    2.73000002
   16.61611176   80.63780212    0.25000000    2.73000002
   16.61944389   79.41030121    0.25000000    2.73000002
   16.62277794   83.69730377    0.25000000    2.73000002
   16.62861061   83.69730377    0.23000000    2.73000002
   16.63277817   80.65979767    0.25999999    2.71000004
   16.63583374   82.60959625    0.25000000    2.73000002
   16.63916588   78.83640289    0.25000000    2.73000002
   16.64249992   79.82659912    0.25000000    2.73000002
   16.64555550   77.88950348    0.25000000    2.73000002
   16.64888954   77.46289825    0.25000000    2.73000002
   16.65222168   82.74369812    0.25000000    2.71000004
   16.65555573   77.28890228    0.23000000    2.73000002
   16.65861130   76.86389923    0.25000000    2.73000002
   16.66110992   78.98229980    0.25000000    2.73000002
   16.66222191   80.40799713    0.25000000    2.73000002
   16.66555595   80.11750031    0.25000000    2.73000002
   16.67138863   80.11750031    0.25000000    2.73000002
   16.67555428   82.33229828    0.25000000    2.73000002
   16.67888832   79.20549774    0.25000000    2.73000002
   16.68194389   79.10379791    0.25999999    2.73000002
   16.68527603   79.05899811    0.25000000    2.73000002
   16.68833160   77.55239868    0.25000000    2.73000002
   16.69166565   79.98349762    0.25000000    2.73000002
   16.69444275   77.84159851    0.25999999    2.73000002
   16.69555473   79.24759674    0.25999999    2.73000002
   16.69861031   77.82029724    0.25000000    2.73000002
   16.70194435   77.65650177    0.25999999    2.73000002
   16.70499992   80.68769836    0.28000000    2.73000002
   16.70833397   79.48059845    0.25999999    2.73000002
   16.71416664   79.48059845    0.25999999    2.73000002
   16.71833420   77.50340271    0.25999999    2.73000002
   16.72166634   80.18419647    0.28000000    2.73000002
   16.72500038   80.13649750    0.31999999    2.73000002
   16.72777748   82.66590118    0.36000001    2.73000002
   16.72861099   79.33969879    0.36000001    2.73000002
   16.73194504   83.75389862    0.34000000    2.73000002
   16.73527718   79.43329620    0.31999999    2.73000002
   16.73861122   79.15940094    0.31999999    2.75000000
   16.74166679   79.34320068    0.31999999    2.73000002
   16.74500084   77.96700287    0.31999999    2.73000002
   16.74805641   85.07790375    0.36000001    2.73000002
   16.75138855   82.43939972    0.31999999    2.73000002
   16.75722313   82.43939972    0.31999999    2.73000002
   16.76111031   74.84970093    0.30000001    2.73000002
   16.76444435   83.47139740    0.30000001    2.73000002
   16.76777840   78.71929932    0.30000001    2.73000002
   16.77083397   79.99420166    0.30000001    2.73000002
   16.77416611   76.43419647    0.30000001    2.73000002
   16.77750015   79.01770020    0.28000000    2.73000002
   16.78055573   79.10260010    0.25999999    2.73000002
   16.78388786   80.80380249    0.25000000    2.75000000
   16.78694344   78.82599640    0.25000000    2.73000002
   16.79027748   78.94100189    0.25000000    2.73000002
   16.79361153   75.31809998    0.25000000    2.73000002
   16.79444313   86.92089844    0.25000000    2.73000002
   16.81527710   86.92089844    0.25999999    2.73000002
   16.81916809  116.80100250    0.25999999    2.75000000
   16.82250023  119.59600067    0.25999999    2.73000002
   16.82583427  119.19499969    0.25999999    2.73000002
   16.82777786  116.14900208    0.25999999    2.73000002
   16.82944489  112.87300110    0.25999999    2.73000002
   16.83250046  116.15299988    0.28000000    2.73000002
   16.83583450  119.80400085    0.25000000    2.73000002
   16.83889008  109.75900269    0.25000000    2.73000002
   16.84222221  106.38899994    0.25999999    2.73000002
   16.84555626  115.89399719    0.25999999    2.73000002
   16.84861183  119.87400055    0.36000001    2.73000002
   16.85194397  115.43099976    0.36000001    2.73000002
   16.85805511  115.43099976    0.36000001    2.73000002
   16.86222267  106.74099731    0.30000001    2.73000002
   16.86555672  116.48100281    0.36000001    2.73000002
   16.86861038  113.56999969    0.40000001    2.73000002
   16.87194443  118.15899658    0.31999999    2.73000002
   16.87500000  112.44000244    0.31999999    2.73000002
   16.87833405  124.61499786    0.38000000    2.73000002
   16.88166618  116.65799713    0.52999997    2.75000000
   16.88472176  122.15100098    0.52999997    2.73000002
   16.88805580  118.62400055    0.44000000    2.73000002
   16.89138794  111.02799988    0.38000000    2.73000002
   16.89444351  119.27400208    0.34000000    2.73000002
   16.89500046  113.10800171    0.34000000    2.73000002
   16.90083313  113.10800171    0.40000001    2.73000002
   16.90499878  118.94300079    0.40000001    2.73000002
   16.90805435  118.14099884    0.36000001    2.73000002
   16.91138840  116.91200256    0.36000001    2.73000002
   16.91444397  119.87799835    0.38000000    2.73000002
   16.91777802  114.87300110    0.38000000    2.73000002
   16.92111015  118.43599701    0.36000001    2.73000002
   16.92416573  121.39399719    0.38000000    2.73000002
   16.92749977  116.61000061    0.38000000    2.73000002
   16.92805481  112.00499725    0.38000000    2.73000002
   16.93138885  109.76999664    0.40000001    2.73000002
   16.93444443  118.52100372    0.40000001    2.73000002
   16.93777657  118.10199738    0.40000001    2.73000002
   16.94361115  118.10199738    0.44000000    2.73000002
   16.94777679  112.98699951    0.40000001    2.73000002
   16.95083427  120.19799805    0.30000001    2.75000000
   16.95416832  116.66600037    0.30000001    2.75000000
   16.95750046  118.28900146    0.34000000    2.73000002
   16.96055603  112.40200043    0.41999999    2.73000002
   16.96138954  113.10299683    0.41999999    2.73000002
   16.96444511  113.29399872    0.38000000    2.73000002
   16.96750069  116.99299622    0.41999999    2.73000002
   16.97083473  114.74199677    0.40000001    2.73000002
   16.97389030  109.72899628    0.36000001    2.73000002
   16.97722244  116.76300049    0.31999999    2.73000002
   16.98055649  117.32599640    0.36000001    2.73000002
   16.98638916  117.32599640    0.31999999    2.73000002
   16.99055672  118.05200195    0.31999999    2.73000002
   16.99388885  117.31700134    0.30000001    2.73000002
   16.99472237  114.25499725    0.34000000    2.73000002
   16.99749947  114.49199677    0.34000000    2.73000002
   17.00055504  111.54799652    0.34000000    2.73000002
   17.00388908  115.57299805    0.34000000    2.73000002
   17.00694466  105.54599762    0.38000000    2.73000002
   17.01027870  114.08000183    0.38000000    2.73000002
   17.01361084  120.99099731    0.38000000    2.75000000
   17.01666641  107.71299744    0.36000001    2.73000002
   17.02000046  111.00900269    0.34000000    2.73000002
   17.02333260  119.51599884    0.34000000    2.73000002
   17.02916718  119.51599884    0.31999999    2.75000000
   17.03333282  108.25900269    0.30000001    2.73000002
   17.03666687  113.27999878    0.30000001    2.73000002
   17.03972244  116.59300232    0.30000001    2.73000002
   17.04305458  109.88600159    0.28000000    2.73000002
   17.04638863  111.74600220    0.30000001    2.73000002
   17.04944420  113.03900146    0.28000000    2.75000000
   17.05277634  117.72000122    0.28000000    2.75000000
   17.05611038  107.33599854    0.25999999    2.75000000
   17.05916595  109.78800201    0.25999999    2.73000002
   17.06138802  112.58200073    0.25999999    2.73000002
   17.06305504  111.70400238    0.25999999    2.73000002
   17.06611061  113.38200378    0.25999999    2.73000002
   17.07222366  113.38200378    0.25999999    2.73000002
   17.07611275  116.18000031    0.25999999    2.73000002
   17.07944489  110.16799927    0.25999999    2.73000002
   17.08277893  110.62000275    0.25999999    2.73000002
   17.08583450  106.49099731    0.25999999    2.73000002
   17.08916664  118.09200287    0.25999999    2.73000002
   17.09250069  112.65000153    0.25999999    2.73000002
   17.09472275  115.20500183    0.25999999    2.73000002
   17.09611130  115.34400177    0.25999999    2.73000002
   17.09916687  119.12799835    0.28000000    2.73000002
   17.10250092  114.30599976    0.30000001    2.73000002
   17.10555649  116.20500183    0.28000000    2.73000002
   17.10888863  114.68499756    0.28000000    2.75000000
   17.11499977  114.68499756    0.30000001    2.73000002
   17.11916733  118.18599701    0.31999999    2.73000002
   17.12222290  112.61399841    0.31999999    2.73000002
   17.12555504  112.33699799    0.31999999    2.73000002
   17.12805557  113.52400208    0.31999999    2.73000002
   17.12916756  113.16200256    0.34000000    2.73000002
   17.13222313  113.59300232    0.34000000    2.73000002
   17.13555527  120.82800293    0.30000001    2.73000002
   17.13861084  121.57399750    0.30000001    2.73000002
   17.14194489  111.89199829    0.30000001    2.75000000
   17.14527702  106.20999908    0.31999999    2.73000002
   17.14861107  115.47000122    0.30000001    2.73000002
   17.15166664  115.24800110    0.30000001    2.73000002
   17.15777779  115.24800110    0.30000001    2.75000000
   17.16194344  115.25399780    0.31999999    2.73000002
   17.16527748  116.95099640    0.31999999    2.75000000
   17.16833305  115.85700226    0.31999999    2.75000000
   17.17166519  123.21399689    0.30000001    2.73000002
   17.17472076  135.92199707    0.30000001    2.73000002
   17.17805481  137.32099915    0.30000001    2.73000002
   17.18138885  141.02699280    0.28000000    2.73000002
   17.18444443  154.43800354    0.28000000    2.75000000
   17.18777657  168.18899536    0.28000000    2.73000002
   17.19111061  182.40100098    0.28000000    2.73000002
   17.19416618  207.10600281    0.28000000    2.73000002
   17.19472122  195.02999878    0.28000000    2.73000002
   17.20055580  195.02999878    0.28000000    2.73000002
   17.20472336  383.57501221    0.30000001    2.73000002
   17.20805550  378.29901123    0.30000001    2.73000002
   17.21111107  148.71800232    0.30000001    2.73000002
   17.21444511  108.98500061    0.31999999    2.73000002
   17.21777916   49.50080109    0.31999999    2.73000002
   17.22083473   -1.00000000    0.36000001    2.73000002
   17.22416687   -1.00000000    0.36000001    2.73000002
   17.22750092   -1.00000000    0.41999999    2.73000002
   17.23111153   -1.00000000    0.41999999    2.73000002
   17.23416710   -1.00000000    0.40000001    2.73000002
   17.23750114   -1.00000000    0.40000001    2.75000000
   17.24749947   -1.00000000    0.40000001    2.73000002
   17.25083351   -1.00000000    0.40000001    2.73000002
   17.25388908   -1.00000000    0.41999999    2.73000002
   17.25722313   -1.00000000    0.41999999    2.73000002
   17.26055527   -1.00000000    0.40000001    2.73000002
   17.26416588   -1.00000000    0.40000001    2.73000002
   17.26722145   -1.00000000    0.38000000    2.75000000
   17.27055550   -1.00000000    0.34000000    2.73000002
   17.27361107   -1.00000000    0.34000000    2.73000002
   17.27694511   -1.00000000    0.31999999    2.73000002
   17.28027725   -1.00000000    0.30000001    2.73000002
   17.29027748   -1.00000000    0.31999999    2.73000002
   17.29361153   -1.00000000    0.31999999    2.75000000
   17.29694366   -1.00000000    0.31999999    2.75000000
   17.30027771   -1.00000000    0.31999999    2.75000000
   17.30360985   -1.00000000    0.31999999    2.73000002
   17.30666542   -1.00000000    0.31999999    2.75000000
   17.30999947   -1.00000000    0.31999999    2.73000002
   17.31333351   -1.00000000    0.31999999    2.73000002
   17.31638718   -1.00000000    0.31999999    2.73000002
   17.31972313   -1.00000000    0.31999999    2.73000002
   17.32277870   -1.00000000    0.31999999    2.73000002
   17.33333397   -1.00000000    0.34000000    2.73000002
   17.33638954   -1.00000000    0.40000001    2.73000002
   17.33972359   -1.00000000    0.41999999    2.75000000
   17.34305573   -1.00000000    0.40000001    2.73000002
   17.34611130   -1.00000000    0.46000001    2.73000002
   17.34944534   -1.00000000    0.44000000    2.73000002
   17.35250092  111.02600098    0.47999999    2.73000002
   17.35583305  114.67400360    0.50000000    2.73000002
   17.35916710  112.04900360    0.50000000    2.71000004
   17.36138916  116.80200195    0.51999998    2.71000004
   17.36277771  116.06300354    0.51999998    2.71000004
   17.36583328  119.51899719    0.55000001    2.73000002
   17.37194443  119.51899719    0.51999998    2.73000002
   17.37611198  123.53399658    0.64999998    2.73000002
   17.37944412  118.22200012    0.64999998    2.73000002
   17.38249969  118.16500092    0.70999998    2.73000002
   17.38583374  119.38300323    0.76999998    2.73000002
   17.38916588  124.91899872    0.80000001    2.73000002
   17.39222145  118.63899994    0.80000001    2.73000002
   17.39472198  118.68499756    0.80000001    2.73000002
   17.39611053  115.02400208    0.73000002    2.73000002
   17.39916611  114.92199707    0.69000000    2.75000000
   17.40250015  124.77300262    0.73000002    2.73000002
   17.40583229  115.27200317    0.75000000    2.71000004
   17.40888786  119.26699829    0.67000002    2.73000002
   17.41499901  119.26699829    0.69000000    2.71000004
   17.41888809  114.95200348    0.75000000    2.73000002
   17.42222214  114.68000031    0.75000000    2.73000002
   17.42555428  110.81099701    0.75000000    2.73000002
   17.42805481  118.45500183    0.75000000    2.73000002
   17.42916679  118.64600372    0.75000000    2.73000002
   17.43249893  112.27300262    0.76999998    2.73000002
   17.43555450  115.44499969    0.75000000    2.73000002
   17.43888855  121.98799896    0.73000002    2.71000004
   17.44194412  118.60299683    0.75000000    2.73000002
   17.44527626  118.32399750    0.73000002    2.71000004
   17.44861031  119.49299622    0.67000002    2.73000002
   17.45166779  121.78099823    0.61000001    2.71000004
   17.45777893  121.78099823    0.56999999    2.73000002
   17.46194458  127.12799835    0.55000001    2.73000002
   17.46500015  117.81300354    0.52999997    2.73000002
   17.46833420  116.17600250    0.50000000    2.73000002
   17.47166634  117.16200256    0.47999999    2.73000002
   17.47472191  113.80500031    0.47999999    2.73000002
   17.47805595  110.56700134    0.52999997    2.73000002
   17.48111153  115.17800140    0.63000000    2.73000002
   17.48444557  115.25599670    0.73000002    2.75000000
   17.48777771  110.77500153    0.73000002    2.75000000
   17.49083328  113.98899841    0.75000000    2.73000002
   17.49416733  112.24500275    0.73000002    2.73000002
   17.49472237  108.51000214    0.79000002    2.73000002
   17.50055504  108.51000214    0.95999998    2.71000004
   17.50472260  114.82299805    1.00000000    2.73000002
   17.50805473  110.62000275    0.94000000    2.73000002
   17.51111031  110.52200317    0.88000000    2.75000000
   17.51444435  111.91000366    0.86000001    2.73000002
   17.51749992  109.02100372    0.76999998    2.71000004
   17.52083397  118.45999908    0.79000002    2.71000004
   17.52416611  115.96099854    0.86000001    2.71000004
   17.52722168  115.47000122    0.86000001    2.73000002
   17.52805519  118.87400055    0.83999997    2.71000004
   17.53083229  118.41000366    0.76999998    2.73000002
   17.53416634  115.61000061    0.75000000    2.73000002
   17.53722191  115.16100311    0.73000002    2.73000002
   17.54333305  115.16100311    0.61000001    2.73000002
   17.54749870  112.26399994    0.61000001    2.73000002
   17.55083275  119.90000153    0.58999997    2.73000002
   17.55388832  115.31900024    0.55000001    2.73000002
   17.55722237  114.28800201    0.50000000    2.73000002
   17.56055450  121.78299713    0.50000000    2.73000002
   17.56138802  122.41200256    0.50000000    2.73000002
   17.56416512  118.56099701    0.46000001    2.73000002
   17.56750107  117.69400024    0.44000000    2.73000002
   17.57055664  114.57499695    0.44000000    2.73000002
   17.57389069  115.73799896    0.40000001    2.73000002
   17.57722282  119.07800293    0.38000000    2.73000002
   17.58027840  113.10299683    0.36000001    2.73000002
   17.58638954  113.10299683    0.34000000    2.73000002
   17.59027863  114.14399719    0.34000000    2.73000002
   17.59361267  118.91699982    0.69000000    2.71000004
   17.59472275  120.72100067    0.76999998    2.71000004
   17.59722328  117.73999786    0.79000002    2.71000004
   17.60055542  116.69100189    0.63000000    2.73000002
   17.60361099  126.92600250    0.56999999    2.71000004
   17.60694504  114.32199860    0.52999997    2.73000002
   17.61027908  124.38600159    0.52999997    2.73000002
   17.61361122  117.50499725    0.44000000    2.71000004
   17.61666679  114.86599731    0.44000000    2.71000004
   17.62000084  118.37200165    0.44000000    2.71000004
   17.62305641  114.04100037    0.55000001    2.73000002
   17.62916756  114.04100037    0.75000000    2.71000004
   17.63333321  120.08399963    0.79000002    2.73000002
   17.63638878  112.26499939    0.89999998    2.71000004
   17.63972282  120.94100189    0.94000000    2.71000004
   17.64305496  124.71099854    0.86000001    2.73000002
   17.64611053  121.83000183    0.80000001    2.71000004
   17.64944458  115.45200348    0.80000001    2.71000004
   17.65277672  118.33499908    0.81999999    2.71000004
   17.65583229  112.28099823    0.89999998    2.71000004
   17.65916634  117.77200317    0.88000000    2.71000004
   17.66138840  117.08000183    0.88000000    2.73000002
   17.66277695  115.63099670    0.88000000    2.73000002
   17.66611099  118.25299835    0.92000002    2.71000004
   17.67194366  118.25299835    1.00000000    2.73000002
   17.67611122  123.71399689    1.00000000    2.71000004
   17.67944336  124.46399689    0.80000001    2.71000004
   17.68249893  120.64499664    0.80000001    2.71000004
   17.68583298  119.70999908    0.79000002    2.71000004
   17.68888855  118.23699951    0.75000000    2.73000002
   17.69222069  111.19200134    0.76999998    2.71000004
   17.69472122  115.41500092    0.76999998    2.71000004
   17.69583321  114.87300110    0.76999998    2.71000004
   17.69916534  120.59500122    0.69000000    2.71000004
   17.70222282  124.88999939    0.67000002    2.73000002
   17.70555687  119.64099884    0.81999999    2.71000004
   17.70888901  116.77400208    0.81999999    2.71000004
   17.71472359  116.77400208    0.58999997    2.71000004
   17.71888924  120.88500214    0.55000001    2.71000004
   17.72222328  125.79799652    0.55000001    2.71000004
   17.72527885  117.57700348    0.50000000    2.73000002
   17.72805595  122.27200317    0.44000000    2.71000004
   17.72916794  124.08300018    0.44000000    2.71000004
   17.73250008  113.34200287    0.38000000    2.71000004
   17.73555565  115.30200195    0.36000001    2.71000004
   17.73888969  117.26799774    0.38000000    2.71000004
   17.74222183  111.04299927    0.38000000    2.71000004
   17.74527740  126.14600372    0.40000001    2.73000002
   17.74861145  119.37400055    0.40000001    2.73000002
   17.75194359  125.88700104    0.44000000    2.73000002
   17.75777817  125.88700104    0.46000001    2.71000004
   17.76166725  119.45400238    0.47999999    2.73000002
   17.76499939  119.74299622    0.44000000    2.71000004
   17.76833344  124.06999969    0.44000000    2.73000002
   17.77138901  118.45600128    0.47999999    2.73000002
   17.77472115  119.00000000    0.51999998    2.71000004
   17.77805519  114.44699860    0.52999997    2.71000004
   17.78111076  117.74400330    0.69000000    2.71000004
   17.78444481  118.01999664    0.70999998    2.71000004
   17.78750038  111.97200012    0.76999998    2.71000004
   17.79083252  119.14399719    0.79000002    2.71000004
   17.79416656  117.27700043    0.79000002    2.71000004
   17.79472160  119.06300354    0.80000001    2.71000004
   17.80055428  119.06300354    0.80000001    2.73000002
   17.80472183  118.12799835    0.70999998    2.71000004
   17.80777740  122.33100128    0.70999998    2.71000004
   17.81110954  122.40899658    0.56999999    2.71000004
   17.82861137  117.17700195    0.83999997    2.71000004
   17.83111191  105.03299713    0.94000000    2.71000004
   17.83444595  112.64199829    0.94000000    2.71000004
   17.83750153   99.57350159    0.98000002    2.71000004
   17.84361267   99.57350159    0.92000002    2.71000004
   17.84777832  106.54000092    0.89999998    2.71000004
   17.85083389  110.14399719    0.70999998    2.71000004
   17.85416794  112.27999878    0.70999998    2.71000004
   17.85722351  108.12799835    0.69000000    2.71000004
   17.86055565  104.82700348    0.67000002    2.71000004
   17.86194420  111.20999908    0.67000002    2.71000004
   17.86444473  106.44100189    0.63000000    2.71000004
   17.86750031  111.40899658    0.64999998    2.71000004
   17.87083435  109.91600037    0.61000001    2.71000004
   17.87416649  103.66300201    0.55000001    2.71000004
   17.87722206  110.44100189    0.52999997    2.71000004
   17.88055611  100.60399628    0.47999999    2.71000004
   17.88638878  100.60399628    0.38000000    2.71000004
   17.89055634  107.06700134    0.30000001    2.73000002
   17.89361191  105.82099915    0.28000000    2.73000002
   17.89527702  111.75000000    0.28000000    2.71000004
   17.89749908  105.10600281    0.28000000    2.71000004
   17.90055466  109.91200256    0.25999999    2.71000004
   17.90388870  108.18199921    0.67000002    2.71000004
   17.90722275  109.17800140    0.70999998    2.73000002
   17.91027832  113.12400055    0.75000000    2.71000004
   17.91361046  103.64900208    0.98000002    2.71000004
   17.91694450  100.71900177    0.55000001    2.71000004
   17.92000008  107.16999817    0.31999999    2.71000004
   17.92333221  115.45200348    0.28000000    2.71000004
   17.92916679  115.45200348    0.28000000    2.71000004
   17.93333244  105.79100037    0.28000000    2.71000004
   17.93666649  110.25599670    0.30000001    2.71000004
   17.93972206  114.21199799    0.36000001    2.71000004
   17.94305420  113.76599884    0.51999998    2.71000004
   17.94638824  112.47100067    0.56999999    2.71000004
   17.94944382  111.57399750    0.67000002    2.71000004
   17.95277786  110.99800110    0.81999999    2.71000004
   17.95583344  109.65799713    0.98000002    2.71000004
   17.95916748  117.26200104    1.03999996    2.71000004
   17.96194458  113.33599854    1.26999998    2.71000004
   17.96277809  116.46700287    1.28999996    2.71000004
   17.96583366  122.45700073    1.33000004    2.69000006
   17.97194481  122.45700073    1.44000006    2.71000004
   17.97611237  112.12200165    1.73000002    2.69000006
   17.97944450  104.54799652    1.86000001    2.71000004
   17.98277855  111.59799957    2.00000000    2.69000006
   17.98583412  110.33399963    2.07999992    2.69000006
   17.98916626  111.20400238    1.96000004    2.69000006
   17.99222183  109.01999664    1.86000001    2.71000004
   17.99527740  110.56600189    1.88000000    2.71000004
   17.99611092  107.30200195    1.91999996    2.69000006
   17.99916649  107.44000244    1.80999994    2.69000006
   18.00250053  106.88600159    1.83000004    2.71000004
   18.00583267  112.94699860    1.78999996    2.69000006
   18.00888824  116.06900024    1.83000004    2.69000006
   18.01499939  116.06900024    1.94000006    2.69000006
   18.01916695  110.43199921    2.17000008    2.71000004
   18.02222252  105.10700226    3.01999998    2.69000006
   18.02555466  115.37599945    2.78999996    2.69000006
   18.02861023  110.19100189    2.30999994    2.69000006
   18.02916718  111.29499817    2.30999994    2.69000006
   18.03222275  118.06500244    2.42000008    2.69000006
   18.03555489  114.80899811    2.55999994    2.67000008
   18.03888893  115.61499786    2.26999998    2.69000006
   18.04194450  112.48600006    2.28999996    2.69000006
   18.04527664  109.52600098    2.48000002    2.69000006
   18.04833221  111.36399841    2.28999996    2.69000006
   18.05166626  114.44400024    2.21000004    2.69000006
   18.05777740  114.44400024    2.39000010    2.67000008
   18.06194305  116.16000366    2.76999998    2.69000006
   18.06250000  120.70400238    2.78999996    2.69000006
   18.06555557  118.49199677    3.01999998    2.69000006
   18.06888962  112.67099762    3.32999992    2.67000008
   18.07222366  116.27899933    3.68000007    2.67000008
   18.07527924  113.16000366    4.00000000    2.67000008
   18.07861137  115.55400085    4.13999987    2.66000009
   18.08194542  119.84500122    4.26000023    2.66000009
   18.08500099  111.60299683    3.99000001    2.67000008
   18.08833313  116.28099823    4.21999979    2.67000008
   18.09138870  119.15000153    4.01999998    2.66000009
   18.09472275  114.22200012    4.13999987    2.66000009
   18.09527779  113.65499878    4.07999992    2.66000009
   18.10055542  113.65499878    3.86999989    2.67000008
   18.10472298  120.56700134    3.91000009    2.67000008
   18.10805511  117.35900116    3.93000007    2.67000008
   18.11111069  108.88300323    3.73000002    2.67000008
   18.11444473  109.24700165    4.09999990    2.67000008
   18.11777878  114.91699982    4.90999985    2.59999990
   18.12083435  121.59200287    4.90999985    2.67000008
   18.12416649  116.93099976    4.90999985    2.66000009
   18.12722206  121.76000214    4.26000023    2.67000008
   18.12861061  114.85800171    4.90999985    2.69000006
   18.13111115  116.01300049    4.90999985    2.59999990
   18.13416672  116.94599915    4.90999985    2.64000010
   18.13750076  121.22200012    4.90999985    2.66000009
   18.14333344  121.22200012    4.80000019    2.66000009
   18.14749908  118.77100372    4.65999985    2.67000008
   18.15083313  112.86599731    3.70000005    2.67000008
   18.15416718  119.08300018    3.70000005    2.67000008
   18.15722275  121.97000122    3.82999992    2.67000008
   18.16055489  114.68599701    4.88999987    2.67000008
   18.16194344  116.68000031    4.90999985    2.67000008
   18.16416550  112.57099915    4.90999985    2.66000009
   18.16722107  120.86100006    4.53000021    2.67000008
   18.17055511  123.63099670    4.21999979    2.67000008
   18.17388916  116.34200287    4.90999985    2.64000010
   18.17694473  119.54799652    4.90999985    2.66000009
   18.18027687  113.96700287    4.15999985    2.66000009
   18.18638802  113.96700287    3.64000010    2.67000008
   18.19055557  123.01100159    3.66000009    2.67000008
   18.19361115  118.24199677    4.38999987    2.66000009
   18.19527626  121.15399933    4.67999983    2.66000009
   18.19722176  116.73400116    4.55999994    2.67000008
   18.20027924  118.38300323    4.19999981    2.66000009
   18.20361137  119.18199921    3.20000005    2.67000008
   18.20694542  117.75000000    2.98000002    2.67000008
   18.21000099  116.93499756    2.96000004    2.67000008
   18.21333504  114.34899902    2.94000006    2.67000008
   18.21666718  114.52899933    2.82999992    2.67000008
   18.21972275  117.08000183    2.73000002    2.67000008
   18.22305679  113.98999786    2.75000000    2.69000006
   18.22916794  113.98999786    3.39000010    2.67000008
   18.23333359  122.83999634    3.32999992    2.67000008
   18.23638916  122.23100281    4.01999998    2.67000008
   18.23972321  122.70999908    4.90999985    2.64000010
   18.24305534  123.81199646    4.90999985    2.66000009
   18.24611092  119.19999695    4.90999985    2.67000008
   18.24944496  122.24900055    4.90999985    2.67000008
   18.25277710  123.87899780    4.48999977    2.67000008
   18.25583267  121.63899994    4.11999989    2.67000008
   18.25916672  124.38099670    4.44999981    2.67000008
   18.26194382  123.33499908    4.69999981    2.64000010
   18.26277733  126.73400116    4.90999985    2.66000009
   18.26583290  125.22200012    4.90999985    2.66000009
   18.27194405  125.22200012    4.90999985    2.53999996
   18.27611160  130.47999573    4.90999985    2.64000010
   18.27944374  129.75399780    4.90999985    2.55999994
   18.28249931  117.77700043    4.90999985    2.66000009
   18.28583336  127.39399719    4.00000000    2.66000009
   18.28916550  129.38600159    3.97000003    2.66000009
   18.29222107  124.79799652    4.90999985    2.66000009
   18.29527664  130.47000122    4.90999985    2.53999996
   18.29583359  126.47399902    4.90999985    2.53999996
   18.29888916  123.23699951    4.90999985    2.57999992
   18.30222130  114.57900238    4.90999985    2.66000009
   18.30555534  122.85700226    4.19999981    2.66000009
   18.30861092  121.05699921    4.01999998    2.67000008
   18.31472206  121.05699921    3.99000001    2.66000009
   18.31888962  118.74800110    3.78999996    2.67000008
   18.32222366  116.11000061    2.84999990    2.67000008
   18.32555580  121.22599792    2.51999998    2.69000006
   18.32861137  118.18399811    2.82999992    2.67000008
   18.32916832  123.42600250    2.82999992    2.67000008
   18.33222389  111.68000031    4.28999996    2.67000008
   18.33555603  124.34799957    4.80999994    2.57999992
   18.33889008  120.50299835    4.90999985    2.64000010
   18.34194565  116.38800049    4.13999987    2.66000009
   18.34527779  119.97399902    3.23000002    2.66000009
   18.34861183  122.60800171    3.95000005    2.67000008
   18.35166740  116.03800201    3.80999994    2.67000008
   18.35777855  116.03800201    4.30999994    2.67000008
   18.36194420  121.66699982    4.78000021    2.67000008
   18.36222267  126.76899719    4.90999985    2.67000008
   18.36555672  131.00199890    4.90999985    2.59999990
   18.36888885  126.24800110    4.88999987    2.66000009
   18.37194443  136.94500732    4.90999985    2.59999990
   18.37527847  125.52500153    4.90999985    2.57999992
   18.37861061  122.38099670    4.86999989    2.67000008
   18.38166618  115.16500092    4.78000021    2.64000010
   18.38500023  120.04000092    4.76000023    2.64000010
   18.38833237  127.12500000    4.84999990    2.61999989
   18.39138794  124.90100098    4.71999979    2.64000010
   18.39472198  121.18699646    4.07999992    2.64000010
   18.39555550  124.73200226    4.09999990    2.64000010
   18.40055466  124.73200226    4.53999996    2.61999989
   18.40472221  124.70500183    3.72000003    2.66000009
   18.40777779  119.30400085    3.53999996    2.66000009
   18.41110992  120.26999664    2.86999989    2.66000009
   18.41444397  124.18499756    2.84999990    2.67000008
   18.41777802  116.74199677    2.80999994    2.66000009
   18.42083359  125.91000366    2.71000004    2.67000008
   18.42416573  124.92900085    2.93000007    2.66000009
   18.42722130  120.14800262    2.51999998    2.67000008
   18.42888832  124.24299622    2.40000010    2.67000008
   18.43083191  123.90100098    2.42000008    2.66000009
   18.43416595  117.17299652    2.46000004    2.66000009
   18.43722153  116.98300171    2.46000004    2.66000009
   18.44333267  116.98300171    1.78999996    2.67000008
   18.44749832  120.98300171    1.61000001    2.66000009
   18.45083427  123.90899658    1.60000002    2.67000008
   18.45388985  117.40799713    1.75000000    2.67000008
   18.45722389  116.91400146    2.42000008    2.66000009
   18.46055603  110.98100281    2.93000007    2.67000008
   18.46222305  117.42199707    2.76999998    2.67000008
   18.46416664  118.88400269    2.91000009    2.67000008
   18.46750069  120.29499817    3.01999998    2.67000008
   18.47055626  120.69599915    3.91000009    2.61999989
   18.47389030  122.10900116    2.82999992    2.66000009
   18.47722244  117.04900360    2.75000000    2.67000008
   18.48027802  120.49800110    2.44000006    2.67000008
   18.48611069  120.49800110    2.11999989    2.67000008
   18.49027824  119.94599915    3.61999989    2.67000008
   18.49361229  122.73699951    3.53999996    2.67000008
   18.49583435  118.93399811    3.21000004    2.67000008
   18.49749947  124.60399628    2.84999990    2.66000009
   18.50055504  121.70999908    2.28999996    2.66000009
   18.50388908  119.80400085    2.11999989    2.67000008
   18.50722313  121.68000031    1.89999998    2.67000008
   18.51027870  119.01699829    2.32999992    2.66000009
   18.51361084  114.23600006    2.30999994    2.66000009
   18.51666641  114.49099731    3.09999990    2.67000008
   18.52000046  124.22100067    2.67000008    2.66000009
   18.52333260  122.68900299    2.64000010    2.67000008
   18.52916718  122.68900299    3.66000009    2.66000009
   18.53333282  128.83500671    4.90999985    2.57999992
   18.53638840  125.80899811    4.90999985    2.59999990
   18.53972244  131.31799316    4.90999985    2.61999989
   18.54277802  143.99200439    4.90999985    2.66000009
   18.54611015  133.76400757    4.90999985    2.57999992
   18.54944420  139.02400208    4.90999985    2.53999996
   18.55249977  126.73400116    4.90999985    2.51999998
   18.55583191  138.78100586    4.90999985    2.55999994
   18.55916595  125.12699890    4.90999985    2.51999998
   18.56222153  140.94999695    4.90999985    2.48000002
   18.56277657  143.34700012    4.90999985    2.48000002
   18.56611061  132.56900024    4.90999985    2.57999992
   18.57194519  132.56900024    4.90999985    2.61999989
   18.57611275  128.25399780    4.90999985    2.61999989
   18.57916832  126.99900055    4.90999985    2.61999989
   18.58250046  127.69599915    4.73999977    2.61999989
   18.58583450  123.18800354    4.11999989    2.64000010
   18.58889008  124.22699738    3.48000002    2.64000010
   18.59222221  123.45400238    3.11999989    2.64000010
   18.59555626  125.05699921    2.82999992    2.64000010
   18.59611130  121.87999725    2.78999996    2.64000010
   18.59916687  134.69299316    2.64000010    2.64000010
   18.60222244  127.53099823    2.50000000    2.66000009
   18.60555649  132.22200012    2.40000010    2.66000009
   18.60888863  143.10200500    2.34999990    2.66000009
   18.61472321  143.10200500    2.01999998    2.67000008
   18.61888885  121.40000153    1.85000002    2.66000009
   18.62222290  133.24400330    1.91999996    2.67000008
   18.62527847  132.37300110    2.07999992    2.64000010
   18.62861061  144.83999634    2.80999994    2.64000010
   18.62944412  135.64799500    2.76999998    2.66000009
   18.63222313  127.18199921    2.39000010    2.67000008
   18.63527679  122.12500000    2.17000008    2.66000009
   18.63861084  134.15299988    2.19000006    2.66000009
   18.64194489  139.31500244    2.66000009    2.61999989
   18.64500046  125.92700195    3.16000009    2.57999992
   18.64833260  136.46400452    3.91000009    2.61999989
   18.65166664  139.34700012    2.50000000    2.67000008
   18.65749931  139.34700012    1.88000000    2.67000008
   18.66166687  124.12999725    1.73000002    2.66000009
   18.66277695  126.55799866    1.73000002    2.66000009
   18.66555595  128.68400574    1.75000000    2.67000008
   18.66860962  134.20500183    1.69000006    2.67000008
   18.67194366  134.09700012    1.53999996    2.67000008
   18.67527771  119.67900085    1.53999996    2.67000008
   18.67833328  128.08700562    1.51999998    2.67000008
   18.68166542  133.59599304    2.13000011    2.67000008
   18.68499947  126.42099762    2.61999989    2.67000008
   18.68805504  132.36599731    2.59999990    2.67000008
   18.69138718  120.63099670    2.76999998    2.66000009
   18.69444275  128.87800598    2.23000002    2.66000009
   18.69610977  123.73899841    2.15000010    2.66000009
   18.70055580  123.73899841    2.17000008    2.67000008
   18.70472336  125.14499664    2.01999998    2.66000009
   18.70777893  129.36799622    1.96000004    2.67000008
   18.71111107  125.29799652    1.76999998    2.67000008
   18.71416664  138.55700684    1.73000002    2.66000009
   18.71750069  128.42999268    1.73000002    2.66000009
   18.72083473  123.69899750    1.73000002    2.66000009
   18.72389030  125.93199921    1.66999996    2.66000009
   18.72722244  125.76200104    1.71000004    2.66000009
   18.72944450  128.78199768    1.69000006    2.66000009
   18.73083305  127.76799774    1.73000002    2.67000008
   18.73388863  130.68800354    2.03999996    2.66000009
   18.73722267  124.58699799    2.17000008    2.66000009
   18.74333382  124.58699799    2.28999996    2.67000008
   18.74749947  131.29200745    3.45000005    2.61999989
   18.75083351  130.09700012    4.63999987    2.66000009
   18.75388908  126.14700317    4.15999985    2.61999989
   18.75722313  124.99199677    3.70000005    2.51999998
   18.76027870  125.31900024    4.44999981    2.64000010
   18.76277733  138.37500000    4.13999987    2.57999992
   18.76416588  131.51499939    4.44999981    2.59999990
   18.76722145  145.72700500    4.36999989    2.64000010
   18.77055550  140.52799988    3.68000007    2.57999992
   18.77388954  135.40699768    4.09999990    2.64000010
   18.77694511  137.60800171    4.13999987    2.64000010
   18.78027725  138.87699890    4.69999981    2.59999990
   18.78610992  138.87699890    4.90999985    2.61999989
   18.79027748  141.64100647    4.46999979    2.61999989
   18.79361153  130.81399536    4.90999985    2.61999989
   18.79611015  135.96099854    4.67999983    2.61999989
   18.79722214  127.42900085    4.40999985    2.64000010
   18.80027771  128.58900452    3.82999992    2.64000010
   18.80360985  130.36900330    3.36999989    2.64000010
   18.80694389  134.76800537    3.14000010    2.64000010
   18.80999947  133.03300476    3.18000007    2.64000010
   18.81333351  133.58099365    3.50000000    2.64000010
   18.81666756  129.33599854    4.61999989    2.66000009
   18.81972313  144.35499573    4.90999985    2.55999994
   18.82305717  175.99899292    4.90999985    2.50000000
   18.82888985  175.99899292    4.90999985    2.23000002
   18.84749985  162.53799438    4.90999985    2.39000010
   18.85055542  137.77000427    4.90999985    2.57999992
   18.85388947  172.70300293    4.90999985    2.64000010
   18.85694504  136.29200745    4.90999985    2.39000010
   18.86027908  132.16700745    4.90999985    2.36999989
   18.86361122  153.39399719    4.90999985    2.46000004
   18.86666679  158.25999451    4.90999985    2.48000002
   18.87194443  158.25999451    4.90999985    2.50000000
   18.87611198  149.51800537    4.90999985    2.44000006
   18.87944412  159.93499756    4.90999985    2.51999998
   18.88055611  145.60600281    4.90999985    2.53999996
   18.88305473  144.24400330    4.90999985    2.59999990
   18.88638878  131.15400696    4.90999985    2.59999990
   18.88972282  129.10899353    4.90999985    2.51999998
   18.89277840  138.96400452    4.90999985    2.64000010
   18.89611053  133.53500366    4.55999994    2.51999998
   18.89916611  130.02299500    3.36999989    2.64000010
   18.90250015  129.54600525    2.82999992    2.64000010
   18.90583229  114.59400177    2.93000007    2.64000010
   18.90888786  136.70199585    3.03999996    2.55999994
   18.91499901  136.70199585    3.28999996    2.64000010
   18.91916656  131.22999573    3.55999994    2.66000009
   18.92222214  160.28599548    4.90999985    2.59999990
   18.92555428  140.05299377    4.90999985    2.50000000
   18.92888832  140.16600037    4.90999985    2.59999990
   18.93194389  135.02299500    4.90999985    2.64000010
   18.93527603  124.52300262    2.71000004    2.64000010
   18.93833160  113.52999878    2.61999989    2.64000010
   18.94166565  133.22700500    2.66000009    2.64000010
   18.94499969  127.34100342    2.75000000    2.64000010
   18.94722176  128.76699829    2.82999992    2.61999989
   18.94861031  135.83900452    2.78999996    2.64000010
   18.95194435  126.09799957    2.51999998    2.64000010
   18.95777893  126.09799957    2.25000000    2.64000010
   18.96194458  133.75300598    2.30999994    2.66000009
   18.96527863  131.27900696    2.34999990    2.66000009
   18.96833420  128.39500427    2.44000006    2.61999989
   18.97166634  128.95199585    3.01999998    2.61999989
   18.97472191  131.85699463    2.86999989    2.64000010
   18.97805595  127.13300323    2.64000010    2.61999989
   18.98055649  134.51199341    2.64000010    2.61999989
   18.98166656  136.69799805    2.64000010    2.61999989
   18.98500061  129.12699890    2.91000009    2.64000010
   18.98833275  129.89300537    2.64000010    2.64000010
   18.99138832  128.22200012    2.57999992    2.64000010
   18.99472237  125.62200165    2.84999990    2.57999992
   19.00055504  125.62200165    3.14000010    2.61999989
   19.00472260  132.22099304    3.72000003    2.59999990
   19.00805473  141.93600464    4.53000021    2.57999992
   19.01111031  162.33700562    4.90999985    2.53999996
   19.01388931  144.34300232    4.90999985    2.40000010
   19.01472282  136.05599976    4.90999985    2.42000008
   19.01805496  145.41999817    4.90999985    2.46000004
   19.02138901  137.34700012    4.90999985    2.55999994
   19.02444458  133.16700745    4.90999985    2.59999990
   19.02777672  164.53900146    4.90999985    2.39000010
   19.03111076  134.27299500    4.90999985    2.30999994
   19.03416634  149.34100342    4.90999985    2.46000004
   19.03750038  229.61000061    4.90999985    2.30999994
   19.04333305  229.61000061    4.90999985    2.30999994
   19.04749870  137.67100525    4.90999985    2.59999990
   19.05083275  137.18099976    4.90999985    2.50000000
   19.05388832  165.54499817    4.90999985    2.53999996
   19.05722237  137.63699341    4.90999985    2.55999994
   19.06055450  131.60000610    4.90999985    2.50000000
   19.06361008  134.59399414    4.90999985    2.57999992
   19.06694603  135.12100220    4.90999985    2.55999994
   19.07027817  136.24400330    4.90999985    2.53999996
   19.07333374  128.58399963    4.90999985    2.57999992
   19.07666779  143.21899414    4.90999985    2.59999990
   19.07972336  145.61000061    4.90999985    2.57999992
   19.08055687  144.12600708    4.90999985    2.57999992
   19.08638954  144.12600708    4.90999985    2.55999994
   19.09055710  160.69999695    4.90999985    2.26999998
   19.09361267  216.02400208    4.90999985    2.36999989
   19.09694481  176.35600281    4.90999985    2.17000008
   19.10027885  137.06199646    4.90999985    2.32999992
   19.10333443  142.63999939    4.90999985    2.42000008
   19.10666656  133.69400024    4.90999985    2.51999998
   19.10972214  132.99400330    4.90999985    2.61999989
   19.11305618  135.75900269    2.84999990    2.64000010
   19.11388969  128.10800171    2.84999990    2.64000010
   19.11666679  137.47900391    2.40000010    2.61999989
   19.12000084  135.42999268    2.51999998    2.61999989
   19.12333298  131.17199707    2.55999994    2.61999989
   19.12916756  131.17199707    2.86999989    2.61999989
   19.13333321  128.36500549    2.48000002    2.61999989
   19.13666725  126.88300323    2.84999990    2.64000010
   19.13972282  131.63800049    4.90999985    2.64000010
   19.14305496  184.00799561    4.90999985    2.44000006
   19.14611053  203.19700623    4.90999985    2.25000000
   19.14722252  177.30200195    4.90999985    2.25000000
   19.14972115  143.61799622    4.90999985    2.40000010
   19.15305519  135.32200623    4.90999985    2.61999989
   19.15638924  124.06700134    4.90999985    2.59999990
   19.15944481  127.87400055    4.90999985    2.55999994
   19.16277695  126.40399933    4.13999987    2.61999989
   19.16583252  130.00500488    2.98000002    2.61999989
   19.17194366  130.00500488    3.14000010    2.61999989
   19.17611122  134.80599976    3.89000010    2.59999990
   19.17944336  139.51699829    4.32999992    2.59999990
   19.18055534  135.52699280    4.38999987    2.59999990
   19.18277740  136.97599792    4.80999994    2.55999994
   19.18610954  139.06900024    4.90999985    2.53999996
   19.18944359  132.26899719    4.90999985    2.57999992
   19.19249916  130.63999939    4.90999985    2.53999996
   19.19583321  140.71299744    4.90999985    2.51999998
   19.19888878  137.63200378    4.90999985    2.46000004
   19.20222282  141.92999268    4.90999985    2.51999998
   19.20555687  158.84199524    4.90999985    2.48000002
   19.20861244  129.84599304    4.90999985    2.53999996
   19.21472359  129.84599304    4.90999985    2.57999992
   19.21888924  125.80300140    4.90999985    2.55999994
   19.22222328  128.18499756    4.90999985    2.55999994
   19.22555542  124.35299683    4.90999985    2.57999992
   19.22861099  126.40100098    4.90999985    2.53999996
   19.23194504  134.38900757    4.90999985    2.55999994
   19.23527718  151.58200073    4.90999985    2.50000000
   19.23833275  138.66499329    4.90999985    2.46000004
   19.24166679  141.25599670    4.90999985    2.53999996
   19.24472237  140.15199280    4.90999985    2.53999996
   19.24722290  128.28999329    4.90999985    2.53999996
   19.24833298  140.30400085    4.90999985    2.55999994
   19.25166702  145.08500671    4.90999985    2.55999994
   19.25777817  145.08500671    4.90999985    2.55999994
   19.26194382  139.38900757    4.90999985    2.55999994
   19.26499939  128.77299500    4.90999985    2.55999994
   19.26833344  133.87300110    4.90999985    2.57999992
   19.27138901  134.04299927    4.80999994    2.57999992
   19.27472115  126.31999969    4.67999983    2.57999992
   19.27805519  128.32400513    4.59999990    2.55999994
   19.28055573  138.88400269    4.73999977    2.57999992
   19.28138924  136.96099854    4.76000023    2.55999994
   19.28472137  127.38899994    4.86999989    2.55999994
   19.28805542  135.75300598    4.90999985    2.55999994
   19.29111099  136.72999573    4.90999985    2.55999994
   19.29444313  137.79499817    4.90999985    2.55999994
   19.30055428  137.79499817    4.84999990    2.55999994
   19.30472183  129.90199280    4.76000023    2.55999994
   19.30777740  135.74699402    4.55999994    2.55999994
   19.31110954  142.49499512    4.32999992    2.57999992
   19.31388855  137.03799438    4.28999996    2.55999994
   19.31472206  139.14999390    4.28999996    2.55999994
   19.31805611  134.30799866    4.28999996    2.55999994
   19.32139015  135.83700562    4.26999998    2.57999992
   19.32444572  140.28599548    4.21999979    2.57999992
   19.32777786  135.26400757    4.26000023    2.57999992
   19.33083344  135.17100525    4.07999992    2.57999992
   19.33416748  134.69299316    3.78999996    2.57999992
   19.33750153  139.36099243    3.51999998    2.57999992
   19.34333420  139.36099243    3.93000007    2.57999992
   19.34749985  144.07600403    4.03999996    2.57999992
   19.35083389  127.78900146    4.13999987    2.57999992
   19.35388947  132.77999878    4.05999994    2.55999994
   19.35722351  131.74899292    3.99000001    2.55999994
   19.36055565  133.30299377    4.05999994    2.57999992
   19.36361122  138.04100037    3.93000007    2.57999992
   19.36694527  131.23899841    3.72000003    2.57999992
   19.37000084  141.10400391    3.70000005    2.57999992
   19.37333298  130.28599548    3.66000009    2.57999992
   19.37666702  128.27499390    3.70000005    2.57999992
   19.37972260  137.60800171    3.89000010    2.55999994
   19.38055611  142.92399597    3.97000003    2.57999992
   19.38638878  142.92399597    4.26999998    2.55999994
   19.39027786  130.78100586    4.51000023    2.57999992
   19.39361191  142.10800171    4.55999994    2.57999992
   19.39694405  128.34100342    4.67999983    2.55999994
   19.39999962  130.40699768    4.80999994    2.53999996
   19.40333366  126.58999634    4.80000019    2.55999994
   19.40638924  134.78500366    4.80000019    2.53999996
   19.40972137  138.41099548    4.69999981    2.55999994
   19.41305542  141.60899353    4.36999989    2.55999994
   19.41388893  130.57400513    4.28999996    2.55999994
   19.41638756  129.41999817    4.17999983    2.53999996
   19.41972160  134.59300232    4.13999987    2.53999996
   19.42305565  134.21400452    4.17999983    2.55999994
   19.42916679  134.21400452    4.09999990    2.55999994
   19.43333244  133.08900452    4.30999994    2.55999994
   19.43638802  139.71400452    4.42999983    2.53999996
   19.43972206  136.43899536    4.46999979    2.53999996
   19.44277763  149.33500671    4.42999983    2.55999994
   19.44610977  140.27499390    4.42999983    2.55999994
   19.44722176  134.45100403    4.46999979    2.53999996
   19.44972038  134.39199829    4.67999983    2.53999996
   19.45305634  138.22900391    4.90999985    2.55999994
   19.45639038  144.47700500    4.90999985    2.53999996
   19.45944595  135.50900269    4.90999985    2.53999996
   19.46277809  142.31799316    4.90999985    2.51999998
   19.46611214  137.35400391    4.90999985    2.51999998
   19.47194481  137.35400391    4.90999985    2.53999996
   19.47611237  138.33999634    4.90999985    2.50000000
   19.47916794  149.02200317    4.90999985    2.51999998
   19.48055649  143.08900452    4.90999985    2.51999998
   19.48277855  138.09300232    4.90999985    2.50000000
   19.48611069  136.61000061    4.90999985    2.51999998
   19.48944473  148.40299988    4.90999985    2.53999996
   19.49250031  151.08799744    4.90999985    2.53999996
   19.49583435  136.76300049    4.90999985    2.55999994
   19.49916649  141.55400085    4.90999985    2.53999996
   19.50222206  144.44900513    4.86999989    2.55999994
   19.50555611  162.43499756    4.63999987    2.55999994
   19.50861168  147.37199402    4.28999996    2.53999996
   19.51472282  147.37199402    3.93000007    2.53999996
   19.51888847  169.75900269    4.00000000    2.53999996
   19.52222252  166.23699951    4.00000000    2.53999996
   19.52527809  161.28700256    3.84999990    2.55999994
   19.52861023  168.09199524    3.41000009    2.57999992
   19.53194427  170.19900513    3.11999989    2.55999994
   19.53499985  184.84300232    3.00000000    2.55999994
   19.53833199  176.21200562    3.03999996    2.55999994
   19.54138756  204.09599304    3.18000007    2.55999994
   19.54472160  238.38699341    3.20000005    2.55999994
   19.54722214  229.16700745    3.16000009    2.55999994
   19.54833221  250.59599304    3.16000009    2.55999994
   19.55166626  247.55000305    3.11999989    2.55999994
   19.55749893  247.55000305    2.67000008    2.55999994
   19.56166649  361.70901489    2.59999990    2.57999992
   19.56499863  373.67999268    2.48000002    2.57999992
   19.56833458  283.54901123    2.36999989    2.57999992
   19.57139015  205.44200134    2.34999990    2.59999990
   19.57472229  147.55000305    2.32999992    2.57999992
   19.57777786  135.39599609    2.30999994    2.57999992
   19.58055687  123.07199860    2.23000002    2.57999992
   19.58139038   99.30169678    2.21000004    2.57999992
   19.58472252   50.54800034    2.19000006    2.57999992
   19.58805656   -1.00000000    2.21000004    2.57999992
   19.59111214   -1.00000000    2.15000010    2.57999992
   19.59444427   -1.00000000    2.09999990    2.57999992
   19.60055542   -1.00000000    2.07999992    2.57999992
   19.60472298   -1.00000000    1.96000004    2.57999992
   19.60777855   -1.00000000    1.96000004    2.57999992
   19.61111069   -1.00000000    2.07999992    2.55999994
   19.61444473   -1.00000000    2.09999990    2.57999992
   19.61777878   -1.00000000    2.25000000    2.55999994
   19.62083435   -1.00000000    2.28999996    2.57999992
   19.62416649   -1.00000000    2.28999996    2.57999992
   19.62750053   -1.00000000    2.25000000    2.57999992
   19.63055611   -1.00000000    2.36999989    2.55999994
   19.63388824   -1.00000000    2.46000004    2.55999994
   19.63722229   -1.00000000    2.76999998    2.55999994
   19.64749908   -1.00000000    3.25000000    2.55999994
   19.65055466   -1.00000000    3.36999989    2.53999996
   19.65388870   -1.00000000    3.32999992    2.53999996
   19.65694427   -1.00000000    3.53999996    2.53999996
   19.66027832   -1.00000000    3.51999998    2.53999996
   19.66361046   -1.00000000    3.48000002    2.53999996
   19.66666603   -1.00000000    3.51999998    2.53999996
   19.67000008   -1.00000000    3.41000009    2.53999996
   19.67333221   -1.00000000    3.26999998    2.55999994
   19.67638779   -1.00000000    3.16000009    2.55999994
   19.67972183   -1.00000000    2.98000002    2.55999994
   19.69027710   -1.00000000    3.41000009    2.53999996
   19.69333267   -1.00000000    3.73000002    2.55999994
   19.69666672   -1.00000000    3.86999989    2.53999996
   19.70000076   -1.00000000    3.84999990    2.55999994
   19.70305634   -1.00000000    3.93000007    2.53999996
   19.70639038   -1.00000000    4.03999996    2.53999996
   19.70972252   -1.00000000    4.09999990    2.55999994
   19.71277809   -1.00000000    4.19999981    2.55999994
   19.71638870   -1.00000000    4.21999979    2.55999994
   19.71972275   -1.00000000    4.32999992    2.53999996
   19.72277832   -1.00000000    4.36999989    2.53999996
   19.73305511   -1.00000000    4.55999994    2.53999996
   19.73638916   -1.00000000    4.46999979    2.51999998
   19.73944473   -1.00000000    4.40999985    2.53999996
   19.74277878   -1.00000000    4.38999987    2.53999996
   19.74611092   -1.00000000    4.26999998    2.53999996
   19.74944496   -1.00000000    4.19999981    2.53999996
   19.75277710   -1.00000000    4.11999989    2.53999996
   19.75583267   -1.00000000    3.99000001    2.55999994
   19.75916672   -1.00000000    3.86999989    2.53999996
   19.76250076   -1.00000000    3.84999990    2.53999996
   19.76555634   -1.00000000    3.82999992    2.53999996
   19.77583313   -1.00000000    3.61999989    2.53999996
   19.77916718   -1.00000000    3.68000007    2.53999996
   19.78249931   -1.00000000    3.72000003    2.53999996
   19.78583336   -1.00000000    3.95000005    2.53999996
   19.78888893   -1.00000000    3.84999990    2.53999996
   19.79222107   -1.00000000    3.82999992    2.53999996
   19.79555511   -1.00000000    3.93000007    2.53999996
   19.79861069   -1.00000000    3.95000005    2.51999998
   19.80194283   -1.00000000    3.99000001    2.53999996
   19.80527687   -1.00000000    3.89000010    2.53999996
   19.80833244   -1.00000000    3.75000000    2.53999996
   19.81861115   -1.00000000    4.30999994    2.51999998
   19.82194519   -1.00000000    4.51000023    2.51999998
   19.82527924   -1.00000000    4.63999987    2.51999998
   19.82833481   -1.00000000    4.71999979    2.51999998
   19.83166695   -1.00000000    4.71999979    2.51999998
   19.83500099   -1.00000000    4.65999985    2.50000000
   19.83805656   -1.00000000    4.71999979    2.51999998
   19.84138870   -1.00000000    4.90999985    2.50000000
   19.84444427   -1.00000000    4.90999985    2.50000000
   19.87194443   -1.00000000    4.76000023    2.50000000
   19.87500000   -1.00000000    4.80999994    2.50000000
   19.87833405   -1.00000000    4.80999994    2.50000000
   19.88166618   -1.00000000    4.86999989    2.51999998
   19.88500023   -1.00000000    4.84999990    2.50000000
   19.88805580   -1.00000000    4.84999990    2.50000000
   19.89138794   -1.00000000    4.90999985    2.50000000
   19.89472198   -1.00000000    4.90999985    2.51999998
   19.89777756   -1.00000000    4.90999985    2.50000000
   19.90111160   -1.00000000    4.90999985    2.50000000
   19.90444374   -1.00000000    4.90999985    2.48000002
   19.91472244   -1.00000000    4.90999985    2.48000002
   19.91777802   -1.00000000    4.76000023    2.48000002
   19.92111015   -1.00000000    4.55999994    2.50000000
   19.92416573   -1.00000000    4.59999990    2.51999998
   19.92749977   -1.00000000    4.69999981    2.51999998
   19.93083191   -1.00000000    4.76000023    2.50000000
   19.93388748   -1.00000000    4.76000023    2.50000000
   19.93722153   -1.00000000    4.78000021    2.50000000
   19.94055557   -1.00000000    4.76000023    2.50000000
   19.94361115   -1.00000000    4.71999979    2.50000000
   19.94694328   -1.00000000    4.78000021    2.48000002
   19.95750046   -1.00000000    4.90999985    2.48000002
   19.96055603   -1.00000000    4.90999985    2.46000004
   19.96389008   -1.00000000    4.90999985    2.48000002
   19.96722221   -1.00000000    4.90999985    2.48000002
   19.97027779   -1.00000000    4.90999985    2.46000004
   19.97361183   -1.00000000    4.90999985    2.46000004
   19.97694588   -1.00000000    4.90999985    2.48000002
   19.98000145   -1.00000000    4.90999985    2.46000004
   19.98361206   -1.00000000    4.90999985    2.48000002
   19.98694420   -1.00000000    4.90999985    2.48000002
   19.98999977   -1.00000000    4.90999985    2.48000002
   20.00027847   -1.00000000    4.46999979    2.50000000
   20.00361061   -1.00000000    4.26999998    2.50000000
   20.00666618   -1.00000000    4.09999990    2.50000000
   20.01000023   -1.00000000    3.89000010    2.51999998
   20.01333427   -1.00000000    3.66000009    2.50000000
   20.01666641   -1.00000000    3.21000004    2.51999998
   20.02000046   -1.00000000    2.94000006    2.50000000
   20.02305603   -1.00000000    2.71000004    2.50000000
   20.02638817   -1.00000000    2.67000008    2.51999998
   20.02972221   -1.00000000    2.59999990    2.51999998
   20.03277779   -1.00000000    2.48000002    2.51999998
   20.04305458   -1.00000000    1.64999998    2.51999998
   20.04638863   -1.00000000    1.58000004    2.50000000
   20.04999924   -1.00000000    1.53999996    2.50000000
   20.05333328   -1.00000000    1.55999994    2.48000002
   20.05638885   -1.00000000    1.55999994    2.48000002
   20.05972099   -1.00000000    1.55999994    2.48000002
   20.06305504   -1.00000000    1.55999994    2.48000002
   20.06611061   -1.00000000    1.55999994    2.48000002
   20.06944466   -1.00000000    1.55999994    2.48000002
   20.07250023   -1.00000000    1.55999994    2.48000002
   20.07583427   -1.00000000    1.55999994    2.48000002
   20.08611107   -1.00000000    1.58000004    2.50000000
   20.08916664   -1.00000000    1.41999996    2.50000000
   20.09250069   -1.00000000    1.38000000    2.50000000
   20.09555626   -1.00000000    1.38000000    2.50000000
   20.09889030   -1.00000000    1.36000001    2.50000000
   20.10222244   -1.00000000    1.36000001    2.50000000
   20.10527802   -1.00000000    1.38000000    2.50000000
   20.10861206   -1.00000000    1.38000000    2.50000000
   20.11194420   -1.00000000    1.38000000    2.50000000
   20.11527824   -1.00000000    1.39999998    2.50000000
   20.11861038   -1.00000000    1.36000001    2.50000000
   20.12888908   -1.00000000    1.41999996    2.48000002
   20.13194466   -1.00000000    1.46000004    2.50000000
   20.13527679   -1.00000000    1.46000004    2.50000000
   20.13861084   -1.00000000    1.46000004    2.50000000
   20.14166641   -1.00000000    1.46000004    2.50000000
   20.14500046   -1.00000000    1.46000004    2.50000000
   20.14861107   -1.00000000    1.85000002    2.48000002
   20.15194321   -1.00000000    1.85000002    2.48000002
   20.15499878   -1.00000000    1.85000002    2.48000002
   20.15833282   -1.00000000    1.85000002    2.50000000
   20.16166687   -1.00000000    1.86000001    2.48000002
   20.17166519   -1.00000000    2.00000000    2.48000002
   20.17499924   -1.00000000    1.98000002    2.46000004
   20.17805481   -1.00000000    2.01999998    2.46000004
   20.18166542   -1.00000000    2.11999989    2.46000004
   20.18499947   -1.00000000    2.17000008    2.48000002
   20.18805504   -1.00000000    2.13000011    2.48000002
   20.19138718   -1.00000000    1.86000001    2.48000002
   20.19472122   -1.00000000    1.75000000    2.48000002
   20.19777679   -1.00000000    1.75000000    2.48000002
   20.20111275   -1.00000000    1.78999996    2.48000002
   20.20416832   -1.00000000    1.78999996    2.46000004
   20.21444511   -1.00000000    1.94000006    2.46000004
   20.21777916   -1.00000000    2.40000010    2.46000004
   20.22111130   -1.00000000    2.30999994    2.46000004
   20.22416687   -1.00000000    2.30999994    2.46000004
   20.22750092   -1.00000000    2.30999994    2.46000004
   20.23055649   -1.00000000    2.30999994    2.46000004
   20.23388863   -1.00000000    2.30999994    2.46000004
   20.23722267   -1.00000000    2.30999994    2.46000004
   20.24027824   -1.00000000    2.30999994    2.46000004
   20.24361229   -1.00000000    2.30999994    2.46000004
   20.24694443   -1.00000000    2.30999994    2.46000004
   20.25749969   -1.00000000    2.28999996    2.46000004
   20.26055527   -1.00000000    2.13000011    2.46000004
   20.26388931   -1.00000000    2.09999990    2.44000006
   20.26694489   -1.00000000    2.09999990    2.44000006
   20.27027702   -1.00000000    2.09999990    2.44000006
   20.27361107   -1.00000000    1.86000001    2.42000008
   20.27666664   -1.00000000    1.85000002    2.44000006
   20.28000069   -1.00000000    1.76999998    2.46000004
   20.28333282   -1.00000000    1.69000006    2.46000004
   20.28666687   -1.00000000    1.50000000    2.46000004
   20.28972244   -1.00000000    1.44000006    2.46000004
   20.30027771   -1.00000000    1.34000003    2.46000004
   20.30333328   -1.00000000    1.34000003    2.46000004
   20.30666542   -1.00000000    1.30999994    2.46000004
   20.30999947   -1.00000000    1.33000004    2.44000006
   20.31305504   -1.00000000    1.26999998    2.46000004
   20.31666756   -1.00000000    1.26999998    2.46000004
   20.32027817   -1.00000000    1.33000004    2.46000004
   20.32361221   -1.00000000    1.36000001    2.46000004
   20.32666779   -1.00000000    1.39999998    2.44000006
   20.33000183   -1.00000000    1.48000002    2.46000004
   20.33305550   -1.00000000    1.55999994    2.44000006
   20.34305573   -1.00000000    1.55999994    2.44000006
   20.34638977   -1.00000000    1.55999994    2.44000006
   20.34972191   -1.00000000    1.53999996    2.44000006
   20.35305595   -1.00000000    1.50000000    2.44000006
   20.35611153   -1.00000000    1.51999998    2.44000006
   20.35944557   -1.00000000    1.50000000    2.44000006
   20.36277771   -1.00000000    1.50000000    2.44000006
   20.36583328   -1.00000000    1.50000000    2.44000006
   20.36916733   -1.00000000    1.50000000    2.44000006
   20.37249947   -1.00000000    1.51999998    2.44000006
   20.37555504   -1.00000000    1.61000001    2.44000006
   20.40555573   -1.00000000   -1.00000000   -1.00000000
   20.46444511   -1.00000000   -1.00000000   -1.00000000
