    HOUR (UT)   FLARE FACTOR    SKY TESTER    SUN TESTER
   11.84972191   -1.00000000   -1.00000000   -1.00000000
   12.40722179   -1.00000000    0.00000000    0.00000000
   12.41083336   -1.00000000    0.00000000    0.00000000
   12.41416645   -1.00000000    0.00000000    0.00000000
   12.41722298   -1.00000000    0.00000000    0.00000000
   12.42416668   -1.00000000    0.00000000    0.00000000
   12.42833328   -1.00000000    0.00000000    0.00000000
   12.43166733   -1.00000000    0.00000000    0.00000000
   12.43500042   -1.00000000    0.00000000    0.00000000
   12.43861103   -1.00000000    0.00000000    0.00000000
   12.44166660   -1.00000000    0.00000000    0.00000000
   12.44499969   -1.00000000    0.00000000    0.00000000
   12.44833374   -1.00000000    0.00000000    0.00000000
   12.45138836   -1.00000000    0.00000000    0.00000000
   12.45472240   -1.00000000    0.00000000    0.00000000
   12.45777798   -1.00000000    0.00000000    0.00000000
   12.46111107   -1.00000000    0.00000000    0.00000000
   12.46722221   -1.00000000    0.00000000    0.00000000
   12.47111034   -1.00000000    0.00000000    0.00000000
   12.47444439   -1.00000000    0.00000000    0.00000000
   12.47777748   -1.00000000    0.00000000    0.00000000
   12.48083305   -1.00000000    0.00000000    0.00000000
   12.48416710   -1.00000000    0.00000000    0.00000000
   12.48750019   -1.00000000    0.00000000    0.00000000
   12.49055576   -1.00000000    0.00000000    0.00000000
   12.49388885   -1.00000000    0.00000000    0.00000000
   12.49694443   -1.00000000    0.00000000    0.00000000
   12.50027752   -1.00000000    0.00000000    0.00000000
   12.50361156   -1.00000000    0.00000000    0.00000000
   12.51000023   -1.00000000    0.00000000    0.00000000
   12.51416683   -1.00000000   -1.00000000   -1.00000000
   12.51722240   -1.00000000    0.00000000    0.00000000
   12.52055550   -1.00000000   -1.00000000   -1.00000000
   12.52388859   -1.00000000   -1.00000000   -1.00000000
   12.52694416   48.98329926    0.00000000    0.00000000
   12.53027725   -1.00000000    0.00000000    0.00000000
   12.53333378   31.57909966    0.00000000    0.00000000
   12.53666687   61.10169983    0.00000000    0.00000000
   12.53750038   -1.00000000   -1.00000000   -1.00000000
   12.54027843   63.54399872    0.00000000    0.00000000
   12.54361153   53.39879990    0.00000000    0.00000000
   12.54666710   68.71880341    0.00000000    0.00000000
   12.55277824   68.71880341    0.00000000    0.00000000
   12.55694485  106.02999878    0.00000000    0.00000000
   12.56027794   77.64409637    0.00000000    0.00000000
   12.56333351   81.81109619    0.00000000    0.00000000
   12.56666660   93.85220337    0.00000000    0.00000000
   12.56972218   78.39469910    0.00000000    0.00000000
   12.57083321   78.58850098    0.00000000    0.00000000
   12.57333374   97.99929810    0.00000000    0.00000000
   12.57666683  119.22599792    0.00000000    0.00000000
   12.57972240  104.89399719    0.00000000    0.00000000
   12.58305550   72.09329987    0.00000000    0.00000000
   12.58638859   86.45110321    0.00000000    0.00000000
   12.58944416  108.11699677    0.00000000    0.00000000
   12.59555531  108.11699677    0.00000000    0.00000000
   12.59972191   88.00009918    0.00000000    0.00000000
   12.60305595   97.31680298    0.00000000    0.00000000
   12.60416698   87.58209991    0.00000000    0.00000000
   12.60666752  108.81300354    0.00000000    0.00000000
   12.61000061   82.82340240    0.00000000    0.00000000
   12.61305618   90.61530304    0.00000000    0.00000000
   12.61638927  112.29000092    0.00000000    0.00000000
   12.61972237   84.48419952    0.00000000    0.00000000
   12.62305546   92.17630005    0.00000000    0.00000000
   12.62611103  138.57699585    0.00000000    0.00000000
   12.62944412  133.52099609    0.00000000    0.00000000
   12.63249969   83.93979645    0.00000000    0.00000000
   12.63861084   83.93979645    0.00000000    0.00000000
   12.64249992  101.20400238    0.00000000    0.00000000
   12.64583302  100.11900330    0.00000000    0.00000000
   12.64916611  111.32499695    0.00000000    0.00000000
   12.65222168   84.97750092    0.00000000    0.00000000
   12.65555477  112.89600372    0.00000000    0.00000000
   12.65888882  111.32900238    0.00000000    0.00000000
   12.66194439  104.12100220    0.00000000    0.00000000
   12.66527748  116.24099731    0.00000000    0.00000000
   12.66833401  106.01799774    0.00000000    0.00000000
   12.67083359  109.35099792    0.00000000    0.00000000
   12.67194462  111.93399811    0.00000000    0.00000000
   12.67527771  115.52700043    0.00000000    0.00000000
   12.68138885  115.52700043    0.00000000    0.00000000
   12.68555546  127.56400299    0.00000000    0.00000000
   12.68861103  100.65299988    0.00000000    0.00000000
   12.69194412  109.10099792    0.00000000    0.00000000
   12.69527817  107.34200287    0.00000000    0.00000000
   12.69833374   91.89219666    0.00000000    0.00000000
   12.70166683  106.45800018    0.00000000    0.00000000
   12.70416641  101.36699677    0.00000000    0.00000000
   12.70527744   88.64859772    0.00000000    0.00000000
   12.70861053  107.33100128    0.00000000    0.00000000
   12.71166611  116.34100342    0.00000000    0.00000000
   12.71500015   97.84339905    0.00000000    0.00000000
   12.71833324  111.69699860    0.00000000    0.00000000
   12.72416592  111.69699860    0.00000000    0.00000000
   12.72833252  117.43399811    0.00000000    0.00000000
   12.73166656  123.04299927    0.00000000    0.00000000
   12.73472214  104.84100342    0.00000000    0.00000000
   12.73750019  103.25700378    0.00000000    0.00000000
   12.73833370  104.17400360    0.00000000    0.00000000
   12.74166679  117.75299835    0.00000000    0.00000000
   12.74499989  106.12599945    0.00000000    0.00000000
   12.74805546  107.65499878    0.00000000    0.00000000
   12.75138855  141.73599243    0.00000000    0.00000000
   12.75444412  126.18399811    0.00000000    0.00000000
   12.75777817  136.23100281    0.00000000    0.00000000
   12.76111126  122.24400330    0.00000000    0.00000000
   12.76694393  122.24400330    0.00000000    0.00000000
   12.77111053  129.68099976    0.00000000    0.00000000
   12.77444458  109.47799683    0.00000000    0.00000000
   12.77750015  122.77700043    0.00000000    0.00000000
   12.78083324  122.16600037    0.00000000    0.00000000
   12.78416729  116.36699677    0.00000000    0.00000000
   12.78722286  130.00900269    0.00000000    0.00000000
   12.79055595  120.93299866    0.00000000    0.00000000
   12.79388905  110.18800354    0.00000000    0.00000000
   12.79694462  123.20300293    0.00000000    0.00000000
   12.80027771  132.09700012    0.00000000    0.00000000
   12.80361176  129.89599609    0.00000000    0.00000000
   12.80416679  132.08399963    0.00000000    0.00000000
   12.81000042  132.08399963    0.00000000    0.00000000
   12.81388950  127.06199646    0.00000000    0.00000000
   12.81722260  126.79900360    0.00000000    0.00000000
   12.82055569  147.80099487    0.00000000    0.00000000
   12.82361126  144.14199829    0.00000000    0.00000000
   12.82694435  178.14900208    0.00000000    0.00000000
   12.83027744  146.47000122    0.00000000    0.00000000
   12.83333302  187.28700256    0.00000000    0.00000000
   12.83666611  194.41400146    0.00000000    0.00000000
   12.83749962  191.42599487    0.00000000    0.00000000
   12.84000015  172.50999451    0.00000000    0.00000000
   12.84333324  169.14300537    0.00000000    0.00000000
   12.84666634  173.18600464    0.00000000    0.00000000
   12.85277843  173.18600464    0.00000000    0.00000000
   12.85694504  168.33999634    0.00000000    0.00000000
   12.86000061  192.43099976    0.00000000    0.00000000
   12.86333370  183.94500732    0.00000000    0.00000000
   12.86666679  194.36000061    0.00000000    0.00000000
   12.86972237  206.44900513    0.00000000    0.00000000
   12.87083340  207.59700012    0.00000000    0.00000000
   12.87361145  211.62600708    0.00000000    0.00000000
   12.87666702  218.88499451    0.00000000    0.00000000
   12.88000011  242.48599243    0.00000000    0.00000000
   12.88305569  246.63999939    0.00000000    0.00000000
   12.88638878  265.80200195    0.00000000    0.00000000
   12.88972187  272.54800415    0.00000000    0.00000000
   12.89555550  272.54800415    0.00000000    0.00000000
   12.89972210  267.55999756    0.00000000    0.00000000
   12.90305519  270.46200562    0.00000000    0.00000000
   12.90416622  300.82699585    0.00000000    0.00000000
   12.90638828  273.24798584    0.00000000    0.00000000
   12.90972137  287.46899414    0.00000000    0.00000000
   12.91305542  288.02600098    0.00000000    0.00000000
   12.91611099  296.11300659    0.00000000    0.00000000
   12.91944504  330.70401001    0.00000000    0.00000000
   12.92277813  319.96798706    0.00000000    0.00000000
   12.92583370  330.46600342    0.00000000    0.00000000
   12.92916679  330.04501343    0.00000000    0.00000000
   12.93222237  333.78799438    0.00000000    0.00000000
   12.93833351  333.78799438    0.00000000    0.00000000
   12.94250011  385.72299194    0.00000000    0.00000000
   12.94583321  397.96899414    0.00000000    0.00000000
   12.94888878  386.55499268    0.00000000    0.00000000
   12.95222187  409.26400757    0.00000000    0.00000000
   12.95416641  383.00900269    0.00000000    0.00000000
   12.95555496  364.14001465    0.00000000    0.00000000
   12.95694447  410.06799316    0.00000000    0.00000000
   12.95833302  380.45700073    0.00000000    0.00000000
   12.95972157  417.34698486    0.00000000    0.00000000
   12.96111107  423.73699951    0.00000000    0.00000000
   12.96249962  379.71099854    0.00000000    0.00000000
   12.96388912  400.16198730    0.00000000    0.00000000
   12.96527767  419.46499634    0.00000000    0.00000000
   12.96666622  379.32400513    0.00000000    0.00000000
   12.96805477  400.24499512    0.00000000    0.00000000
   12.96944427  387.26199341    0.00000000    0.00000000
   12.97083282  373.28201294    0.00000000    0.00000000
   12.97222137  416.20800781    0.00000000    0.00000000
   12.97361088  402.16198730    0.00000000    0.00000000
   12.97499943  379.78900146    0.00000000    0.00000000
   12.97638798  402.77499390    0.00000000    0.00000000
   12.97777748  420.67401123    0.00000000    0.00000000
   12.97916603  370.58599854    0.00000000    0.00000000
   12.98055553  379.61801147    0.00000000    0.00000000
   12.98194408  367.29699707    0.00000000    0.00000000
   12.98333359  375.72900391    0.00000000    0.00000000
   12.98472214  355.91101074    0.00000000    0.00000000
   12.98611164  371.79000854    0.00000000    0.00000000
   12.98750019  368.19500732    0.00000000    0.00000000
   12.98888874  355.26998901    0.00000000    0.00000000
   12.99027824  386.13598633    0.00000000    0.00000000
   12.99166679  377.86801147    0.00000000    0.00000000
   12.99305534  365.30099487    0.00000000    0.00000000
   12.99444485  382.30398560    0.00000000    0.00000000
   12.99583340  398.82000732    0.00000000    0.00000000
   12.99722290  377.57598877    0.00000000    0.00000000
   12.99861145  423.47698975    0.00000000    0.00000000
   13.00000000  368.24499512    0.00000000    0.00000000
   13.00138855  374.77301025    0.00000000    0.00000000
   13.00277805  359.16299438    0.00000000    0.00000000
   13.00416660  381.84799194    0.00000000    0.00000000
   13.00555515  380.38500977    0.00000000    0.00000000
   13.00694466  373.58898926    0.00000000    0.00000000
   13.00833321  403.93301392    0.00000000    0.00000000
   13.00972176  397.09201050    0.00000000    0.00000000
   13.01111126  393.52999878    0.00000000    0.00000000
   13.01249981  375.65798950    0.00000000    0.00000000
   13.01388931  385.95401001    0.00000000    0.00000000
   13.01527786  389.50500488    0.00000000    0.00000000
   13.01666641  348.06600952    0.00000000    0.00000000
   13.01666641  333.78799438    0.00000000    0.00000000
   13.01694393  385.72299194    0.00000000    0.00000000
   13.01694393  397.96899414    0.00000000    0.00000000
   13.01694393  386.55499268    0.00000000    0.00000000
   13.01722240  409.26400757    0.00000000    0.00000000
   13.01722240  330.70401001    0.00000000    0.00000000
   13.01722240  319.96798706    0.00000000    0.00000000
   13.01749992  330.46600342    0.00000000    0.00000000
   13.01749992  330.04501343    0.00000000    0.00000000
   13.01805496  363.96701050    0.00000000    0.00000000
   13.02138901  373.36499023    0.00000000    0.00000000
   13.02444458  364.53201294    0.00000000    0.00000000
   13.02777767  370.81500244    0.00000000    0.00000000
   13.03083324  381.18701172    0.00000000    0.00000000
   13.03750038  381.18701172    0.00000000    0.00000000
   13.04166698  348.16900635    0.00000000    0.00000000
   13.04472256  373.12600708    0.00000000    0.00000000
   13.04805565  365.14001465    0.00000000    0.00000000
   13.05055618  390.52700806    0.00000000    0.00000000
   13.05194473  371.99301147    0.00000000    0.00000000
   13.05500031  374.27899170    0.00000000    0.00000000
   13.05833340  382.69500732    0.00000000    0.00000000
   13.06138897  368.47100830    0.00000000    0.00000000
   13.06472206  367.22698975    0.00000000    0.00000000
   13.06805515  384.65899658    0.00000000    0.00000000
   13.07111073  340.51501465    4.90999985    1.88000000
   13.07444477  353.42401123    4.90999985    1.88000000
   13.08027744  353.42401123    4.90999985    1.88000000
   13.08444405  382.54699707    4.90999985    1.88000000
   13.08777714  357.79501343    4.90999985    1.88000000
   13.09083271  335.59899902    4.90999985    1.88000000
   13.09416676  341.81298828    4.90999985    1.88000000
   13.09749985  351.02801514    4.90999985    1.88000000
   13.10055637  324.66000366    4.90999985    1.88000000
   13.10388947  358.86898804    4.90999985    1.88000000
   13.10694504  338.51199341    4.90999985    1.88000000
   13.11027813  324.64099121    4.90999985    1.88000000
   13.11361122  334.44100952    4.90999985    1.88000000
   13.11666679  325.82199097    4.90999985    1.88000000
   13.11722279  331.27499390    4.90999985    1.88000000
   13.12305546  331.27499390    4.90999985    1.88000000
   13.12722206  326.31500244    4.90999985    1.88000000
   13.13055611  308.06100464    4.90999985    1.88000000
   13.13388920  294.19799805    4.90999985    1.88000000
   13.13694477  306.40701294    4.90999985    1.88000000
   13.14027786  329.74200439    4.90999985    1.88000000
   13.14333344  339.49600220    4.90999985    1.88000000
   13.14666653  295.79000854    4.90999985    1.88000000
   13.14999962  311.91598511    4.90999985    1.88000000
   13.15055561  296.75698853    4.90999985    1.88000000
   13.15361118  289.26000977    4.90999985    1.88000000
   13.15694427  311.67199707    4.90999985    1.88000000
   13.15999985  307.58499146    4.90999985    1.88000000
   13.16611099  307.58499146    4.90999985    1.88000000
   13.17027855  293.83200073    4.90999985    1.88000000
   13.17333412  304.50399780    4.90999985    1.88000000
   13.17666721  294.73800659    4.90999985    1.88000000
   13.18000031  297.33200073    4.90999985    1.88000000
   13.18305588  289.90499878    4.90999985    1.88000000
   13.18388939  282.95999146    4.90999985    1.88000000
   13.18666649  298.59899902    4.90999985    1.88000000
   13.19000053  293.96600342    4.90999985    1.88000000
   13.19305515  306.15301514    4.90999985    1.88000000
   13.19638920  291.81900024    4.90999985    1.88000000
   13.19944477  300.60101318    4.90999985    1.88000000
   13.20277786  265.33801270    4.90999985    1.88000000
   13.20888901  265.33801270    4.90999985    1.88000000
   13.21305561  283.59600830    4.90999985    1.88000000
   13.21611118  288.51400757    4.90999985    1.88000000
   13.21722221  284.83898926    4.90999985    1.88000000
   13.21999931  284.46701050    4.90999985    1.88000000
   13.22333336  283.11898804    4.90999985    1.88000000
   13.22638798  289.50601196    4.90999985    1.88000000
   13.22972202  298.83898926    4.90999985    1.88000000
   13.23277760  301.16000366    4.90999985    1.88000000
   13.23611164  306.27700806    4.90999985    1.88000000
   13.23944473  297.59600830    4.90999985    1.88000000
   13.24250031  307.47100830    4.90999985    1.88000000
   13.24583340  299.62701416    4.90999985    1.88000000
   13.25166702  299.62701416    4.90999985    1.88000000
   13.25583363  305.87200928    4.90999985    1.88000000
   13.25916672  278.14199829    4.90999985    1.88000000
   13.26222229  262.79598999    4.90999985    1.88000000
   13.26555538  255.13800049    4.90999985    1.88000000
   13.26888847  267.38598633    4.90999985    1.88000000
   13.27194405  252.07499695    4.90999985    1.88000000
   13.27527714  264.04998779    4.90999985    1.88000000
   13.27833271  257.00201416    4.90999985    1.88000000
   13.28166676  256.67898560    4.90999985    1.88000000
   13.28388977  249.21099854    4.90999985    1.88000000
   13.28527832  258.07199097    4.90999985    1.88000000
   13.28861141  255.16299438    4.90999985    1.88000000
   13.29444504  255.16299438    4.90999985    1.88000000
   13.29861164  259.96798706    4.90999985    1.88000000
   13.30194473  245.10899353    4.90999985    1.88000000
   13.30527782  244.23300171    4.90999985    1.88000000
   13.30833340  238.53999329    4.90999985    1.88000000
   13.31166649  261.42098999    4.90999985    1.88000000
   13.31472206  263.45800781    4.90999985    1.88000000
   13.31722260  252.57400513    4.90999985    1.88000000
   13.31861115  256.78399658    4.90999985    1.88000000
   13.32194424  263.54699707    4.90999985    1.88000000
   13.32499981  267.77899170    4.90999985    1.88000000
   13.32833290  273.35501099    4.90999985    1.88000000
   13.33138847  249.53999329    4.90999985    1.88000000
   13.33749962  249.53999329    4.90999985    1.88000000
   13.34166622  254.36300659    4.90999985    1.88000000
   13.34472179  244.25300598    4.90999985    1.88000000
   13.34805489  258.36401367    4.90999985    1.88000000
   13.35055637  262.75100708    4.90999985    1.88000000
   13.35166740  255.61199951    4.90999985    1.88000000
   13.35500050  245.79499817    4.90999985    1.88000000
   13.35805607  228.86500549    4.90999985    1.88000000
   13.36138916  236.31599426    4.90999985    1.88000000
   13.36444473  235.96600342    4.90999985    1.88000000
   13.36777782  232.86300659    4.90999985    1.88000000
   13.37111092  240.84399414    4.90999985    1.88000000
   13.37416649  221.56799316    4.90999985    1.88000000
   13.38027763  221.56799316    4.90999985    1.88000000
   13.38444424  224.16799927    4.90999985    1.88000000
   13.38749981  229.48899841    4.90999985    1.88000000
   13.39083290  216.11199951    4.90999985    1.88000000
   13.39416695  218.84399414    4.90999985    1.88000000
   13.39722252  239.28900146    4.90999985    1.88000000
   13.40055561  222.80400085    4.90999985    1.88000000
   13.40388870  222.77499390    4.90999985    1.88000000
   13.42111111  244.37399292    4.90999985    1.88000000
   13.42527771  244.37399292    4.90999985    1.88000000
   13.42944431  220.69599915    4.90999985    1.88000000
   13.43249989  231.48599243    4.90999985    1.88000000
   13.43583298  226.56599426    4.90999985    1.88000000
   13.43888855  239.62600708    4.90999985    1.88000000
   13.44222260  234.47300720    4.90999985    1.88000000
   13.44555569  223.08599854    4.90999985    1.88000000
   13.44861126  223.93299866    4.90999985    1.88000000
   13.45194435  220.74800110    4.90999985    1.88000000
   13.45416641  222.97099304    4.90999985    1.88000000
   13.45555496  210.72500610    4.90999985    1.88000000
   13.45888901  203.46000671    4.90999985    1.88000000
   13.46194458  208.72999573    4.90999985    1.88000000
   13.46805477  208.72999573    4.90999985    1.88000000
   13.47222137  213.19999695    4.90999985    1.88000000
   13.47527695  215.61399841    4.90999985    1.88000000
   13.47861099  215.90800476    4.90999985    1.88000000
   13.48194408  230.45199585    4.90999985    1.88000000
   13.48500061  231.84199524    4.90999985    1.88000000
   13.48750019  208.54299927    4.90999985    1.88000000
   13.48861122  224.91900635    4.90999985    1.88000000
   13.49194431  211.47700500    4.90999985    1.88000000
   13.49499989  212.11599731    4.90999985    1.88000000
   13.49833393  218.18200684    4.90999985    1.88000000
   13.50166702  206.30599976    4.90999985    1.88000000
   13.50472260  218.59199524    4.90999985    1.88000000
   13.51083374  218.59199524    4.90999985    1.88000000
   13.51500034  216.83700562    4.90999985    1.88000000
   13.51833344  207.41400146    4.90999985    1.88000000
   13.52111053  214.84800720    4.90999985    1.88000000
   13.52194405  212.61000061    4.90999985    1.88000000
   13.52527714  225.74699402    4.90999985    1.88000000
   13.52833271  222.38800049    4.90999985    1.88000000
   13.53166676  228.24099731    4.90999985    1.88000000
   13.53500080  207.90499878    4.90999985    1.88000000
   13.53805637  214.54100037    4.90999985    1.88000000
   13.54138947  213.91600037    4.90999985    1.88000000
   13.54444504  199.49699402    4.90999985    1.88000000
   13.54777813  205.23800659    4.90999985    1.88000000
   13.55388927  205.23800659    4.90999985    1.88000000
   13.55777836  203.87699890    4.90999985    1.88000000
   13.56111145  199.57400513    4.90999985    1.88000000
   13.56444454  200.27699280    4.90999985    1.88000000
   13.56750011  212.05799866    4.90999985    1.88000000
   13.57083321  191.39100647    4.90999985    1.88000000
   13.57388878  219.32299805    4.90999985    1.88000000
   13.57722187  202.13800049    4.90999985    1.88000000
   13.58055592  198.95100403    4.90999985    1.88000000
   13.58361053  192.52999878    4.90999985    1.88000000
   13.58694458  220.26699829    4.90999985    1.88000000
   13.58888817  207.05799866    4.90999985    1.88000000
   13.59055519  206.05799866    4.90999985    1.88000000
   13.59666634  206.05799866    4.90999985    1.88000000
   13.60083389  198.98300171    4.90999985    1.88000000
   13.60388947  187.63699341    4.90999985    1.88000000
   13.60722256  203.09199524    4.90999985    1.88000000
   13.61055565  203.70399475    4.90999985    1.88000000
   13.61361122  203.87199402    4.90999985    1.88000000
   13.61694431  207.70899963    4.90999985    1.88000000
   13.61999989  202.13000488    4.90999985    1.88000000
   13.62222195  213.92799377    4.90999985    1.88000000
   13.62361145  231.61199951    4.90999985    1.88000000
   13.62694454  207.80799866    4.90999985    1.88000000
   13.63027763  210.20399475    4.90999985    1.88000000
   13.63333321  214.60699463    4.90999985    1.88000000
   13.63944435  214.60699463    4.90999985    1.88000000
   13.64361095  210.74699402    4.90999985    1.88000000
   13.64694405  207.85899353    4.90999985    1.88000000
   13.64999962  210.76400757    4.90999985    1.88000000
   13.65333271  208.17599487    4.90999985    1.88000000
   13.65555477  201.65199280    4.90999985    1.88000000
   13.65694427  221.38800049    4.90999985    1.88000000
   13.66027737  206.88200378    4.90999985    1.88000000
   13.66333294  200.77299500    4.90999985    1.88000000
   13.66666698  217.81799316    4.90999985    1.88000000
   13.67000008  221.64799500    4.90999985    1.88000000
   13.67305565  211.67300415    4.90999985    1.88000000
   13.67638874  213.46000671    4.90999985    1.88000000
   13.68222237  213.46000671    4.90999985    1.88000000
   13.68638897  208.44999695    4.90999985    1.88000000
   13.68888855  213.96200562    4.90999985    1.88000000
   13.69000053  218.16299438    4.90999985    1.88000000
   13.69333363  209.63999939    4.90999985    1.88000000
   13.69638920  207.12800598    4.90999985    1.88000000
   13.69972229  206.63800049    4.90999985    1.88000000
   13.70305538  203.48500061    4.90999985    1.88000000
   13.70611095  227.90600586    4.90999985    1.88000000
   13.70944405  196.72200012    4.90999985    1.88000000
   13.71277714  203.90100098    4.90999985    1.88000000
   13.71583271  196.41700745    4.90999985    1.88000000
   13.71916580  200.13600159    4.90999985    1.88000000
   13.72499943  200.13600159    4.90999985    1.88000000
   13.72916603  195.76800537    4.90999985    1.88000000
   13.73249912  177.95799255    4.90999985    1.88000000
   13.73583317  194.31799316    4.90999985    1.88000000
   13.73888874  192.14300537    4.90999985    1.88000000
   13.74222279  190.26100159    4.90999985    1.88000000
   13.74527836  191.29899597    4.90999985    1.88000000
   13.74861145  179.77600098    4.90999985    1.88000000
   13.75194454  183.98100281    4.90999985    1.88000000
   13.75500011  201.17700195    4.90999985    1.88000000
   13.75611115  188.56500244    4.90999985    1.88000000
   13.75861073  196.23699951    4.90999985    1.88000000
   13.76194477  189.70899963    4.90999985    1.88000000
   13.76805496  189.70899963    4.90999985    1.88000000
   13.77222157  185.31100464    4.90999985    1.88000000
   13.77527714  191.53700256    4.90999985    1.88000000
   13.77861118  187.20899963    4.90999985    1.88000000
   13.78166676  176.37100220    4.90999985    1.88000000
   13.78500080  175.69400024    4.90999985    1.88000000
   13.78833389  192.59800720    4.90999985    1.88000000
   13.78944492  193.64500427    4.90999985    1.88000000
   13.79166698  178.96099854    4.90999985    1.88000000
   13.79500008  207.20899963    4.90999985    1.88000000
   13.79833412  197.11999512    4.90999985    1.88000000
   13.80138874  200.29400635    4.90999985    1.88000000
   13.80472279  199.93600464    4.90999985    1.88000000
   13.81083393  199.93600464    4.90999985    1.88000000
   13.81500053  190.00500488    4.90999985    1.88000000
   13.81805515  175.28500366    4.90999985    1.88000000
   13.82138920  199.80200195    4.90999985    1.88000000
   13.82305527  196.16999817    4.90999985    1.88000000
   13.82499981  192.69299316    4.90999985    1.88000000
   13.82833290  190.52400208    4.90999985    1.88000000
   13.83138847  192.14599609    4.90999985    1.88000000
   13.83472157  189.10899353    4.90999985    1.88000000
   13.83805561  179.58200073    4.90999985    1.88000000
   13.84111118  189.82899475    4.90999985    1.88000000
   13.84444427  187.28599548    4.90999985    1.88000000
   13.84777737  180.24800110    4.90999985    1.88000000
   13.85361195  180.24800110    4.90999985    1.88000000
   13.85777855  176.97700500    4.90999985    1.88000000
   13.86111164  186.02999878    4.90999985    1.88000000
   13.86444473  173.65299988    4.90999985    1.88000000
   13.86750031  184.53999329    4.90999985    1.88000000
   13.87083340  182.87100220    4.90999985    1.88000000
   13.87388897  185.88900757    4.90999985    1.88000000
   13.87722206  177.40699768    4.90999985    1.88000000
   13.88055611  189.27299500    4.90999985    1.88000000
   13.88361073  175.61599731    4.90999985    1.88000000
   13.88694477  164.89500427    4.90999985    1.88000000
   13.88972187  178.15699768    4.90999985    1.88000000
   13.89055538  176.19200134    4.90999985    1.88000000
   13.89666653  176.19200134    4.90999985    1.88000000
   13.90055561  183.83999634    4.90999985    1.88000000
   13.90388870  176.83900452    4.90999985    1.88000000
   13.90722179  175.90899658    4.90999985    1.88000000
   13.91027737  167.95700073    4.90999985    1.88000000
   13.91361046  173.19299316    4.90999985    1.88000000
   13.91694450  182.59199524    4.90999985    1.88000000
   13.92000008  173.31100464    4.90999985    1.88000000
   13.92305565  170.70100403    4.90999985    1.88000000
   13.92361164  166.02099609    4.90999985    1.88000000
   13.92694473  177.90800476    4.90999985    1.88000000
   13.93027782  171.70199585    4.90999985    1.88000000
   13.93333340  182.75300598    4.90999985    1.88000000
   13.93944454  182.75300598    4.90999985    1.88000000
   13.94361115  185.36000061    4.90999985    1.88000000
   13.94666672  175.63999939    4.90999985    1.88000000
   13.94999981  178.89799500    4.90999985    1.88000000
   13.95305538  178.13299561    4.90999985    1.88000000
   13.95638847  187.97700500    4.90999985    1.88000000
   13.95666695  181.08099365    4.90999985    1.88000000
   13.96000004  183.54400635    4.90999985    1.88000000
   13.96333313  180.21400452    4.90999985    1.88000000
   13.96638870  186.91799927    4.90999985    1.88000000
   13.96972179  183.46000671    4.90999985    1.88000000
   13.97277737  179.30200195    4.90999985    1.88000000
   13.97611046  179.80499268    4.90999985    1.88000000
   13.98222160  179.80499268    4.90999985    1.88000000
   13.98638916  188.11399841    4.90999985    1.88000000
   13.98972225  193.16700745    4.90999985    1.88000000
   13.99000072  182.31599426    4.90999985    1.88000000
   13.99333382  179.17199707    4.90999985    1.88000000
   13.99666691  183.47099304    4.90999985    1.88000000
   13.99972248  184.10800171    4.90999985    1.88000000
   14.00305557  176.32600403    4.90999985    1.88000000
   14.00611115  181.90600586    4.90999985    1.88000000
   14.00944424  178.48399353    4.90999985    1.88000000
   14.01277733  167.30099487    4.90999985    1.88000000
   14.01583290  172.33000183    4.90999985    1.88000000
   14.01916599  180.88600159    4.90999985    1.88000000
   14.02499962  180.88600159    4.90999985    1.88000000
   14.02916622  175.92999268    4.90999985    1.88000000
   14.03249931  161.58200073    4.90999985    1.88000000
   14.03555584  178.68800354    4.90999985    1.88000000
   14.03888893  181.97999573    4.90999985    1.88000000
   14.04222298  177.42599487    4.90999985    1.88000000
   14.04527855  165.57000732    4.90999985    1.88000000
   14.04861164  182.19000244    4.90999985    1.88000000
   14.05194473  171.11900330    4.90999985    1.88000000
   14.05500031  178.50999451    4.90999985    1.88000000
   14.05638885  178.68499756    4.90999985    1.88000000
   14.05861092  166.38000488    4.90999985    1.88000000
   14.06194496  170.93299866    4.90999985    1.88000000
   14.06805515  170.93299866    4.90999985    1.88000000
   14.07194424  174.45399475    4.90999985    1.88000000
   14.07527733  183.64500427    4.90999985    1.88000000
   14.07861137  175.51600647    4.90999985    1.88000000
   14.08166695  183.75700378    4.90999985    1.88000000
   14.08500004  182.20399475    4.90999985    1.88000000
   14.08805561  185.83700562    4.90999985    1.88000000
   14.08972168  171.38499451    4.90999985    1.88000000
   14.09166622  172.10099792    4.90999985    1.88000000
   14.09499931  171.39399719    4.90999985    1.88000000
   14.09833336  161.35200500    4.90999985    1.88000000
   14.10138893  177.88600159    4.90999985    1.88000000
   14.10472298  175.79600525    4.90999985    1.88000000
   14.11083412  175.79600525    4.90999985    1.88000000
   14.11500072  175.33500671    4.90999985    1.88000000
   14.11805534  192.46800232    4.90999985    1.88000000
   14.12138939  207.16400146    4.90999985    1.88000000
   14.12305546  246.59800720    4.90999985    1.88000000
   14.12500000  266.31298828    4.90999985    1.88000000
   14.12833309  260.71301270    4.90999985    1.88000000
   14.13138866  253.17300415    4.90999985    1.88000000
   14.13472176  259.95901489    4.90999985    1.88000000
   14.13805580  189.96699524    4.90999985    1.88000000
   14.14111137  112.46199799    4.90999985    1.88000000
   14.14444447   80.02780151    4.90999985    1.88000000
   14.14750004  111.86199951    4.90999985    1.88000000
   14.15361118  111.86199951    4.90999985    1.88000000
   14.15777779   -1.00000000    4.90999985    1.88000000
   14.16083336   -1.00000000    4.90999985    1.88000000
   14.16416645   -1.00000000    4.90999985    1.88000000
   14.16750050   79.77230072    4.90999985    1.88000000
   14.17055607  101.37000275    4.90999985    1.88000000
   14.17388916   79.77179718    4.90999985    1.88000000
   14.17722225   -1.00000000    4.90999985    1.88000000
   14.18027782   -1.00000000    4.90999985    1.88000000
   14.18361092   -1.00000000    4.90999985    1.88000000
   14.18666649   -1.00000000    4.90999985    1.88000000
   14.19027805   -1.00000000    4.90999985    1.88000000
   14.20055580   -1.00000000    4.90999985    1.88000000
   14.20361137   -1.00000000    4.90999985    1.88000000
   14.20694447   -1.00000000    4.90999985    1.88000000
   14.21027756   -1.00000000    4.90999985    1.88000000
   14.21333313   -1.00000000    4.90999985    1.88000000
   14.21666622   -1.00000000    4.90999985    1.88000000
   14.21999931   -1.00000000    4.90999985    1.88000000
   14.22361088   -1.00000000    4.90999985    1.88000000
   14.22666645   -1.00000000    4.90999985    1.88000000
   14.22999954   -1.00000000    4.90999985    1.88000000
   14.23333359   -1.00000000    4.90999985    1.88000000
   14.23916721   -1.00000000    4.90999985    1.88000000
   14.24333382  319.02600098    4.90999985    1.88000000
   14.24666691  254.38699341    4.90999985    1.88000000
   14.25000000  234.27099609    4.90999985    1.88000000
   14.25305557  233.40299988    4.90999985    1.88000000
   14.25638866  268.65600586    4.90999985    1.88000000
   14.25694466  254.62300110    4.90999985    1.88000000
   14.26000023  250.05000305    4.90999985    1.88000000
   14.26333332  278.94601440    4.90999985    1.88000000
   14.26666641  228.48800659    4.90999985    1.88000000
   14.26972198  182.24299622    4.90999985    1.88000000
   14.27305508  186.31700134    4.90999985    1.88000000
   14.27638817  161.58700562    4.90999985    1.88000000
   14.28222179  161.58700562    4.90999985    1.88000000
   14.28638935  172.56100464    4.90999985    1.88000000
   14.28944492  173.12500000    4.90999985    1.88000000
   14.29027843  168.69599915    4.90999985    1.88000000
   14.29305553  169.18899536    4.90999985    1.88000000
   14.29638958  172.19900513    4.90999985    1.88000000
   14.29972267  166.01899719    4.90999985    1.88000000
   14.30277824  167.68099976    4.90999985    1.88000000
   14.30611134  167.98699951    4.90999985    1.88000000
   14.30944443  174.03300476    4.90999985    1.88000000
   14.31250000  162.75199890    4.90999985    1.88000000
   14.31583309  168.07000732    4.90999985    1.88000000
   14.31888866  164.45100403    4.90999985    1.88000000
   14.32499981  164.45100403    4.90999985    1.88000000
   14.32916641  161.33900452    4.90999985    1.88000000
   14.33222198  181.15400696    4.90999985    1.88000000
   14.33555508  170.99299622    4.90999985    1.88000000
   14.33888817  197.28199768    4.90999985    1.88000000
   14.34194374  197.66799927    4.90999985    1.88000000
   14.34527779  256.56500244    4.90999985    1.88000000
   14.34861088  314.86300659    4.90999985    1.88000000
   14.35166740  237.21600342    4.90999985    1.88000000
   14.35500050   -1.00000000    4.90999985    1.88000000
   14.35833359   -1.00000000    4.90999985    1.88000000
   14.36166668   -1.00000000    4.90999985    1.88000000
   14.37194443   -1.00000000    4.90999985    1.88000000
   14.37500000   -1.00000000    4.90999985    1.88000000
   14.37833309   -1.00000000    4.90999985    1.88000000
   14.38166714   -1.00000000    4.90999985    1.88000000
   14.38472176   -1.00000000    4.90999985    1.88000000
   14.38805580  101.39399719    4.90999985    1.88000000
   14.39027786  346.65701294    4.90999985    1.88000000
   14.39138889  300.55300903    4.90999985    1.88000000
   14.39472198  202.57899475    4.90999985    1.88000000
   14.39805508  186.50700378    4.90999985    1.88000000
   14.40111065  176.83099365    4.90999985    1.88000000
   14.40444374  161.86900330    4.90999985    1.88000000
   14.41055489  161.86900330    4.90999985    1.88000000
   14.41472149  161.11900330    4.90999985    1.88000000
   14.41805553  151.41600037    4.90999985    1.88000000
   14.42138958  149.33700562    4.90999985    1.88000000
   14.43833351  166.92300415    4.90999985    1.88000000
   14.44138908  166.02600098    4.90999985    1.88000000
   14.44444466  170.36500549    4.90999985    1.88000000
   14.44777775  174.90400696    4.90999985    1.88000000
   14.45388889  174.90400696    4.90999985    1.88000000
   14.45777798  169.95199585    4.90999985    1.88000000
   14.46111107  192.55200195    4.90999985    1.88000000
   14.46444416  327.09600830    4.90999985    1.88000000
   14.46749973   -1.00000000   -1.00000000   -1.00000000
   14.47083282   -1.00000000    4.90999985    1.88000000
   14.47444439   -1.00000000    4.90999985    1.88000000
   14.47749996   -1.00000000    4.90999985    1.88000000
   14.48083305   -1.00000000    4.90999985    1.88000000
   14.48416710   -1.00000000    4.90999985    1.88000000
   14.48722267   -1.00000000    4.90999985    1.88000000
   14.49055576   -1.00000000    4.90999985    1.88000000
   14.50055599   -1.00000000    4.90999985    1.88000000
   14.50388908   -1.00000000    4.90999985    1.88000000
   14.50777817   -1.00000000    4.90999985    1.88000000
   14.51111126   -1.00000000    4.90999985    1.88000000
   14.51416683   -1.00000000    4.90999985    1.88000000
   14.51749992   -1.00000000    4.90999985    1.88000000
   14.52083302   -1.00000000    4.90999985    1.88000000
   14.52388859   -1.00000000    4.90999985    1.88000000
   14.52722168   -1.00000000    4.90999985    1.88000000
   14.53027725   -1.00000000    4.90999985    1.88000000
   14.53361130   -1.00000000    4.90999985    1.88000000
   14.54361153   -1.00000000    4.90999985    1.88000000
   14.54666710   -1.00000000    4.90999985    1.88000000
   14.55000019   -1.00000000    4.90999985    1.88000000
   14.55305576   -1.00000000    4.90999985    1.88000000
   14.55638885   -1.00000000    4.90999985    1.88000000
   14.55972195   -1.00000000    4.90999985    1.88000000
   14.56277752   -1.00000000    4.90999985    1.88000000
   14.56611156   -1.00000000    4.90999985    1.88000000
   14.56944466   -1.00000000    4.90999985    1.88000000
   14.57305527   -1.00000000    4.90999985    1.88000000
   14.57638836   -1.00000000   -1.00000000   -1.00000000
   14.58222198   -1.00000000   -1.00000000   -1.00000000
   14.58638859   -1.00000000    4.90999985    1.88000000
   14.58972168   -1.00000000    4.90999985    1.88000000
   14.59277725  148.96899414    4.90999985    1.88000000
   14.59611034  339.25799561    4.90999985    1.88000000
   14.59944439  140.69200134    4.90999985    1.88000000
   14.60249996  377.14498901    4.90999985    1.88000000
   14.60500050  280.88198853    4.90999985    1.88000000
   14.60611153  233.92599487    4.90999985    1.88000000
   14.60944462  291.32501221    4.90999985    1.88000000
   14.61250019   -1.00000000    4.90999985    1.88000000
   14.61583328  152.79800415    4.90999985    1.88000000
   14.61916637  322.32901001    4.90999985    1.88000000
   14.62500000  322.32901001    4.90999985    1.88000000
   14.62916660   -1.00000000    4.90999985    1.88000000
   14.63249969  366.29501343    4.90999985    1.88000000
   14.63583279  175.71600342    4.90999985    1.88000000
   14.63833332  167.69900513    4.90999985    1.88000000
   14.63916683  169.37300110    4.90999985    1.88000000
   14.64249992  168.03100586    4.90999985    1.88000000
   14.64583302  197.54800415    4.90999985    1.88000000
   14.64888859  359.34698486    4.90999985    1.88000000
   14.65222168  348.19500732    4.90999985    1.88000000
   14.65555477  384.39599609    4.90999985    1.88000000
   14.65861034  144.88699341    4.90999985    1.88000000
   14.66194439  383.81799316    4.90999985    1.88000000
   14.66805553  383.81799316    4.90999985    1.88000000
   14.67222214  228.66099548    4.90999985    1.88000000
   14.67527771  240.02999878    4.90999985    1.88000000
   14.67861176  259.53900146    4.90999985    1.88000000
   14.68166733  228.52299500    4.90999985    1.88000000
   14.68500042  237.09899902    4.90999985    1.88000000
   14.68833351  103.23600006    4.90999985    1.88000000
   14.69138908   -1.00000000    4.90999985    1.88000000
   14.69472218   -1.00000000    4.90999985    1.88000000
   14.69805527   -1.00000000    4.90999985    1.88000000
   14.70111084   -1.00000000    4.90999985    1.88000000
   14.70444393   -1.00000000    4.90999985    1.88000000
   14.71472168   -1.00000000    4.90999985    1.88000000
   14.71805477   70.69290161    4.90999985    1.88000000
   14.72138882   90.99559784    4.90999985    1.88000000
   14.72444439  317.82699585    4.90999985    1.88000000
   14.72777748  271.43701172    4.90999985    1.88000000
   14.73111057  187.02900696    4.90999985    1.88000000
   14.73416710  167.76800537    4.90999985    1.88000000
   14.73750019  158.89199829    4.90999985    1.88000000
   14.73833370  159.97500610    4.90999985    1.88000000
   14.74083328  158.80799866    4.90999985    1.88000000
   14.74416733  152.99200439    4.90999985    1.88000000
   14.74750042  176.06100464    4.90999985    1.88000000
   14.75361156  176.06100464    4.90999985    1.88000000
   14.75777817  155.54899597    4.90999985    1.88000000
   14.76111126  156.68099976    4.90999985    1.88000000
   14.76416683  155.17799377    4.90999985    1.88000000
   14.76749992  155.43899536    4.90999985    1.88000000
   14.77083302  170.02499390    4.90999985    1.88000000
   14.77166653  161.89199829    4.90999985    1.88000000
   14.77416611   -1.00000000    4.90999985    1.88000000
   14.77750015   -1.00000000    4.90999985    1.88000000
   14.78083324   -1.00000000    4.90999985    1.88000000
   14.78388977   -1.00000000    4.90999985    1.88000000
   14.78722286   -1.00000000    4.90999985    1.88000000
   14.79055595   -1.00000000    4.90999985    1.88000000
   14.80055618   -1.00000000    4.90999985    1.88000000
   14.80388927   -1.00000000    4.90999985    1.88000000
   14.80722237   -1.00000000    4.90999985    1.88000000
   14.81055546   -1.00000000    4.90999985    1.88000000
   14.81361103   -1.00000000    4.90999985    1.88000000
   14.81694412   -1.00000000    4.90999985    1.88000000
   14.82027817   -1.00000000    4.90999985    1.88000000
   14.82333374   -1.00000000    4.90999985    1.88000000
   14.82666683   -1.00000000    4.90999985    1.88000000
   14.82972240  127.85399628    4.90999985    1.88000000
   14.83305550  271.04998779    4.90999985    1.88000000
   14.83944416  271.04998779    4.90999985    1.88000000
   14.84361076  173.78799438    4.90999985    1.88000000
   14.84666634  170.06599426    4.90999985    1.88000000
   14.85000038  157.04800415    4.90999985    1.88000000
   14.85305595  157.76800537    4.90999985    1.88000000
   14.85638905  169.94799805    4.90999985    1.88000000
   14.85972214  191.85800171    4.90999985    1.88000000
   14.86277771   -1.00000000    4.90999985    1.88000000
   14.86611176   -1.00000000    4.90999985    1.88000000
   14.86944485   -1.00000000    4.90999985    1.88000000
   14.87277794   -1.00000000    4.90999985    1.88000000
   14.87611103   -1.00000000    4.90999985    1.88000000
   14.88611126   -1.00000000    4.90999985    1.88000000
   14.88944435  351.73098755    4.90999985    1.88000000
   14.89277744  250.68099976    4.90999985    1.88000000
   14.89583302  231.75300598    4.90999985    1.88000000
   14.89916611  189.86500549    4.90999985    1.88000000
   14.90249920  188.73500061    4.90999985    1.88000000
   14.90499973  223.47200012    4.90999985    1.88000000
   14.90583324  180.44700623    4.90999985    1.88000000
   14.90916634  165.05999756    4.90999985    1.88000000
   14.91249943  158.53199768    4.90999985    1.88000000
   14.91555500  161.60600281    4.90999985    1.88000000
   14.91888905  162.51600647    4.90999985    1.88000000
   14.92500019  162.51600647    4.90999985    1.88000000
   14.92916679  155.21600342    4.90999985    1.88000000
   14.93249989  166.72399902    4.90999985    1.88000000
   14.93555546  188.33599854    4.90999985    1.88000000
   14.93833351  181.81399536    4.90999985    1.88000000
   14.93916702  264.09298706    4.90999985    1.88000000
   14.94250011  224.44799805    4.90999985    1.88000000
   14.94583321  203.62600708    4.90999985    1.88000000
   14.94888878  163.26699829    4.90999985    1.88000000
   14.95222187  169.26899719    4.90999985    1.88000000
   14.95555496  172.89599609    4.90999985    1.88000000
   14.95861053  183.46400452    4.90999985    1.88000000
   14.96194458  321.25399780    4.90999985    1.88000000
   14.96777725  321.25399780    4.90999985    1.88000000
   14.97194386  247.84199524    4.90999985    1.88000000
   14.97527695  186.18899536    4.90999985    1.88000000
   14.97833252  170.51800537    4.90999985    1.88000000
   14.98166656  185.05099487    4.90999985    1.88000000
   14.98500061  161.52000427    4.90999985    1.88000000
   14.98805618  164.83900452    4.90999985    1.88000000
   14.99138927  155.98800659    4.90999985    1.88000000
   14.99472237  151.22500610    4.90999985    1.88000000
   14.99777794  153.58399963    4.90999985    1.88000000
   15.00111103  142.00799561    4.90999985    1.88000000
   15.00416660  152.99600220    4.90999985    1.88000000
   15.00500011  154.94099426    4.90999985    1.88000000
   15.01083374  154.94099426    4.90999985    1.88000000
   15.01472187  162.15299988    4.90999985    1.88000000
   15.01805496  151.10800171    4.90999985    1.88000000
   15.02138901  150.29699707    4.90999985    1.88000000
   15.02444458  146.60299683    4.90999985    1.88000000
   15.02777767  160.67599487    4.90999985    1.88000000
   15.03111076  157.12199402    4.90999985    1.88000000
   15.03416729  148.87699890    4.90999985    1.88000000
   15.03750038  154.20500183    4.90999985    1.88000000
   15.03833389  158.20799255    4.90999985    1.88000000
   15.04138947  154.02900696    4.90999985    1.88000000
   15.04444504  153.04499817    4.90999985    1.88000000
   15.04777813  179.33500671    4.90999985    1.88000000
   15.05361176  179.33500671    4.90999985    1.88000000
   15.05777836  167.42900085    4.90999985    1.88000000
   15.06083393  166.24899292    4.90999985    1.88000000
   15.06416702  174.78799438    4.90999985    1.88000000
   15.06750011  166.73500061    4.90999985    1.88000000
   15.07055569  158.00500488    4.90999985    1.88000000
   15.07166672  178.00599670    4.90999985    1.88000000
   15.07444477  165.85499573    4.90999985    1.88000000
   15.07750034  191.96699524    4.90999985    1.88000000
   15.08083344  311.61898804    4.90999985    1.88000000
   15.08388901   -1.00000000    4.90999985    1.88000000
   15.08722210   -1.00000000    4.90999985    1.88000000
   15.09055519   -1.00000000    4.90999985    1.88000000
   15.10055637   -1.00000000    4.90999985    1.88000000
   15.10361195   -1.00000000    4.90999985    1.88000000
   15.10722256   -1.00000000    4.90999985    1.88000000
   15.11055565   -1.00000000    4.90999985    1.88000000
   15.11361122   -1.00000000    4.90999985    1.88000000
   15.11694431   -1.00000000    4.90999985    1.88000000
   15.12027836   -1.00000000    4.90999985    1.88000000
   15.12333393   -1.00000000    4.90999985    1.88000000
   15.12666702   -1.00000000    4.90999985    1.88000000
   15.13000011   -1.00000000    4.90999985    1.88000000
   15.13305569   -1.00000000    4.90999985    1.88000000
   15.14333344   -1.00000000    4.90999985    1.88000000
   15.14666653   -1.00000000    4.90999985    1.88000000
   15.14972210   -1.00000000    4.90999985    1.88000000
   15.15305519   -1.00000000    4.90999985    1.88000000
   15.15611076   -1.00000000    4.90999985    1.88000000
   15.15944386   -1.00000000    4.90999985    1.88000000
   15.16277695   -1.00000000    4.90999985    1.88000000
   15.16583252   -1.00000000    4.90999985    1.88000000
   15.16916656   -1.00000000    4.90999985    1.88000000
   15.17250061   -1.00000000    4.90999985    1.88000000
   15.17583370   -1.00000000    4.90999985    1.88000000
   15.18611145   -1.00000000    4.90999985    1.88000000
   15.18944454   -1.00000000    4.90999985    1.88000000
   15.19250011   -1.00000000    4.90999985    1.88000000
   15.19583321   -1.00000000    4.90999985    1.88000000
   15.19916630   -1.00000000    4.90999985    1.88000000
   15.20222187   -1.00000000    4.90999985    1.88000000
   15.20583344   -1.00000000    4.90999985    1.88000000
   15.20916653   -1.00000000    4.90999985    1.88000000
   15.21222210   -1.00000000    4.90999985    1.88000000
   15.21555519   -1.00000000    4.90999985    1.88000000
   15.21888828   -1.00000000    4.90999985    1.88000000
   15.22888851   -1.00000000    4.90999985    1.88000000
   15.23222160   -1.00000000    4.90999985    1.88000000
   15.23555565   -1.00000000    4.90999985    1.88000000
   15.23888874   -1.00000000    4.90999985    1.88000000
   15.24222279   -1.00000000    4.90999985    1.88000000
   15.24527836   -1.00000000    4.90999985    1.88000000
   15.24861145   -1.00000000    4.90999985    1.88000000
   15.25194454   -1.00000000    4.90999985    1.88000000
   15.25500011   -1.00000000    4.90999985    1.88000000
   15.25833321   -1.00000000    4.90999985    1.88000000
   15.26166630   -1.00000000    4.90999985    1.88000000
   15.27194405   -1.00000000    4.90999985    1.88000000
   15.27499962   -1.00000000    4.90999985    1.88000000
   15.27833271   -1.00000000    4.90999985    1.88000000
   15.28166676   -1.00000000    4.90999985    1.88000000
   15.28472233   -1.00000000    4.90999985    1.88000000
   15.38555527   -1.00000000   -1.00000000   -1.00000000
   15.73194408   -1.00000000   -1.00000000   -1.00000000
   15.85194492   -1.00000000   -1.00000000   -1.00000000
   17.92777634   90.19899750    4.90999985    1.88000000
   17.93083191  129.45300293    4.90999985    1.88000000
   17.93416595  124.78399658    4.90999985    1.88000000
   17.93750000  125.90799713    4.90999985    1.88000000
   17.94055557  116.74299622    4.90999985    1.88000000
   17.94388771  142.64599609    4.90999985    1.88000000
   17.94805527  142.64599609    4.90999985    1.88000000
   17.95222282  131.43800354    4.90999985    1.88000000
   17.95527840  138.47999573    4.90999985    1.88000000
   17.95861244  135.03999329    4.90999985    1.88000000
   17.96111107  129.69900513    4.90999985    1.88000000
   17.96222305  128.13800049    4.90999985    1.88000000
   17.96555710  133.40400696    4.90999985    1.88000000
   17.96888924  132.13299561    4.90999985    1.88000000
   17.97194481  125.52300262    4.90999985    1.88000000
   17.97527885  122.03600311    4.90999985    1.88000000
   17.97833443  131.95199585    4.90999985    1.88000000
   17.98166656  130.13400269    4.90999985    1.88000000
   17.98500061  122.36799622    4.90999985    1.88000000
   17.99083328  122.36799622    4.90999985    1.88000000
   17.99500084  128.39100647    4.90999985    1.88000000
   17.99805641  125.31400299    4.90999985    1.88000000
   18.00138855  128.14300537    4.90999985    1.88000000
   18.00472260  137.18600464    4.90999985    1.88000000
   18.00777817  117.80999756    4.90999985    1.88000000
   18.01111031  124.71199799    4.90999985    1.88000000
   18.01444435  127.82900238    4.90999985    1.88000000
   18.01749992  123.99099731    4.90999985    1.88000000
   18.02083397  123.18599701    4.90999985    1.88000000
   18.02388954  121.80699921    4.90999985    1.88000000
   18.02722168  123.81900024    4.90999985    1.88000000
   18.02777672  126.62899780    4.90999985    1.88000000
   18.03361130  126.62899780    4.90999985    1.88000000
   18.03777695  118.96600342    4.90999985    1.88000000
   18.04111099  118.33000183    4.90999985    1.88000000
   18.04416656  127.63099670    4.90999985    1.88000000
   18.04749870  135.80400085    4.90999985    1.88000000
   18.05083275  122.97399902    4.90999985    1.88000000
   18.05388832  125.31400299    4.90999985    1.88000000
   18.05722237  136.97200012    4.90999985    1.88000000
   18.06027794  128.56100464    4.90999985    1.88000000
   18.06110954  124.21700287    4.90999985    1.88000000
   18.06416512  128.03999329    4.90999985    1.88000000
   18.06722260  124.57099915    4.90999985    1.88000000
   18.07055664  124.15299988    4.90999985    1.88000000
   18.07638931  124.15299988    4.90999985    1.88000000
   18.08055687  131.57499695    4.90999985    1.88000000
   18.08388901  129.29400635    4.90999985    1.88000000
   18.08722305  128.07899475    4.90999985    1.88000000
   18.09027863  132.83099365    4.90999985    1.88000000
   18.09361267  125.96600342    4.90999985    1.88000000
   18.09444427  130.34800720    4.90999985    1.88000000
   18.09722328  131.57699585    4.90999985    1.88000000
   18.10027885  124.69499969    4.90999985    1.88000000
   18.10361099  130.54699707    4.90999985    1.88000000
   18.10694504  125.95899963    4.90999985    1.88000000
   18.11000061  136.35499573    4.90999985    1.88000000
   18.11333466  128.94200134    4.90999985    1.88000000
   18.11944389  128.94200134    4.90999985    1.88000000
   18.12361145  131.20100403    4.90999985    1.88000000
   18.12666702  128.46699524    4.90999985    1.88000000
   18.12777710  129.47000122    4.90999985    1.88000000
   18.13055611  127.68000031    4.90999985    1.88000000
   18.13361168  128.10800171    4.90999985    1.88000000
   18.13694382  129.20799255    4.90999985    1.88000000
   18.14027786  124.15100098    4.90999985    1.88000000
   18.14333344  131.35699463    4.90999985    1.88000000
   18.14666748  130.40600586    4.90999985    1.88000000
   18.14972115  115.57399750    4.90999985    1.88000000
   18.15305519  118.37500000    4.90999985    1.88000000
   18.15638924  123.79799652    4.90999985    1.88000000
   18.16222191  123.79799652    4.90999985    1.88000000
   18.16638756  137.73899841    4.90999985    1.88000000
   18.16944313  124.21499634    4.90999985    1.88000000
   18.17277718  124.29000092    4.90999985    1.88000000
   18.17611122  120.58300018    4.90999985    1.88000000
   18.17916679  121.53299713    4.90999985    1.88000000
   18.18249893  126.91899872    4.90999985    1.88000000
   18.18583298  125.97000122    4.90999985    1.88000000
   18.18888855  129.62500000    4.90999985    1.88000000
   18.19222069  123.42900085    4.90999985    1.88000000
   18.19444275  130.97900391    4.90999985    1.88000000
   18.19583321  134.50700378    4.90999985    1.88000000
   18.19888878  125.96499634    4.90999985    1.88000000
   18.20499992  125.96499634    4.90999985    1.88000000
   18.20916748  139.11399841    4.90999985    1.88000000
   18.21250153  131.18600464    4.90999985    1.88000000
   18.21555710  125.00000000    4.90999985    1.88000000
   18.21888924  126.54599762    4.90999985    1.88000000
   18.22222328  129.79699707    4.90999985    1.88000000
   18.22527885  123.57499695    4.90999985    1.88000000
   18.22777748  131.71400452    4.90999985    1.88000000
   18.22916794  130.67599487    4.90999985    1.88000000
   18.23222351  123.56199646    4.90999985    1.88000000
   18.23555565  127.50299835    4.90999985    1.88000000
   18.23888969  127.61900330    4.90999985    1.88000000
   18.24194527  129.18499756    4.90999985    1.88000000
   18.24777794  129.18499756    4.90999985    1.88000000
   18.25194359  127.85099792    4.90999985    1.88000000
   18.25527763  125.73799896    4.90999985    1.88000000
   18.25861168  130.69799805    4.90999985    1.88000000
   18.26111031  135.05599976    4.90999985    1.88000000
   18.26222229  129.96600342    4.90999985    1.88000000
   18.26527786  135.03900146    4.90999985    1.88000000
   18.26861000  135.22799683    4.90999985    1.88000000
   18.27194405  139.83299255    4.90999985    1.88000000
   18.27499962  131.14999390    4.90999985    1.88000000
   18.27833366  140.46099854    4.90999985    1.88000000
   18.28138924  127.70999908    4.90999985    1.88000000
   18.28472137  126.96199799    4.90999985    1.88000000
   18.29083252  126.96199799    4.90999985    1.88000000
   18.29500008  139.86099243    4.90999985    1.88000000
   18.29805565  130.12600708    4.90999985    1.88000000
   18.30138779  122.95600128    4.90999985    1.88000000
   18.30444336  117.06099701    4.90999985    1.88000000
   18.30777740  134.15899658    4.90999985    1.88000000
   18.31110954  119.98100281    4.90999985    1.88000000
   18.31416512  133.03599548    4.90999985    1.88000000
   18.31750107  123.02700043    4.90999985    1.88000000
   18.32083511  127.06300354    4.90999985    1.88000000
   18.32389069  111.33899689    4.90999985    1.88000000
   18.32722282  127.19400024    4.90999985    1.88000000
   18.32777786  114.20200348    4.90999985    1.88000000
   18.33361244  114.20200348    4.90999985    1.88000000
   18.33777809  121.63200378    4.90999985    1.88000000
   18.34083366  120.85700226    4.90999985    1.88000000
   18.34416771  125.92199707    4.90999985    1.88000000
   18.34749985  119.13800049    4.90999985    1.88000000
   18.35055542  127.32700348    4.90999985    1.88000000
   18.35388947  123.27999878    4.90999985    1.88000000
   18.35722351  121.88800049    4.90999985    1.88000000
   18.36027908  132.15800476    4.90999985    1.88000000
   18.36111069  137.24800110    4.90999985    1.88000000
   18.36388969  136.07099915    4.90999985    1.88000000
   18.36694527  130.72000122    4.90999985    1.88000000
   18.37027740  133.72500610    4.90999985    1.88000000
   18.37638855  133.72500610    4.90999985    1.88000000
   18.38055611  127.86100006    4.90999985    1.88000000
   18.38388824  130.72500610    4.90999985    1.88000000
   18.38694382  130.95599365    4.90999985    1.88000000
   18.39027786  136.44900513    4.90999985    1.88000000
   18.39361191  127.21800232    4.90999985    1.88000000
   18.39444351  125.70899963    4.90999985    1.88000000
   18.39722252  122.91899872    4.90999985    1.88000000
   18.40027809  126.12999725    4.90999985    1.88000000
   18.40361023  131.57899475    4.90999985    1.88000000
   18.40694427  130.87500000    4.90999985    1.88000000
   18.40999985  124.36900330    4.90999985    1.88000000
   18.41333389  125.44400024    4.90999985    1.88000000
   18.41916656  125.44400024    4.90999985    1.88000000
   18.42333221  138.01800537    4.90999985    1.88000000
   18.42666626  132.53700256    4.90999985    1.88000000
   18.42777634  138.96699524    4.90999985    1.88000000
   18.43027687  136.75900269    4.90999985    1.88000000
   18.43333244  128.28199768    4.90999985    1.88000000
   18.43666649  138.81399536    4.90999985    1.88000000
   18.43999863  125.63400269    4.90999985    1.88000000
   18.44305420  138.68600464    4.90999985    1.88000000
   18.44638824  125.66300201    4.90999985    1.88000000
   18.44972038  138.07499695    4.90999985    1.88000000
   18.45277786  131.30499268    4.90999985    1.88000000
   18.45611191  123.15200043    4.90999985    1.88000000
   18.46222305  123.15200043    4.90999985    1.88000000
   18.46638870  128.23500061    4.90999985    1.88000000
   18.46944427  126.12699890    4.90999985    1.88000000
   18.47277832  130.56599426    4.90999985    1.88000000
   18.47583389  135.47099304    4.90999985    1.88000000
   18.47916794  128.27799988    4.90999985    1.88000000
   18.48250008  131.08000183    4.90999985    1.88000000
   18.48555565  130.71800232    4.90999985    1.88000000
   18.48888969  131.42199707    4.90999985    1.88000000
   18.49222183  139.84500122    4.90999985    1.88000000
   18.49444389  122.78500366    4.90999985    1.88000000
   18.49583435  119.55699921    4.90999985    1.88000000
   18.49888992  133.64300537    4.90999985    1.88000000
   18.50499916  133.64300537    4.90999985    1.88000000
   18.50916672  115.48200226    4.90999985    1.88000000
   18.51222229  122.66899872    4.90999985    1.88000000
   18.51555634  134.74200439    4.90999985    1.88000000
   18.51888847  124.16100311    4.90999985    1.88000000
   18.52194405  126.85900116    4.90999985    1.88000000
   18.52527809  128.58599854    4.90999985    1.88000000
   18.52777672  128.63900757    4.90999985    1.88000000
   18.52888870  131.27900696    4.90999985    1.88000000
   18.53194427  128.09700012    4.90999985    1.88000000
   18.53527641  137.50300598    4.90999985    1.88000000
   18.53861046  129.58999634    4.90999985    1.88000000
   18.54166603  130.76199341    4.90999985    1.88000000
   18.54777718  130.76199341    4.90999985    1.88000000
   18.55194283  130.71000671    4.90999985    1.88000000
   18.55527687  132.27000427    4.90999985    1.88000000
   18.55833244  132.99600220    4.90999985    1.88000000
   18.56110954  123.83799744    4.90999985    1.88000000
   18.56222153  128.50100708    4.90999985    1.88000000
   18.56527710  137.91700745    4.90999985    1.88000000
   18.56861115  132.50100708    4.90999985    1.88000000
   18.57194519  138.08799744    4.90999985    1.88000000
   18.57500076  125.89299774    4.90999985    1.88000000
   18.57833481  132.36799622    4.90999985    1.88000000
   18.58166695  127.01899719    4.90999985    1.88000000
   18.58472252  136.27900696    4.90999985    1.88000000
   18.59055710  136.27900696    4.90999985    1.88000000
   18.59472275  134.27299500    4.90999985    1.88000000
   18.59805679  140.93200684    4.90999985    1.88000000
   18.60138893  143.95500183    4.90999985    1.88000000
   18.60444450  145.08799744    4.90999985    1.88000000
   18.60777855  139.72099304    4.90999985    1.88000000
   18.61083412  136.31199646    4.90999985    1.88000000
   18.61416626  152.36099243    4.90999985    1.88000000
   18.61750031  143.54100037    4.90999985    1.88000000
   18.62055588  137.14599609    4.90999985    1.88000000
   18.62388992  129.64599609    4.90999985    1.88000000
   18.62722206  138.42799377    4.90999985    1.88000000
   18.62777710  142.64900208    4.90999985    1.88000000
   18.63361168  142.64900208    4.90999985    1.88000000
   18.63777733  147.55200195    4.90999985    1.88000000
   18.64083290  128.80299377    4.90999985    1.88000000
   18.64416695  138.27900696    4.90999985    1.88000000
   18.64722252  139.30999756    4.90999985    1.88000000
   18.65055466  126.64600372    4.90999985    1.88000000
   18.65388870  131.96400452    4.90999985    1.88000000
   18.65694427  137.06700134    4.90999985    1.88000000
   18.66027832  144.28999329    4.90999985    1.88000000
   18.66110992  130.66499329    4.90999985    1.88000000
   18.66388893  129.51199341    4.90999985    1.88000000
   18.66722107  132.44400024    4.90999985    1.88000000
   18.67027664  142.83500671    4.90999985    1.88000000
   18.67638779  142.83500671    4.90999985    1.88000000
   18.68055534  128.10200500    4.90999985    1.88000000
   18.68361092  140.11799622    4.90999985    1.88000000
   18.68694305  137.33399963    4.90999985    1.88000000
   18.69027710  135.72099304    4.90999985    1.88000000
   18.69333267  139.62600708    4.90999985    1.88000000
   18.69444275  127.70899963    4.90999985    1.88000000
   18.69694328  136.48199463    4.90999985    1.88000000
   18.70027924  144.74600220    4.90999985    1.88000000
   18.70333481  135.32499695    4.90999985    1.88000000
   18.70666695  150.62600708    4.90999985    1.88000000
   18.71000099  139.11599731    4.90999985    1.88000000
   18.71305656  140.40100098    4.90999985    1.88000000
   18.71916771  140.40100098    4.90999985    1.88000000
   18.72333336  144.45799255    4.90999985    1.88000000
   18.72666740  131.18299866    4.90999985    1.88000000
   18.72777748  124.48300171    4.90999985    1.88000000
   18.73027802  128.70199585    4.90999985    1.88000000
   18.73361206  140.68099976    4.90999985    1.88000000
   18.73666763  142.33799744    4.90999985    1.88000000
   18.73999977  125.87699890    4.90999985    1.88000000
   18.74305534  126.76100159    4.90999985    1.88000000
   18.74638939  129.40499878    4.90999985    1.88000000
   18.74972153  133.47000122    4.90999985    1.88000000
   18.75277710  133.28199768    4.90999985    1.88000000
   18.75611115  150.13299561    4.90999985    1.88000000
   18.76194382  150.13299561    4.90999985    1.88000000
   18.76611137  141.73699951    4.90999985    1.88000000
   18.76944351  135.11999512    4.90999985    1.88000000
   18.77277756  136.39999390    4.90999985    1.88000000
   18.77583313  132.81599426    4.90999985    1.88000000
   18.77916718  145.04699707    4.90999985    1.88000000
   18.78249931  143.34899902    4.90999985    1.88000000
   18.78555489  134.40600586    4.90999985    1.88000000
   18.78888893  140.54299927    4.90999985    1.88000000
   18.79194450  119.85600281    4.90999985    1.88000000
   18.79444313  148.55499268    4.90999985    1.88000000
   18.79583359  138.28300476    4.90999985    1.88000000
   18.79916573  147.08700562    4.90999985    1.88000000
   18.80499840  147.08700562    4.90999985    1.88000000
   18.80916595  131.72399902    4.90999985    1.88000000
   18.81222153  137.91000366    4.90999985    1.88000000
   18.81555557  137.94599915    4.90999985    1.88000000
   18.81861115  146.29699707    4.90999985    1.88000000
   18.82194519  139.25000000    4.90999985    1.88000000
   18.82527924  149.05299377    4.90999985    1.88000000
   18.82777786  133.97500610    4.90999985    1.88000000
   18.82888985  142.69000244    4.90999985    1.88000000
   18.83222389  136.94400024    4.90999985    1.88000000
   18.83527756  137.72300720    4.90999985    1.88000000
   18.83861160  140.41799927    4.90999985    1.88000000
   18.84194565  130.32800293    4.90999985    1.88000000
   18.84777832  130.32800293    4.90999985    1.88000000
   18.85194397  133.20899963    4.90999985    1.88000000
   18.85499954  127.14199829    4.90999985    1.88000000
   18.85833359  126.31099701    4.90999985    1.88000000
   18.86111069  132.02600098    4.90999985    1.88000000
   18.86194420  137.73699951    4.90999985    1.88000000
   18.86527824  134.01199341    4.90999985    1.88000000
   18.86833382  128.33799744    4.90999985    1.88000000
   18.87166595  128.10400391    4.90999985    1.88000000
   18.87500000  133.69099426    4.90999985    1.88000000
   18.87805557  136.73899841    4.90999985    1.88000000
   18.88138962  142.42300415    4.90999985    1.88000000
   18.88472176  132.54100037    4.90999985    1.88000000
   18.89055634  132.54100037    4.90999985    1.88000000
   18.89472198  129.43499756    4.90999985    1.88000000
   18.89805603  145.07200623    4.90999985    1.88000000
   18.90111160  141.65499878    4.90999985    1.88000000
   18.90444374  114.01999664    4.90999985    1.88000000
   18.90777779  127.09600067    4.90999985    1.88000000
   18.91083336  135.44400024    4.90999985    1.88000000
   18.91416550  136.17399597    4.90999985    1.88000000
   18.91722107  137.62600708    4.90999985    1.88000000
   18.92055511  144.70500183    4.90999985    1.88000000
   18.92388916  143.33799744    4.90999985    1.88000000
   18.92694473  136.79800415    4.90999985    1.88000000
   18.92777634  141.93099976    4.90999985    1.88000000
   18.94861031  141.93099976    4.90999985    1.88000000
   18.95277786  131.48199463    4.90999985    1.88000000
   18.95583344  139.14100647    4.90999985    1.88000000
   18.95916748  128.62800598    4.90999985    1.88000000
   18.96111107  125.93599701    4.90999985    1.88000000
   18.96277809  131.80700684    4.90999985    1.88000000
   18.96611214  162.85000610    4.90999985    1.88000000
   18.96944427  129.45399475    4.90999985    1.88000000
   18.97249985  148.19700623    4.90999985    1.88000000
   18.97583389  134.53799438    4.90999985    1.88000000
   18.97888947  149.48500061    4.90999985    1.88000000
   18.98222351  137.05000305    4.90999985    1.88000000
   18.98555565  127.87000275    4.90999985    1.88000000
   18.99138832  127.87000275    4.90999985    1.88000000
   18.99527740  134.64399719    4.90999985    1.88000000
   18.99861145  136.63299561    4.90999985    1.88000000
   19.00194359  125.14800262    4.90999985    1.88000000
   19.00499916  140.04100037    4.90999985    1.88000000
   19.00833321  125.08999634    4.90999985    1.88000000
   19.01166725  128.56799316    4.90999985    1.88000000
   19.01472282  138.58000183    4.90999985    1.88000000
   19.01805496  134.82699585    4.90999985    1.88000000
   19.02111053  137.80999756    4.90999985    1.88000000
   19.02444458  129.37399292    4.90999985    1.88000000
   19.02777672  123.43699646    4.90999985    1.88000000
   19.02833366  138.37500000    4.90999985    1.88000000
   19.03416634  138.37500000    4.90999985    1.88000000
   19.03833199  120.34799957    4.90999985    1.88000000
   19.04138756  134.06900024    4.90999985    1.88000000
   19.04472160  136.35899353    4.90999985    1.88000000
   19.04805565  131.45500183    4.90999985    1.88000000
   19.05111122  137.65899658    4.90999985    1.88000000
   19.05444336  126.08799744    4.90999985    1.88000000
   19.05749893  123.62000275    4.90999985    1.88000000
   19.06083298  126.15200043    4.90999985    1.88000000
   19.06166649  130.57000732    4.90999985    1.88000000
   19.06444359  133.93499756    4.90999985    1.88000000
   19.06777954  121.00599670    4.90999985    1.88000000
   19.07111168  135.04699707    4.90999985    1.88000000
   19.07694626  135.04699707    4.90999985    1.88000000
   19.08111191  132.50999451    4.90999985    1.88000000
   19.08444595  138.62699890    4.90999985    1.88000000
   19.08750153  136.36199951    4.90999985    1.88000000
   19.09083366  135.80200195    4.90999985    1.88000000
   19.09388924  130.73199463    4.90999985    1.88000000
   19.09500122  134.05999756    4.90999985    1.88000000
   19.09749985  137.08599854    4.90999985    1.88000000
   19.10083389  153.82200623    4.90999985    1.88000000
   19.10416794  144.02900696    4.90999985    1.88000000
   19.10722351  134.78399658    4.90999985    1.88000000
   19.11055565  146.38099670    4.90999985    1.88000000
   19.11361122  131.68400574    4.90999985    1.88000000
   19.11972237  131.68400574    4.90999985    1.88000000
   19.12388992  135.41700745    4.90999985    1.88000000
   19.12722206  130.44400024    4.90999985    1.88000000
   19.12833405  134.42900085    4.90999985    1.88000000
   19.13083267  137.75900269    4.90999985    1.88000000
   19.13416672  128.38499451    4.90999985    1.88000000
   19.13750076  153.10000610    4.90999985    1.88000000
   19.14055634  141.51300049    4.90999985    1.88000000
   19.14388847  129.60800171    4.90999985    1.88000000
   19.14694405  140.88600159    4.90999985    1.88000000
   19.15027809  138.86999512    4.90999985    1.88000000
   19.15361023  142.31599426    4.90999985    1.88000000
   19.15666580  146.33099365    4.90999985    1.88000000
   19.16277695  146.33099365    4.90999985    1.88000000
   19.16666603  146.32299805    4.90999985    1.88000000
   19.17000008  138.63099670    4.90999985    1.88000000
   19.17333221  139.21200562    4.90999985    1.88000000
   19.17638779  137.29800415    4.90999985    1.88000000
   19.17972183  145.68299866    4.90999985    1.88000000
   19.18305397  158.91200256    4.90999985    1.88000000
   19.18610954  150.47599792    4.90999985    1.88000000
   19.18944359  147.87600708    4.90999985    1.88000000
   19.19249916  129.36799622    4.90999985    1.88000000
   19.19499969  138.30099487    4.90999985    1.88000000
   19.19610977  132.38200378    4.90999985    1.88000000
   19.19944382  152.22399902    4.90999985    1.88000000
   19.20555687  152.22399902    4.90999985    1.88000000
   19.20972252  136.27799988    4.90999985    1.88000000
   19.21277809  143.65699768    4.90999985    1.88000000
   19.21611214  132.67799377    4.90999985    1.88000000
   19.21916771  158.06500244    4.90999985    1.88000000
   19.22249985  145.03700256    4.90999985    1.88000000
   19.22583389  132.91000366    4.90999985    1.88000000
   19.22833443  141.18600464    4.90999985    1.88000000
   19.22944450  139.70700073    4.90999985    1.88000000
   19.23277855  145.48300171    4.90999985    1.88000000
   19.23583412  137.96499634    4.90999985    1.88000000
   19.23916626  129.19900513    4.90999985    1.88000000
   19.24250031  140.88600159    4.90999985    1.88000000
   19.24833298  140.88600159    4.90999985    1.88000000
   19.25250053  140.11399841    4.90999985    1.88000000
   19.25555611  132.35899353    4.90999985    1.88000000
   19.25888824  141.63600159    4.90999985    1.88000000
   19.26166725  135.24600220    4.90999985    1.88000000
   19.26250076  144.69200134    4.90999985    1.88000000
   19.26583290  136.71200562    4.90999985    1.88000000
   19.26916695  136.91799927    4.90999985    1.88000000
   19.27222252  145.77099609    4.90999985    1.88000000
   19.27555466  135.48399353    4.90999985    1.88000000
   19.27861023  138.83599854    4.90999985    1.88000000
   19.28194427  141.06100464    4.90999985    1.88000000
   19.28527641  146.46899414    4.90999985    1.88000000
   19.29111099  146.46899414    4.90999985    1.88000000
   19.29527664  151.78199768    4.90999985    1.88000000
   19.29861069  130.78100586    4.90999985    1.88000000
   19.30166626  131.81399536    4.90999985    1.88000000
   19.30499840  128.70100403    4.90999985    1.88000000
   19.30833244  143.91299438    4.90999985    1.88000000
   19.31138802  146.30499268    4.90999985    1.88000000
   19.31472206  153.07200623    4.90999985    1.88000000
   19.31777954  130.25100708    4.90999985    1.88000000
   19.32111168  139.59300232    4.90999985    1.88000000
   19.32444572  132.59199524    4.90999985    1.88000000
   19.32750130  141.56700134    4.90999985    1.88000000
   19.32833481  138.47099304    4.90999985    1.88000000
   19.33388901  138.47099304    4.90999985    1.88000000
   19.33805656  149.05700684    4.90999985    1.88000000
   19.34138870  150.86099243    4.90999985    1.88000000
   19.34472275  136.35499573    4.90999985    1.88000000
   19.34777832  142.00799561    4.90999985    1.88000000
   19.35111237  158.47200012    4.90999985    1.88000000
   19.35416794  131.42700195    4.90999985    1.88000000
   19.35750008  132.09500122    4.90999985    1.88000000
   19.36083412  132.51100159    4.90999985    1.88000000
   19.36166763  138.41000366    4.90999985    1.88000000
   19.36416626  138.73100281    4.90999985    1.88000000
   19.36750031  149.52400208    4.90999985    1.88000000
   19.37083435  135.93299866    4.90999985    1.88000000
   19.37694550  135.93299866    4.90999985    1.88000000
   19.38111115  141.17700195    4.90999985    1.88000000
   19.38416672  160.94999695    4.90999985    1.88000000
   19.38750076  137.59300232    4.90999985    1.88000000
   19.39055634  123.19400024    4.90999985    1.88000000
   19.39388847  122.78099823    4.90999985    1.88000000
   19.39500046  141.35899353    4.90999985    1.88000000
   19.39749908  150.63000488    4.90999985    1.88000000
   19.40083313  128.26899719    4.90999985    1.88000000
   19.40416718  135.87699890    4.90999985    1.88000000
   19.40722275  147.36399841    4.90999985    1.88000000
   19.41055489  127.97599792    4.90999985    1.88000000
   19.41361046  131.68299866    4.90999985    1.88000000
   19.41972160  131.68299866    4.90999985    1.88000000
   19.42388916  126.48500061    4.90999985    1.88000000
   19.42694473  145.18600464    4.90999985    1.88000000
   19.42833328  142.93899536    4.90999985    1.88000000
   19.43055534  148.94999695    4.90999985    1.88000000
   19.43388748  143.83099365    4.90999985    1.88000000
   19.43722153  145.54600525    4.90999985    1.88000000
   19.44027710  145.57400513    4.90999985    1.88000000
   19.44361115  132.99400330    4.90999985    1.88000000
   19.44666672  148.85400391    4.90999985    1.88000000
   19.45000076  135.32200623    4.90999985    1.88000000
   19.45333481  143.44999695    4.90999985    1.88000000
   19.45639038  146.84800720    4.90999985    1.88000000
   19.46250153  146.84800720    4.90999985    1.88000000
   19.46666718  141.00199890    4.90999985    1.88000000
   19.47000122  121.54100037    4.90999985    1.88000000
   19.47305679  126.16699982    4.90999985    1.88000000
   19.47638893  130.88499451    4.90999985    1.88000000
   19.47972298  145.78300476    4.90999985    1.88000000
   19.48277855  146.85600281    4.90999985    1.88000000
   19.48611069  150.91000366    4.90999985    1.88000000
   19.48916626  141.87199402    4.90999985    1.88000000
   19.49250031  148.07299805    4.90999985    1.88000000
   19.49500084  145.27999878    4.90999985    1.88000000
   19.49611092  146.04699707    4.90999985    1.88000000
   19.49944496  149.02400208    4.90999985    1.88000000
   19.50555611  149.02400208    4.90999985    1.88000000
   19.50944519  154.47000122    4.90999985    1.88000000
   19.51277733  143.41799927    4.90999985    1.88000000
   19.51611137  134.09500122    4.90999985    1.88000000
   19.51916695  140.02499390    4.90999985    1.88000000
   19.52249908  145.74699402    4.90999985    1.88000000
   19.52555466  141.11300659    4.90999985    1.88000000
   19.52833366  145.01400757    4.90999985    1.88000000
   19.52916718  133.07699585    4.90999985    1.88000000
   19.53249931  142.64100647    4.90999985    1.88000000
   19.53583336  129.99600220    4.90999985    1.88000000
   19.53888893  127.53099823    4.90999985    1.88000000
   19.54222107  144.51800537    4.90999985    1.88000000
   19.54833221  144.51800537    4.90999985    1.88000000
   19.55249977  138.61099243    4.90999985    1.88000000
   19.55555534  139.79299927    4.90999985    1.88000000
   19.55888748  141.62199402    4.90999985    1.88000000
   19.56166649  133.75900269    4.90999985    1.88000000
   19.56250000  144.13200378    4.90999985    1.88000000
   19.56583214  145.09500122    4.90999985    1.88000000
   19.56916809  149.57499695    4.90999985    1.88000000
   19.57222366  149.94900513    4.90999985    1.88000000
   19.57555580  158.53300476    4.90999985    1.88000000
   19.57888985  140.53100586    4.90999985    1.88000000
   19.58194542  139.09199524    4.90999985    1.88000000
   19.58527756  135.63600159    4.90999985    1.88000000
   19.59111214  135.63600159    4.90999985    1.88000000
   19.59527779  135.33099365    4.90999985    1.88000000
   19.59861183  143.65499878    4.90999985    1.88000000
   19.60166740  139.32800293    4.90999985    1.88000000
   19.60499954  121.63700104    4.90999985    1.88000000
   19.60805511  134.58299255    4.90999985    1.88000000
   19.61138916  134.32099915    4.90999985    1.88000000
   19.61472321  137.56799316    4.90999985    1.88000000
   19.61777878  159.16400146    4.90999985    1.88000000
   19.62111092  142.23899841    4.90999985    1.88000000
   19.62444496  137.02600098    4.90999985    1.88000000
   19.62750053  142.58999634    4.90999985    1.88000000
   19.62833405  155.28799438    4.90999985    1.88000000
   19.63388824  155.28799438    4.90999985    1.88000000
   19.63805580  137.31300354    4.90999985    1.88000000
   19.64138794  133.76699829    4.90999985    1.88000000
   19.64444351  143.71699524    4.90999985    1.88000000
   19.64777756  153.53900146    4.90999985    1.88000000
   19.65111160  143.65299988    4.90999985    1.88000000
   19.65416718  145.48199463    4.90999985    1.88000000
   19.65749931  161.01400757    4.90999985    1.88000000
   19.66083336  131.65600586    4.90999985    1.88000000
   19.66166687  117.60900116    4.90999985    1.88000000
   19.66416550  112.36399841    4.90999985    1.88000000
   19.66749954  111.90899658    4.90999985    1.88000000
   19.67083359  106.33300018    4.90999985    1.88000000
   19.67694473  106.33300018    4.90999985    1.88000000
   19.68083191  275.86099243    4.90999985    1.88000000
   19.68416595  214.10299683    4.90999985    1.88000000
   19.68750000   55.22790146    4.90999985    1.88000000
   19.69055557   -1.00000000    4.90999985    1.88000000
   19.69388771   -1.00000000    4.90999985    1.88000000
   19.69722176   -1.00000000    4.90999985    1.88000000
   19.70055580   -1.00000000    4.90999985    1.88000000
   19.70361137   -1.00000000    4.90999985    1.88000000
   19.70694542   -1.00000000    4.90999985    1.88000000
   19.71027946   -1.00000000    4.90999985    1.88000000
   19.71333504   -1.00000000    4.90999985    1.88000000
   19.72361183   -1.00000000    4.90999985    1.88000000
   19.72694588   -1.00000000    4.90999985    1.88000000
   19.73055649   -1.00000000    4.90999985    1.88000000
   19.73388863   -1.00000000    4.90999985    1.88000000
   19.73694420   -1.00000000    4.90999985    1.88000000
   19.74027824   -1.00000000    4.90999985    1.88000000
   19.74361229   -1.00000000    4.90999985    1.88000000
   19.74666786   -1.00000000    4.90999985    1.88000000
   19.75000000   -1.00000000    4.90999985    1.88000000
   19.75333405   -1.00000000    4.90999985    1.88000000
   19.75638962   -1.00000000    4.90999985    1.88000000
   19.76666641   -1.00000000    4.90999985    1.88000000
   19.77000046   -1.00000000    4.90999985    1.88000000
   19.77333260   -1.00000000    4.90999985    1.88000000
   19.77666664   -1.00000000    4.90999985    1.88000000
   19.77972221   -1.00000000    4.90999985    1.88000000
   19.78305435   -1.00000000    4.90999985    1.88000000
   19.78610992   -1.00000000    4.90999985    1.88000000
   19.78944397   -1.00000000    4.90999985    1.88000000
   19.79277802   -1.00000000    4.90999985    1.88000000
   19.79611015   -1.00000000    4.90999985    1.88000000
   19.79944420   -1.00000000    4.90999985    1.88000000
   19.80944443   -1.00000000    4.90999985    1.88000000
   19.81250000   -1.00000000    4.90999985    1.88000000
   19.81583214   -1.00000000    4.90999985    1.88000000
   19.81916809   -1.00000000    4.90999985    1.88000000
   19.82222366   -1.00000000    4.90999985    1.88000000
   19.82555580   -1.00000000    4.90999985    1.88000000
   19.82916832   -1.00000000    4.90999985    1.88000000
   19.83250046   -1.00000000    4.90999985    1.88000000
   19.83555603   -1.00000000    4.90999985    1.88000000
   19.83889008   -1.00000000    4.90999985    1.88000000
   19.84222221   -1.00000000    4.90999985    1.88000000
   19.85222244   -1.00000000    4.90999985    1.88000000
   19.85555649   -1.00000000    4.90999985    1.88000000
   19.85861206   -1.00000000    4.90999985    1.88000000
   19.86222267   -1.00000000    4.90999985    1.88000000
   19.86555672   -1.00000000    4.90999985    1.88000000
   19.86861038   -1.00000000    4.90999985    1.88000000
   19.87194443   -1.00000000    4.90999985    1.88000000
   19.87527847   -1.00000000    4.90999985    1.88000000
   19.87833405   -1.00000000    4.90999985    1.88000000
   19.88166618   -1.00000000    4.90999985    1.88000000
   19.88500023   -1.00000000    4.90999985    1.88000000
   19.89500046   -1.00000000    4.90999985    1.88000000
   19.89833260   -1.00000000    4.90999985    1.88000000
   19.90166664   -1.00000000    4.90999985    1.88000000
   19.90472221   -1.00000000    4.90999985    1.88000000
   19.90805435   -1.00000000    4.90999985    1.88000000
   19.91110992   -1.00000000    4.90999985    1.88000000
   19.91444397   -1.00000000    4.90999985    1.88000000
   19.91777802   -1.00000000    4.90999985    1.88000000
   19.92083359   -1.00000000    4.90999985    1.88000000
   19.92416573   -1.00000000    4.90999985    1.88000000
   19.92749977   -1.00000000    4.90999985    1.88000000
   19.93805504   -1.00000000    4.90999985    1.88000000
   19.94111061   -1.00000000    4.90999985    1.88000000
   19.94444275   -1.00000000    4.90999985    1.88000000
   19.96416664   -1.00000000    4.90999985    1.88000000
   19.96750069   -1.00000000    4.90999985    1.88000000
   19.97083473   -1.00000000    4.90999985    1.88000000
   19.98083305   -1.00000000    4.90999985    1.88000000
   19.98416710   -1.00000000    4.90999985    1.88000000
   19.98722267   -1.00000000    4.90999985    1.88000000
   19.99055672   -1.00000000    4.90999985    1.88000000
   19.99388885   -1.00000000    4.90999985    1.88000000
   19.99722290   -1.00000000    4.90999985    1.88000000
   20.00055504   -1.00000000    4.90999985    1.88000000
   20.00361061   -1.00000000    4.90999985    1.88000000
   20.00694466   -1.00000000    4.90999985    1.88000000
   20.01000023   -1.00000000    4.90999985    1.88000000
   20.01333427   -1.00000000    4.90999985    1.88000000
   20.02361107   -1.00000000    4.90999985    1.88000000
   20.02694511   -1.00000000    4.90999985    1.88000000
   20.03055573   -1.00000000    4.90999985    1.88000000
   20.03388786   -1.00000000    4.90999985    1.88000000
   20.03694344   -1.00000000    4.90999985    1.88000000
   20.04027748   -1.00000000    4.90999985    1.88000000
   20.04333305   -1.00000000    4.90999985    1.88000000
   20.04666710   -1.00000000    4.90999985    1.88000000
   20.04999924   -1.00000000    4.90999985    1.88000000
   20.05305481   -1.00000000    4.90999985    1.88000000
   20.05638885   -1.00000000    4.90999985    1.88000000
   20.06666756   -1.00000000    4.90999985    1.88000000
   20.06972313   -1.00000000    4.90999985    1.88000000
   20.07305717   -1.00000000    4.90999985    1.88000000
