    HOUR (UT)   FLARE FACTOR    SKY TESTER    SUN TESTER
   12.27722168   -1.00000000   -1.00000000   -1.00000000
   12.29777813  471.89099121    3.00000000    1.66999996
   12.30277824  472.95300293    3.03999996    1.66999996
   12.30472279  501.14700317    3.05999994    1.69000006
   12.30611134  465.99200439    3.05999994    1.69000006
   12.30749989  551.99798584    3.05999994    1.69000006
   12.30888939  424.67401123    3.05999994    1.69000006
   12.31027794  416.93600464    3.07999992    1.69000006
   12.31166649  435.75299072    3.07999992    1.69000006
   12.31305599  521.68902588    3.09999990    1.69000006
   12.31444454  469.02398682    3.11999989    1.69000006
   12.31583309  499.71798706    3.11999989    1.71000004
   12.31722260  464.97900391    3.11999989    1.71000004
   12.31861115  473.54400635    3.14000010    1.71000004
   12.31999969  455.57199097    3.14000010    1.71000004
   12.32138920  428.53799438    3.14000010    1.71000004
   12.32277775  410.82299805    3.16000009    1.71000004
   12.32416630  410.92199707    3.18000007    1.71000004
   12.32555580  398.32299805    3.18000007    1.71000004
   12.32694435  414.52499390    3.18000007    1.71000004
   12.32833290  472.39700317    3.18000007    1.71000004
   12.32972240  393.42498779    3.20000005    1.73000002
   12.33111095  440.66400146    3.20000005    1.73000002
   12.33249950  443.61099243    3.20000005    1.73000002
   12.33388901  442.68200684    3.21000004    1.73000002
   12.33527756  399.34600830    3.21000004    1.73000002
   12.33666611  435.52700806    3.23000002    1.73000002
   12.33805561  426.86401367    3.21000004    1.73000002
   12.33944416  430.18701172    3.23000002    1.73000002
   12.34083271  431.59500122    3.23000002    1.73000002
   12.34222221  401.59500122    3.23000002    1.73000002
   12.34361076  445.72698975    3.25000000    1.73000002
   12.34499931  481.57901001    3.25000000    1.75000000
   12.34638882  399.48599243    3.25000000    1.75000000
   12.34777737  434.51800537    3.25000000    1.73000002
   12.34916592  423.53201294    3.25000000    1.75000000
   12.35055637  404.69000244    3.26999998    1.75000000
   12.35194492  393.23800659    3.26999998    1.75000000
   12.35333347  362.69100952    3.26999998    1.75000000
   12.35472298  393.52301025    3.26999998    1.75000000
   12.35611153  430.73199463    3.26999998    1.75000000
   12.35750008  391.76998901    3.26999998    1.76999998
   12.35888958  405.54199219    3.26999998    1.75000000
   12.36027813  378.23999023    3.26999998    1.76999998
   12.36166668  418.42800903    3.26999998    1.76999998
   12.36305618  385.08999634    3.26999998    1.75000000
   12.36444473  392.27200317    3.26999998    1.76999998
   12.36583328  446.12399292    3.26999998    1.76999998
   12.36722279  401.45401001    3.26999998    1.76999998
   12.36861134  431.13598633    3.26999998    1.76999998
   12.36999989  367.81100464    3.26999998    1.76999998
   12.37138939  356.29199219    3.26999998    1.76999998
   12.37277794  379.60198975    3.26999998    1.76999998
   12.37416649  371.82598877    3.26999998    1.76999998
   12.37555599  417.89300537    3.26999998    1.76999998
   12.37694454  442.11801147    3.26999998    1.76999998
   12.37833309  378.68099976    3.26999998    1.78999996
   12.37972260  473.33099365    3.26999998    1.76999998
   12.38111115  369.67401123    3.25000000    1.76999998
   12.38249969  355.57901001    3.25000000    1.78999996
   12.38388920  418.21200562    3.25000000    1.76999998
   12.38527775  372.85598755    3.25000000    1.78999996
   12.38666630  340.46899414    3.25000000    1.78999996
   12.38694477  472.95300293    3.03999996    1.66999996
   12.38749981  423.93200684    3.26999998    1.78999996
   12.38944435  512.91101074    3.25000000    1.78999996
   12.39083290  392.90100098    3.25000000    1.78999996
   12.39222240  396.26000977    3.25000000    1.78999996
   12.39361095  389.92700195    3.25000000    1.78999996
   12.39499950  401.36898804    3.25000000    1.80999994
   12.39638901  444.90899658    3.25000000    1.80999994
   12.39777756  406.68301392    3.23000002    1.80999994
   12.39916611  412.11700439    3.23000002    1.80999994
   12.40055561  422.00399780    3.23000002    1.80999994
   12.40194416  464.83200073    3.21000004    1.80999994
   12.40333271  444.35101318    3.21000004    1.80999994
   12.40472221  365.62701416    3.21000004    1.80999994
   12.40611076  415.94100952    3.21000004    1.80999994
   12.40749931  406.30599976    3.21000004    1.80999994
   12.40888882  379.22100830    3.21000004    1.80999994
   12.41027737  392.54998779    3.21000004    1.80999994
   12.41166592  381.66900635    3.21000004    1.80999994
   12.41305542  430.54000854    3.21000004    1.83000004
   12.41444397  417.00399780    3.20000005    1.83000004
   12.41583252  398.72601318    3.20000005    1.83000004
   12.41722298  420.02801514    3.20000005    1.83000004
   12.41861153  383.59298706    3.20000005    1.83000004
   12.42000008  378.22000122    3.18000007    1.83000004
   12.42138958  427.57400513    3.18000007    1.83000004
   12.42277813  369.42401123    3.18000007    1.83000004
   12.42416668  419.08700562    3.18000007    1.85000002
   12.42555618  408.73699951    3.16000009    1.83000004
   12.42694473  415.16900635    3.18000007    1.85000002
   12.42833328  374.92898560    3.16000009    1.85000002
   12.42972279  448.60998535    3.16000009    1.85000002
   12.43111134  395.80398560    3.16000009    1.85000002
   12.43249989  355.66400146    3.14000010    1.85000002
   12.43388939  375.50299072    3.16000009    1.85000002
   12.43527794  454.78298950    3.14000010    1.85000002
   12.43666649  406.42898560    3.14000010    1.85000002
   12.43805599  296.11599731    3.14000010    1.85000002
   12.43805599  423.93200684    3.26999998    1.78999996
   12.43861103  411.07800293    3.14000010    1.85000002
   12.44055557  345.98300171    3.11999989    1.85000002
   12.44250011  351.81298828    3.11999989    1.85000002
   12.44583321  401.29901123    3.11999989    1.85000002
   12.44777775  355.12600708    3.09999990    1.85000002
   12.44916630  420.52801514    3.09999990    1.85000002
   12.45055580  382.20800781    3.09999990    1.85000002
   12.45194435  389.32501221    3.09999990    1.86000001
   12.45333290  349.07998657    3.09999990    1.86000001
   12.45333290  351.81298828    3.11999989    1.85000002
   12.45361137  401.29901123    3.11999989    1.85000002
   12.45416641  378.45001221    3.09999990    1.86000001
   12.45722198  393.35400391    3.07999992    1.86000001
   12.46055508  357.03298950    3.05999994    1.86000001
   12.46388912  312.58700562    3.05999994    1.86000001
   12.46694374  357.64099121    3.05999994    1.88000000
   12.47027779  339.95999146    3.03999996    1.86000001
   12.47444439  339.95999146    3.03999996    1.88000000
   12.47861099  342.34298706    3.01999998    1.88000000
   12.48166656  291.51501465    3.01999998    1.88000000
   12.48500061  309.39001465    3.00000000    1.88000000
   12.48722267  330.01699829    3.00000000    1.89999998
   12.48833370  337.77099609    3.00000000    1.89999998
   12.49166679  368.09500122    2.98000002    1.89999998
   12.49499989  318.15499878    2.98000002    1.89999998
   12.49805546  348.42098999    2.98000002    1.89999998
   12.50138855  302.97000122    2.96000004    1.89999998
   12.50472260  317.74099731    2.96000004    1.89999998
   12.50777817  289.76400757    2.94000006    1.91999996
   12.51111126  313.50698853    2.94000006    1.91999996
   12.51722240  313.50698853    2.93000007    1.91999996
   12.52138901  331.14999390    2.91000009    1.94000006
   12.52472210  346.77700806    2.91000009    1.94000006
   12.52777767  306.46499634    2.91000009    1.91999996
   12.53111076  290.23199463    2.89000010    1.94000006
   12.53444481  325.47299194    2.89000010    1.94000006
   12.53750038  340.96600342    2.89000010    1.96000004
   12.54083347  274.49899292    2.86999989    1.94000006
   12.54416752  296.27999878    2.86999989    1.94000006
   12.54722309  314.98901367    2.86999989    1.94000006
   12.55055618  287.59698486    2.86999989    1.94000006
   12.55361176  347.68899536    2.84999990    1.96000004
   12.55416679  327.08599854    2.82999992    1.96000004
   12.56000042  327.08599854    2.82999992    1.96000004
   12.56416702  328.12600708    2.82999992    1.98000002
   12.56750011  280.27200317    2.82999992    1.96000004
   12.57055569  297.52999878    2.80999994    1.96000004
   12.57388878  308.95300293    2.80999994    1.96000004
   12.57722187  280.84399414    2.78999996    1.98000002
   12.58027744  269.92999268    2.78999996    1.98000002
   12.58361053  276.64498901    2.76999998    1.98000002
   12.58666611  267.19000244    2.76999998    1.98000002
   12.58749962  273.66101074    2.76999998    1.98000002
   12.59027767  277.44198608    2.76999998    1.98000002
   12.59361076  275.85800171    2.75000000    1.98000002
   12.59666634  269.58401489    2.75000000    1.98000002
   12.60305595  269.58401489    2.73000002    1.98000002
   12.60694504  261.45999146    2.75000000    2.00000000
   12.61027813  255.22700500    2.73000002    2.00000000
   12.61361122  260.91900635    2.73000002    2.00000000
   12.61666679  246.13299561    2.71000004    2.00000000
   12.61999989  224.92799377    2.71000004    2.00000000
   12.62083340  268.64001465    2.71000004    2.00000000
   12.62361145  234.42700195    2.71000004    2.00000000
   12.62694454  225.71200562    2.69000006    2.01999998
   12.63000011  265.99499512    2.71000004    2.01999998
   12.63333321  258.29901123    2.69000006    2.01999998
   12.63666630  247.97200012    2.69000006    2.01999998
   12.63972187  229.72200012    2.67000008    2.01999998
   12.64583302  229.72200012    2.67000008    2.01999998
   12.64999962  244.15400696    2.67000008    2.01999998
   12.65305519  216.49200439    2.67000008    2.01999998
   12.65416622  255.00700378    2.66000009    2.01999998
   12.65666676  236.17599487    2.66000009    2.03999996
   12.65999985  232.63999939    2.66000009    2.01999998
   12.66305542  224.48399353    2.64000010    2.03999996
   12.66638851  217.78799438    2.64000010    2.03999996
   12.66972256  224.27000427    2.64000010    2.03999996
   12.67277813  229.46200562    2.61999989    2.03999996
   12.67611122  205.09199524    2.61999989    2.03999996
   12.67916679  225.40600586    2.59999990    2.03999996
   12.68249989  276.15301514    2.59999990    2.03999996
   12.68861103  276.15301514    2.59999990    2.05999994
   12.69277763  209.52600098    2.59999990    2.05999994
   12.69611073  229.39300537    2.57999992    2.05999994
   12.69916630  206.76800537    2.57999992    2.05999994
   12.70249939  219.86700439    2.57999992    2.05999994
   12.70555496  213.46800232    2.55999994    2.05999994
   12.70888901  235.11900330    2.55999994    2.05999994
   12.71222210  196.86599731    2.55999994    2.07999992
   12.71527767  189.73300171    2.53999996    2.07999992
   12.71861076  187.54800415    2.55999994    2.07999992
   12.72083282  204.56100464    2.53999996    2.07999992
   12.72222137  198.84599304    2.53999996    2.07999992
   12.72555542  198.51400757    2.53999996    2.07999992
   12.73138809  198.51400757    2.53999996    2.07999992
   12.73555565  187.94200134    2.53999996    2.09999990
   12.73888874  190.01600647    2.51999998    2.07999992
   12.74194431  178.60600281    2.51999998    2.07999992
   12.74527836  196.39100647    2.50000000    2.09999990
   12.74861145  196.41900635    2.50000000    2.09999990
   12.75166702  175.01800537    2.50000000    2.09999990
   12.75416660  181.81399536    2.50000000    2.07999992
   12.75527763  196.47399902    2.50000000    2.09999990
   12.75861073  175.14900208    2.50000000    2.09999990
   12.76166630  195.55900574    2.50000000    2.09999990
   12.76500034  180.73399353    2.50000000    2.09999990
   12.76833344  173.52999878    2.50000000    2.09999990
   12.77416611  173.52999878    2.48000002    2.09999990
   12.77833271  232.95799255    2.48000002    2.09999990
   12.78166676  230.49400330    2.48000002    2.11999989
   12.78500080  205.05400085    2.48000002    2.11999989
   12.78750038  218.08500671    2.48000002    2.11999989
   12.78861141  236.77000427    2.48000002    2.11999989
   12.79194450  225.29299927    2.46000004    2.11999989
   12.79500008  216.06199646    2.46000004    2.11999989
   12.79833412  221.39999390    2.46000004    2.11999989
   12.80166721  205.95199585    2.46000004    2.13000011
   12.80472279  196.41000366    2.44000006    2.11999989
   12.80805588  207.14700317    2.44000006    2.13000011
   12.81111145  202.10299683    2.44000006    2.11999989
   12.81722260  202.10299683    2.42000008    2.13000011
   12.82138920  313.20498657    2.44000006    2.13000011
   12.82444477  258.14700317    2.42000008    2.13000011
   12.82777786  264.19699097    2.42000008    2.13000011
   12.83083344  235.52499390    2.40000010    2.13000011
   12.83416653  236.42799377    2.40000010    2.13000011
   12.83749962  227.58200073    2.40000010    2.13000011
   12.84055519  228.84399414    2.40000010    2.15000010
   12.84388828  219.72399902    2.40000010    2.15000010
   12.84722233  221.72200012    2.39000010    2.15000010
   12.85027790  203.94200134    2.39000010    2.15000010
   12.85361195  213.68400574    2.40000010    2.15000010
   12.85444450  199.96499634    2.39000010    2.15000010
   12.86000061  199.96499634    2.39000010    2.15000010
   12.86416721  184.06700134    2.40000010    2.15000010
   12.86722279  173.76100159    2.40000010    2.17000008
   12.87055588  181.82800293    2.40000010    2.17000008
   12.87388897  181.57299805    2.40000010    2.17000008
   12.87694454  171.78999329    2.40000010    2.15000010
   12.88027763  176.25599670    2.40000010    2.17000008
   12.88361073  163.67900085    2.40000010    2.17000008
   12.88666630  172.28700256    2.40000010    2.17000008
   12.88777733  169.90499878    2.40000010    2.17000008
   12.89027786  180.96899414    2.40000010    2.17000008
   12.89361095  182.42199707    2.40000010    2.17000008
   12.89666653  190.22599792    2.40000010    2.17000008
   12.90277767  190.22599792    2.40000010    2.17000008
   12.90694427  198.37600708    2.39000010    2.17000008
   12.91027737  179.09199524    2.39000010    2.17000008
   12.91333294  176.07899475    2.39000010    2.17000008
   12.91666698  177.77000427    2.36999989    2.17000008
   12.92000008  179.49299622    2.36999989    2.19000006
   12.92111111  174.15699768    2.39000010    2.17000008
   12.92333412  181.26199341    2.36999989    2.19000006
   12.92666721  179.45399475    2.34999990    2.19000006
   12.92972279  194.46699524    2.34999990    2.19000006
   12.93305588  191.67500305    2.34999990    2.19000006
   12.93638897  205.87800598    2.32999992    2.21000004
   12.93944454  179.03700256    2.32999992    2.21000004
   12.94583321  179.03700256    2.30999994    2.19000006
   12.94972229  180.19400024    2.30999994    2.19000006
   12.95305538  189.83999634    2.28999996    2.19000006
   12.95444393  175.74600220    2.28999996    2.19000006
   12.95666695  190.62300110    2.28999996    2.21000004
   12.96000004  175.80200195    2.28999996    2.21000004
   12.96305561  191.74499512    2.28999996    2.21000004
   12.96638870  194.69599915    2.28999996    2.19000006
   12.96972179  189.11000061    2.28999996    2.21000004
   12.97277737  196.91400146    2.26999998    2.21000004
   12.97611046  178.28599548    2.26999998    2.21000004
   12.97944355  166.05799866    2.26999998    2.21000004
   12.98249912  185.75300598    2.26999998    2.21000004
   12.98861122  185.75300598    2.25000000    2.21000004
   12.99277782  179.57699585    2.25000000    2.21000004
   12.99583340  181.04299927    2.25000000    2.21000004
   12.99916649  179.83000183    2.23000002    2.23000002
   13.00222206  195.24800110    2.23000002    2.23000002
   13.00555515  189.69400024    2.23000002    2.23000002
   13.00888920  194.46299744    2.21000004    2.23000002
   13.01194477  192.13800049    2.21000004    2.23000002
   13.01527786  189.79499817    2.21000004    2.23000002
   13.01861095  173.95700073    2.21000004    2.23000002
   13.02111053  192.53999329    2.21000004    2.23000002
   13.02194405  196.14300537    2.21000004    2.23000002
   13.02527714  199.35099792    2.21000004    2.23000002
   13.03138828  199.35099792    2.21000004    2.23000002
   13.03555584  180.82800293    2.19000006    2.25000000
   13.03861141  180.19099426    2.19000006    2.23000002
   13.04194450  184.69500732    2.19000006    2.25000000
   13.04527855  200.62899780    2.19000006    2.25000000
   13.04861164  201.04100037    2.19000006    2.25000000
   13.05166721  190.28199768    2.17000008    2.25000000
   13.05444431  186.52400208    2.17000008    2.23000002
   13.05527782  172.14999390    2.17000008    2.25000000
   13.05861092  186.21200562    2.17000008    2.25000000
   13.06166649  185.51499939    2.15000010    2.25000000
   13.06500053  170.32800293    2.13000011    2.25000000
   13.06833363  194.29400635    2.15000010    2.25000000
   13.07416630  194.29400635    2.13000011    2.26999998
   13.07833290  196.61900330    2.13000011    2.26999998
   13.08166695  197.77799988    2.11999989    2.25000000
   13.08472157  176.25500488    2.11999989    2.26999998
   13.08777714  179.86799622    2.11999989    2.26999998
   13.08833313  195.96299744    2.11999989    2.26999998
   13.09166622  175.77699280    2.11999989    2.26999998
   13.09472179  179.72900391    2.11999989    2.26999998
   13.09805489  184.13600159    2.11999989    2.26999998
   13.10138893  181.53100586    2.11999989    2.26999998
   13.10444450  185.00399780    2.11999989    2.26999998
   13.10777855  186.28999329    2.09999990    2.26999998
   13.11111164  182.38499451    2.09999990    2.28999996
   13.11722279  182.38499451    2.09999990    2.26999998
   13.12111092  178.76499939    2.09999990    2.28999996
   13.12444496  167.80400085    2.07999992    2.26999998
   13.12777805  163.86799622    2.07999992    2.28999996
   13.13083363  180.96499634    2.07999992    2.28999996
   13.13416672  185.30400085    2.07999992    2.28999996
   13.13749981  173.64900208    2.07999992    2.28999996
   13.14055538  176.87500000    2.07999992    2.28999996
   13.14388847  155.36700439    2.07999992    2.28999996
   13.14722252  172.55200195    2.05999994    2.28999996
   13.15027714  181.53300476    2.05999994    2.28999996
   13.15361118  182.91499329    2.05999994    2.28999996
   13.15444374  172.66999817    2.05999994    2.28999996
   13.15999985  172.66999817    2.05999994    2.28999996
   13.16416645  173.13200378    2.05999994    2.28999996
   13.16722298  184.70599365    2.03999996    2.28999996
   13.17055607  175.68099976    2.05999994    2.28999996
   13.17361164  171.45700073    2.03999996    2.30999994
   13.17694473  167.73500061    2.03999996    2.30999994
   13.18027782  176.10099792    2.03999996    2.30999994
   13.18333340  190.41600037    2.03999996    2.30999994
   13.18666649  166.25000000    2.03999996    2.30999994
   13.18777752  183.53199768    2.03999996    2.30999994
   13.19027805  163.18699646    2.01999998    2.28999996
   13.19361115  178.88999939    2.03999996    2.30999994
   13.19694424  166.52299500    2.01999998    2.30999994
   13.20277786  166.52299500    2.01999998    2.30999994
   13.20694447  161.21899414    2.01999998    2.30999994
   13.21000004  179.97599792    2.01999998    2.30999994
   13.21333313  170.30599976    2.01999998    2.30999994
   13.21666622  167.24299622    2.01999998    2.30999994
   13.21972179  180.69400024    2.01999998    2.32999992
   13.22111034  163.09399414    2.01999998    2.30999994
   13.22333336  185.48599243    2.01999998    2.30999994
   13.22666645  166.65400696    2.01999998    2.30999994
   13.22999954  164.29600525    2.01999998    2.30999994
   13.23305511  164.45500183    2.03999996    2.30999994
   13.23638916  170.21699524    2.01999998    2.30999994
   13.23944473  154.34800720    2.03999996    2.30999994
   13.24555588  154.34800720    2.03999996    2.30999994
   13.24972248  165.04499817    2.01999998    2.32999992
   13.25305557  165.30000305    2.01999998    2.30999994
   13.25444412  176.69900513    2.01999998    2.32999992
   13.25638866  181.98899841    2.01999998    2.32999992
   13.25972176  161.18299866    2.01999998    2.32999992
   13.26305580  170.47599792    2.01999998    2.32999992
   13.26611137  165.19500732    2.01999998    2.32999992
   13.26944447  164.63999939    2.00000000    2.32999992
   13.27250004  170.21099854    2.00000000    2.32999992
   13.27583313  189.56100464    2.00000000    2.32999992
   13.27916622  161.35800171    2.00000000    2.32999992
   13.28222179  162.96800232    2.00000000    2.34999990
   13.28861141  162.96800232    2.00000000    2.34999990
   13.29250050  173.27000427    2.00000000    2.34999990
   13.29583359  165.19500732    2.00000000    2.32999992
   13.31555557  172.84399414    2.01999998    2.34999990
   13.31888866  183.70599365    2.01999998    2.34999990
   13.32111073  180.52699280    2.01999998    2.34999990
   13.32250023  182.26800537    2.01999998    2.34999990
   13.32555580  178.11399841    2.01999998    2.34999990
   13.33138847  178.11399841    2.01999998    2.34999990
   13.33555508  175.79699707    2.01999998    2.34999990
   13.33861065  176.88499451    2.01999998    2.34999990
   13.34194374  176.82499695    2.01999998    2.34999990
   13.34527779  177.91700745    2.01999998    2.34999990
   13.34833336  157.87600708    2.01999998    2.34999990
   13.35166740  164.06700134    2.01999998    2.36999989
   13.35444450  186.76300049    2.00000000    2.36999989
   13.35527802  190.13900757    2.00000000    2.36999989
   13.35833359  193.33599854    2.00000000    2.34999990
   13.36166668  184.25000000    1.98000002    2.34999990
   13.36472225  179.68600464    1.98000002    2.36999989
   13.36805534  184.17700195    1.98000002    2.36999989
   13.37416649  184.17700195    1.98000002    2.34999990
   13.37833309  191.88099670    1.96000004    2.36999989
   13.38166714  174.92599487    1.98000002    2.36999989
   13.38472176  186.94200134    1.98000002    2.36999989
   13.38777733  172.06599426    1.96000004    2.36999989
   13.38861084  174.04800415    1.96000004    2.36999989
   13.39166641  179.10200500    1.96000004    2.36999989
   13.39499950  177.72000122    1.96000004    2.36999989
   13.39805508  189.20199585    1.98000002    2.36999989
   13.40138817  180.52799988    1.96000004    2.36999989
   13.40472221  180.33599854    1.96000004    2.36999989
   13.40777779  168.70199585    1.96000004    2.36999989
   13.41111088  172.51699829    1.96000004    2.36999989
   13.41694450  172.51699829    1.98000002    2.36999989
   13.42111111  176.02999878    1.96000004    2.36999989
   13.42444515  170.09300232    1.96000004    2.39000010
   13.42750072  171.68400574    1.96000004    2.36999989
   13.43083382  174.37100220    1.96000004    2.39000010
   13.43416691  170.64300537    1.96000004    2.39000010
   13.43722248  166.23800659    1.94000006    2.36999989
   13.44055557  170.70199585    1.96000004    2.39000010
   13.44388866  169.37899780    1.96000004    2.39000010
   13.44694424  202.81500244    1.94000006    2.39000010
   13.45027733  187.34100342    1.94000006    2.36999989
   13.45333290  168.47399902    1.94000006    2.36999989
   13.45444393  191.75399780    1.94000006    2.36999989
   13.46000004  191.75399780    1.94000006    2.39000010
   13.46388912  172.69500732    1.94000006    2.39000010
   13.46722221  181.22900391    1.94000006    2.36999989
   13.47055531  176.00500488    1.91999996    2.36999989
   13.47361088  181.92999268    1.91999996    2.36999989
   13.47694397  171.97700500    1.91999996    2.39000010
   13.48027706  168.25500488    1.91999996    2.39000010
   13.48333359  171.61599731    1.91999996    2.39000010
   13.48666668  188.17700195    1.91999996    2.39000010
   13.48777771  185.05400085    1.91999996    2.39000010
   13.49027824  177.72300720    1.89999998    2.39000010
   13.49333382  190.09199524    1.89999998    2.39000010
   13.49666691  153.07699585    1.89999998    2.40000010
   13.50277805  153.07699585    1.88000000    2.40000010
   13.50694466  172.54800415    1.86000001    2.39000010
   13.51000023  159.06100464    1.85000002    2.39000010
   13.51333332  172.94799805    1.85000002    2.39000010
   13.51666641  171.05999756    1.83000004    2.40000010
   13.51972198  189.34500122    1.83000004    2.40000010
   13.52111053  175.58900452    1.83000004    2.40000010
   13.52361107  183.47300720    1.83000004    2.40000010
   13.52666664  175.02799988    1.83000004    2.40000010
   13.52999973  169.27600098    1.83000004    2.40000010
   13.53305531  176.60600281    1.83000004    2.40000010
   13.53638935  171.29899597    1.83000004    2.40000010
   13.53972244  179.96099854    1.83000004    2.42000008
   13.54555607  179.96099854    1.85000002    2.40000010
   13.54972267  171.02799988    1.85000002    2.42000008
   13.55305576  169.75999451    1.83000004    2.40000010
   13.55444431  183.61599731    1.83000004    2.40000010
   13.55666733  178.35400391    1.85000002    2.42000008
   13.55972195  167.91900635    1.85000002    2.42000008
   13.56305599  189.99099731    1.83000004    2.40000010
   13.56611156  162.92700195    1.85000002    2.42000008
   13.56944466  170.02799988    1.83000004    2.42000008
   13.57277775  176.88299561    1.83000004    2.42000008
   13.57583332  172.02099609    1.80999994    2.42000008
   13.57916641  156.53999329    1.83000004    2.42000008
   13.58249950  173.92799377    1.80999994    2.42000008
   13.58861065  173.92799377    1.76999998    2.42000008
   13.59277725  159.53599548    1.76999998    2.42000008
   13.59611034  182.99699402    1.75000000    2.44000006
   13.59916592  178.41099548    1.75000000    2.44000006
   13.60249996  169.44000244    1.75000000    2.44000006
   13.60555553  193.05599976    1.73000002    2.42000008
   13.60888958  163.56599426    1.73000002    2.42000008
   13.61222267  175.41999817    1.73000002    2.44000006
   13.61527824  196.86999512    1.71000004    2.44000006
   13.61861134  153.27499390    1.69000006    2.44000006
   13.62111092  179.22300720    1.69000006    2.44000006
   13.62222195  183.99699402    1.69000006    2.44000006
   13.62527752  170.11099243    1.69000006    2.44000006
   13.63138866  170.11099243    1.71000004    2.42000008
   13.63527775  182.62800598    1.71000004    2.46000004
   13.63861084  174.46800232    1.71000004    2.44000006
   13.64194393  181.47799683    1.71000004    2.44000006
   13.64499950  167.77699280    1.71000004    2.42000008
   13.64833355  171.35499573    1.71000004    2.42000008
   13.65166664  161.14999390    1.71000004    2.46000004
   13.65444374  174.29400635    1.73000002    2.44000006
   13.65527725  172.57299805    1.73000002    2.44000006
   13.65833282  161.95300293    1.73000002    2.44000006
   13.66166592  156.41000366    1.73000002    2.46000004
   13.66499996  154.43400574    1.75000000    2.44000006
   13.66805553  170.50100708    1.75000000    2.44000006
   13.67416668  170.50100708    1.75000000    2.46000004
   13.67833328  166.61999512    1.75000000    2.46000004
   13.68138885  174.69799805    1.75000000    2.46000004
   13.68472195  173.92799377    1.76999998    2.46000004
   13.68777752  162.79499817    1.76999998    2.46000004
   13.68833351  176.42999268    1.76999998    2.46000004
   13.69138908  149.10099792    1.76999998    2.44000006
   13.69472218  169.64999390    1.76999998    2.44000006
   13.69777775  145.65899658    1.76999998    2.46000004
   13.70111084  153.01699829    1.76999998    2.46000004
   13.70444393  158.43699646    1.75000000    2.46000004
   13.70749950  154.51800537    1.71000004    2.46000004
   13.71083355  148.15499878    1.71000004    2.46000004
   13.71694374  148.15499878    1.71000004    2.46000004
   13.72111034  171.71499634    1.71000004    2.46000004
   13.72444439  149.96000671    1.69000006    2.46000004
   13.72749996  146.35099792    1.69000006    2.46000004
   13.73083305  137.76600647    1.69000006    2.48000002
   13.73388958  144.24299622    1.66999996    2.46000004
   13.73722267  153.37100220    1.66999996    2.46000004
   13.74055576  152.54200745    1.66999996    2.46000004
   13.74361134  160.02799988    1.69000006    2.46000004
   13.74694443  158.19200134    1.69000006    2.46000004
   13.75027752  159.08399963    1.71000004    2.48000002
   13.75333309  148.65100098    1.73000002    2.46000004
   13.75444412  137.80999756    1.73000002    2.46000004
   13.75972176  137.80999756    1.73000002    2.46000004
   13.86722279   -1.00000000   -1.00000000   -1.00000000
   13.96333313   -1.00000000   -1.00000000   -1.00000000
   14.06361103   -1.00000000   -1.00000000   -1.00000000
   14.12750053   73.24549866    1.48000002    2.51999998
   14.13083363  141.23699951    1.48000002    2.53999996
   14.13416672  138.06399536    1.50000000    2.53999996
   14.13722229  138.18600464    1.50000000    2.51999998
   14.14055538  138.61099243    1.50000000    2.53999996
   14.14388847  150.63099670    1.51999998    2.53999996
   14.14805508  150.63099670    1.51999998    2.53999996
   14.15194416  140.01499939    1.51999998    2.51999998
   14.15527725  127.51399994    1.51999998    2.53999996
   14.15861034  140.75199890    1.53999996    2.51999998
   14.16083336  136.73699951    1.53999996    2.51999998
   14.16222191  146.79400635    1.58000004    2.50000000
   14.16527748  147.48199463    1.58000004    2.50000000
   14.16861153  150.80099487    1.60000002    2.51999998
   14.17194462  139.72799683    1.61000001    2.53999996
   14.17500019  129.35899353    1.61000001    2.53999996
   14.17833328  134.83500671    1.63000000    2.53999996
   14.18166733  151.12800598    1.61000001    2.51999998
   14.18472195  133.47999573    1.63000000    2.53999996
   14.19083309  133.47999573    1.63000000    2.53999996
   14.19499969  143.48699951    1.63000000    2.53999996
   14.19805527  136.79899597    1.61000001    2.53999996
   14.20138836  139.17700195    1.63000000    2.53999996
   14.20472240  143.25599670    1.63000000    2.53999996
   14.20777798  142.39700317    1.61000001    2.53999996
   14.21111107  139.67799377    1.61000001    2.53999996
   14.21416664  149.18699646    1.61000001    2.53999996
   14.21749973  139.81799316    1.60000002    2.53999996
   14.22083282  133.22399902    1.60000002    2.53999996
   14.22388840  139.18400574    1.60000002    2.53999996
   14.22722149  135.00799561    1.60000002    2.53999996
   14.22777748  147.10600281    1.60000002    2.53999996
   14.23361111  147.10600281    1.55999994    2.53999996
   14.23777771  127.62100220    1.55999994    2.53999996
   14.24111176  145.37399292    1.55999994    2.53999996
   14.24416733  140.19799805    1.55999994    2.53999996
   14.24750042  159.21899414    1.55999994    2.53999996
   14.25055599  137.31599426    1.55999994    2.53999996
   14.25388908  142.00100708    1.55999994    2.53999996
   14.25722218  149.55900574    1.55999994    2.53999996
   14.26027775  139.08200073    1.53999996    2.53999996
   14.26111126  153.89799500    1.53999996    2.53999996
   14.26416683  129.38999939    1.53999996    2.51999998
   14.26722240  132.50999451    1.53999996    2.51999998
   14.27055550  130.99400330    1.53999996    2.53999996
   14.27638817  130.99400330    1.51999998    2.53999996
   14.28055573  126.29499817    1.51999998    2.53999996
   14.28388977  144.99400330    1.51999998    2.53999996
   14.28722286  130.85099792    1.51999998    2.53999996
   14.29027843  135.33299255    1.51999998    2.55999994
   14.29361153  135.44400024    1.50000000    2.55999994
   14.29444504  139.44400024    1.50000000    2.55999994
   14.29722309  143.04800415    1.50000000    2.55999994
   14.30027771  131.63800049    1.48000002    2.55999994
   14.30361176  127.71600342    1.48000002    2.53999996
   14.30666733  132.54200745    1.48000002    2.53999996
   14.31000042  127.94799805    1.46000004    2.55999994
   14.31333351  134.05000305    1.44000006    2.53999996
   14.31944466  134.05000305    1.46000004    2.55999994
   14.32333374  128.49299622    1.44000006    2.57999992
   14.32666683  129.47000122    1.44000006    2.57999992
   14.32777786  133.82200623    1.44000006    2.55999994
   14.33055592  143.98800659    1.44000006    2.55999994
   14.33361053  142.68099976    1.41999996    2.55999994
   14.33694458  132.08000183    1.41999996    2.55999994
   14.34000015  147.36999512    1.41999996    2.55999994
   14.34333324  132.40100098    1.39999998    2.55999994
   14.34666634  137.43400574    1.39999998    2.55999994
   14.34972191  148.31900024    1.39999998    2.55999994
   14.35305595  131.96800232    1.39999998    2.55999994
   14.35638905  139.03700256    1.38000000    2.55999994
   14.36222267  139.03700256    1.36000001    2.55999994
   14.36638927  125.75599670    1.36000001    2.55999994
   14.36944485  126.38600159    1.36000001    2.55999994
   14.37277794  133.66000366    1.36000001    2.53999996
   14.37611103  133.56399536    1.36000001    2.55999994
   14.37916660  130.49699402    1.36000001    2.55999994
   14.38249969  134.80400085    1.36000001    2.55999994
   14.38555527  125.66600037    1.36000001    2.55999994
   14.38888836  133.54100037    1.36000001    2.57999992
   14.39222240  124.80599976    1.34000003    2.57999992
   14.39444447  116.88099670    1.34000003    2.55999994
   14.39583302  137.21099854    1.34000003    2.55999994
   14.39888859  142.40199280    1.34000003    2.55999994
   14.40499973  142.40199280    1.34000003    2.55999994
   14.40916634  148.27799988    1.34000003    2.55999994
   14.41249943  141.79200745    1.33000004    2.57999992
   14.41583252  135.97399902    1.33000004    2.55999994
   14.41888905  146.38499451    1.30999994    2.57999992
   14.42222214  138.09700012    1.33000004    2.57999992
   14.42555618  143.62699890    1.30999994    2.57999992
   14.42777824  128.66499329    1.33000004    2.57999992
   14.42916679  125.94300079    1.33000004    2.57999992
   14.43222237  149.62500000    1.30999994    2.55999994
   14.43555546  137.44200134    1.30999994    2.57999992
   14.43861103  141.96499634    1.30999994    2.57999992
   14.44194412  133.14199829    1.30999994    2.57999992
   14.44777775  133.14199829    1.33000004    2.57999992
   14.45194435  127.65899658    1.33000004    2.57999992
   14.45527744  146.51199341    1.33000004    2.59999990
   14.45833302  134.23300171    1.33000004    2.57999992
   14.46111107  137.38600159    1.34000003    2.59999990
   14.46222210  139.77099609    1.34000003    2.59999990
   14.46527767  135.17100525    1.34000003    2.57999992
   14.46861076  145.52600098    1.33000004    2.57999992
   14.47194386  140.39599609    1.33000004    2.57999992
   14.47499943  138.95899963    1.33000004    2.57999992
   14.47833252  143.61000061    1.33000004    2.57999992
   14.48166656  136.94299316    1.33000004    2.57999992
   14.48472214  127.89099884    1.33000004    2.57999992
   14.49083328  127.89099884    1.34000003    2.57999992
   14.49472237  154.64300537    1.33000004    2.57999992
   14.49805546  122.74099731    1.33000004    2.57999992
   14.50138855  135.24000549    1.33000004    2.59999990
   14.50444412  142.83000183    1.33000004    2.57999992
   14.50777817  143.83299255    1.33000004    2.57999992
   14.51111126  160.05200195    1.33000004    2.57999992
   14.51416683  134.04800415    1.33000004    2.57999992
   14.51749992  139.04200745    1.33000004    2.57999992
   14.52083302  124.37699890    1.33000004    2.59999990
   14.52388859  139.57800293    1.33000004    2.57999992
   14.52722168  139.00999451    1.30999994    2.57999992
   14.52777767  134.17500305    1.30999994    2.57999992
   14.53361130  134.17500305    1.28999996    2.57999992
   14.53777790  136.67300415    1.28999996    2.59999990
   14.54083347  145.11700439    1.28999996    2.59999990
   14.54416752  131.66499329    1.28999996    2.59999990
   14.54750061  123.72599792    1.30999994    2.59999990
   14.55055618  133.66499329    1.28999996    2.59999990
   14.55388927  132.77499390    1.30999994    2.59999990
   14.55694485  127.23000336    1.30999994    2.59999990
   14.56027794  140.30799866    1.30999994    2.59999990
   14.56111145  134.19299316    1.30999994    2.59999990
   14.56388950  132.65299988    1.30999994    2.59999990
   14.56694412  131.57699585    1.30999994    2.61999989
   14.57027817  137.52299500    1.33000004    2.59999990
   14.57638836  137.52299500    1.34000003    2.59999990
   14.58055592  128.99000549    1.34000003    2.59999990
   14.58388901  128.70199585    1.34000003    2.57999992
   14.58694458  135.34100342    1.34000003    2.57999992
   14.59027767  124.41600037    1.34000003    2.57999992
   14.59333324  129.54899597    1.36000001    2.59999990
   14.59444427  143.63400269    1.36000001    2.59999990
   14.59722233  137.08500671    1.38000000    2.59999990
   14.60027790  129.28599548    1.38000000    2.59999990
   14.60361195  126.49299622    1.38000000    2.57999992
   14.60694504  123.54799652    1.38000000    2.59999990
   14.61000061  119.28600311    1.38000000    2.59999990
   14.61333370  140.32200623    1.36000001    2.59999990
   14.61916637  140.32200623    1.36000001    2.57999992
   14.62333393  127.51499939    1.34000003    2.59999990
   14.62666702  129.79299927    1.34000003    2.59999990
   14.62777805  132.67599487    1.33000004    2.59999990
   14.63027763  124.33599854    1.33000004    2.59999990
   14.63333321  135.01600647    1.30999994    2.59999990
   14.63666630  133.39700317    1.30999994    2.59999990
   14.64000034  138.88000488    1.26999998    2.59999990
   14.64305496  123.32399750    1.26999998    2.59999990
   14.64638901  135.41499329    1.25000000    2.59999990
   14.64944458  130.60899353    1.23000002    2.59999990
   14.65277767  125.50499725    1.23000002    2.59999990
   14.65611076  123.55000305    1.23000002    2.59999990
   14.66222191  123.55000305    1.21000004    2.59999990
   14.66611099  122.87500000    1.23000002    2.59999990
   14.66944504  116.83599854    1.21000004    2.61999989
   14.67277813  126.93699646    1.21000004    2.59999990
   14.67583370  125.36799622    1.21000004    2.59999990
   14.67916679  140.95899963    1.21000004    2.59999990
   14.68249989  125.48300171    1.21000004    2.59999990
   14.68555546  120.17199707    1.23000002    2.61999989
   14.68888855  129.32699585    1.23000002    2.59999990
   14.69194412  124.96099854    1.25000000    2.59999990
   14.69444466  132.35600281    1.25000000    2.59999990
   14.69583321  122.31900024    1.25000000    2.59999990
   14.69888878  130.22700500    1.25000000    2.61999989
   14.70499992  130.22700500    1.30999994    2.59999990
   14.70916653  131.29899597    1.34000003    2.59999990
   14.71222210  126.72000122    1.36000001    2.57999992
   14.71555519  130.98199463    1.38000000    2.57999992
   14.71888828  140.90299988    1.38000000    2.61999989
   14.72194386  128.72099304    1.39999998    2.59999990
   14.72527695  129.36000061    1.39999998    2.59999990
   14.72777748  131.10600281    1.39999998    2.59999990
   14.72888851  141.51600647    1.39999998    2.59999990
   14.73194408  142.71800232    1.39999998    2.59999990
   14.73527813  137.49600220    1.39999998    2.59999990
   14.73861122  132.01800537    1.39999998    2.59999990
   14.74166679  134.60800171    1.39999998    2.59999990
   14.74777794  134.60800171    1.38000000    2.59999990
   14.75194454  131.65299988    1.36000001    2.59999990
   14.75527763  143.92599487    1.33000004    2.59999990
   14.75833321  141.55099487    1.30999994    2.59999990
   14.76111126  130.39100647    1.28999996    2.61999989
   14.76222229  131.37199402    1.28999996    2.61999989
   14.76527786  129.35400391    1.28999996    2.59999990
   14.76861095  121.26200104    1.28999996    2.59999990
   14.77194405  123.96299744    1.26999998    2.61999989
   14.77499962  132.44099426    1.25000000    2.59999990
   14.77833271  135.33700562    1.23000002    2.59999990
   14.78138828  143.50399780    1.23000002    2.61999989
   14.78472233  128.45700073    1.23000002    2.61999989
   14.79055595  128.45700073    1.21000004    2.61999989
   14.79472256  124.47299957    1.23000002    2.61999989
   14.79805565  122.43800354    1.23000002    2.61999989
   14.80111122  120.93900299    1.26999998    2.61999989
   14.80444431  109.13200378    1.26999998    2.61999989
   14.80777836  135.48300171    1.28999996    2.61999989
   14.81111145  120.31099701    1.28999996    2.61999989
   14.81416702  134.03599548    1.28999996    2.61999989
   14.81750011  109.56500244    1.28999996    2.59999990
   14.82055569  120.95700073    1.28999996    2.61999989
   14.82388878  121.99099731    1.30999994    2.59999990
   14.82722187  144.72999573    1.33000004    2.61999989
   14.82777786  126.70899963    1.33000004    2.61999989
   14.83361053  126.70899963    1.34000003    2.61999989
   14.83749962  118.80000305    1.36000001    2.61999989
   14.84083271  125.08799744    1.36000001    2.61999989
   14.84416676  133.25399780    1.38000000    2.61999989
   14.84722233  129.40299988    1.38000000    2.59999990
   14.85055637  122.30100250    1.36000001    2.59999990
   14.85388947  127.41200256    1.33000004    2.61999989
   14.85694504  111.59999847    1.33000004    2.61999989
   14.86027813  123.44999695    1.33000004    2.59999990
   14.86111164  126.59899902    1.33000004    2.59999990
   14.86388969  122.69699860    1.30999994    2.61999989
   14.86694431  122.57199860    1.30999994    2.61999989
   14.87027836  123.80000305    1.30999994    2.59999990
   14.87638855  123.80000305    1.30999994    2.61999989
   14.88055611  118.64399719    1.30999994    2.61999989
   14.88361073  125.29900360    1.30999994    2.61999989
   14.88694477  122.76100159    1.33000004    2.61999989
   14.89027786  119.94000244    1.33000004    2.61999989
   14.89333344  123.42400360    1.30999994    2.61999989
   14.89444447  123.36100006    1.30999994    2.61999989
   14.89694405  121.87500000    1.30999994    2.61999989
   14.89999962  126.25900269    1.30999994    2.61999989
   14.90333271  119.49199677    1.30999994    2.61999989
   14.90666676  125.77400208    1.30999994    2.61999989
   14.90972137  124.36599731    1.33000004    2.61999989
   14.91305542  118.16400146    1.33000004    2.61999989
   14.91916656  118.16400146    1.33000004    2.61999989
   14.92333412  127.70700073    1.34000003    2.64000010
   14.92666721  127.24700165    1.36000001    2.64000010
   14.92777824  125.80300140    1.36000001    2.61999989
   14.93027782  123.14800262    1.36000001    2.61999989
   14.93361092  125.51599884    1.36000001    2.64000010
   14.93666649  126.43499756    1.38000000    2.61999989
   14.94000053  123.62699890    1.39999998    2.61999989
   14.94305515  125.35500336    1.39999998    2.61999989
   14.94638920  129.38600159    1.39999998    2.61999989
   14.94972229  144.63999939    1.44000006    2.61999989
   14.95277786  132.77499390    1.41999996    2.61999989
   14.95611095  121.99400330    1.44000006    2.61999989
   14.96194458  121.99400330    1.44000006    2.64000010
   14.96611118  117.28700256    1.41999996    2.61999989
   14.96944427  141.18299866    1.41999996    2.64000010
   14.97277737  134.50199890    1.41999996    2.64000010
   14.97583294  140.56300354    1.41999996    2.61999989
   14.97916603  141.62699890    1.39999998    2.64000010
   14.98222160  125.69000244    1.39999998    2.61999989
   14.98555565  122.08699799    1.39999998    2.61999989
   14.98888874  120.51799774    1.39999998    2.61999989
   14.99194431  129.64900208    1.38000000    2.61999989
   14.99444485  121.26200104    1.38000000    2.61999989
   14.99583340  113.68699646    1.36000001    2.61999989
   14.99888897  133.54800415    1.36000001    2.61999989
   15.00500011  133.54800415    1.34000003    2.64000010
   15.00888920  121.33399963    1.36000001    2.64000010
   15.01222229  136.09800720    1.38000000    2.64000010
   15.01555538  124.56400299    1.46000004    2.61999989
   15.01861095  130.77799988    1.46000004    2.64000010
   15.02194405  136.41000366    1.48000002    2.61999989
   15.02527714  128.56399536    1.50000000    2.61999989
   15.02777767  135.56900024    1.51999998    2.61999989
   15.02888870  130.94799805    1.51999998    2.61999989
   15.03194427  144.56100464    1.50000000    2.61999989
   15.03527832  157.00599670    1.51999998    2.61999989
   15.03861141  136.49099731    1.51999998    2.64000010
   15.04166698  133.24200439    1.51999998    2.64000010
   15.04777813  133.24200439    1.53999996    2.61999989
   15.05194473  121.85099792    1.55999994    2.61999989
   15.05500031  126.43599701    1.55999994    2.61999989
   15.05833340  134.23699951    1.55999994    2.61999989
   15.06111145  126.07499695    1.55999994    2.61999989
   15.06194496  140.40699768    1.55999994    2.61999989
   15.06527805  128.44000244    1.55999994    2.61999989
   15.06861115  116.76699829    1.55999994    2.61999989
   15.07166672  120.30799866    1.55999994    2.61999989
   15.07499981  124.79799652    1.55999994    2.61999989
   15.07833290  121.44300079    1.55999994    2.64000010
   15.08138847  122.51100159    1.60000002    2.61999989
   15.08472157  116.16799927    1.63000000    2.64000010
   15.09055519  116.16799927    1.63000000    2.61999989
   15.09472179  121.18099976    1.60000002    2.64000010
   15.09805489  122.61000061    1.55999994    2.64000010
   15.10111141  119.41699982    1.53999996    2.61999989
   15.10444450  125.23999786    1.51999998    2.61999989
   15.10750008  125.86900330    1.44000006    2.64000010
   15.11083412  115.28600311    1.41999996    2.66000009
   15.11416721  128.97500610    1.41999996    2.64000010
   15.11722279  127.62000275    1.46000004    2.64000010
   15.12055588  121.50499725    1.46000004    2.61999989
   15.12388897  118.10299683    1.46000004    2.64000010
   15.12694454  127.51000214    1.46000004    2.64000010
   15.12777805  127.46399689    1.46000004    2.64000010
   15.14861107  127.46399689    1.75000000    2.61999989
   15.15277767  137.42100525    1.78999996    2.64000010
   15.15583324  143.21400452    1.83000004    2.61999989
   15.15916634  132.19799805    1.83000004    2.61999989
   15.16111088  133.95399475    1.76999998    2.61999989
   15.16277695  137.23500061    1.78999996    2.61999989
   15.16611099  135.89999390    1.75000000    2.61999989
   15.16916656  147.34700012    1.73000002    2.64000010
   15.17250061  143.92799377    1.73000002    2.64000010
   15.17555618  149.37399292    1.73000002    2.61999989
   15.17888927  130.50300598    1.71000004    2.64000010
   15.18222237  136.80000305    1.64999998    2.64000010
   15.18527794  149.46400452    1.64999998    2.64000010
   15.19138908  149.46400452    1.60000002    2.64000010
   15.19555569  157.80700684    1.58000004    2.61999989
   15.19861126  134.81100464    1.58000004    2.61999989
   15.20194435  134.16099548    1.58000004    2.64000010
   15.20499992  150.22200012    1.55999994    2.61999989
   15.20833302  127.70999908    1.55999994    2.64000010
   15.21166611  132.16400146    1.55999994    2.64000010
   15.21472168  142.22099304    1.53999996    2.64000010
   15.21805477  144.50500488    1.55999994    2.64000010
   15.22138882  144.49099731    1.55999994    2.61999989
   15.22472191  156.89500427    1.55999994    2.61999989
   15.22777748  142.46800232    1.60000002    2.64000010
   15.22833252  144.25799561    1.60000002    2.64000010
   15.23416710  144.25799561    1.71000004    2.64000010
   15.23833370  168.05499268    1.71000004    2.61999989
   15.24138927  141.14599609    1.71000004    2.64000010
   15.24472237  137.47300720    1.73000002    2.64000010
   15.24805546  131.04200745    1.73000002    2.64000010
   15.25111103  147.99099731    1.73000002    2.64000010
   15.25444412  138.50100708    1.71000004    2.61999989
   15.25749969  140.09300232    1.71000004    2.64000010
   15.26083374  135.65299988    1.69000006    2.61999989
   15.26138878  139.00100708    1.66999996    2.64000010
   15.26472187  136.10699463    1.63000000    2.64000010
   15.26777744  136.88000488    1.61000001    2.64000010
   15.27111053  147.25900269    1.63000000    2.61999989
   15.27694416  147.25900269    1.63000000    2.64000010
   15.28111076  169.36099243    1.64999998    2.64000010
   15.28444481  138.84700012    1.64999998    2.61999989
   15.28750038  178.40899658    1.66999996    2.64000010
   15.29083347  168.73300171    1.66999996    2.64000010
   15.29416752  174.45300293    1.66999996    2.64000010
   15.29472256  161.67599487    1.66999996    2.64000010
   15.29777813  190.03300476    1.66999996    2.64000010
   15.30083370  187.77900696    1.63000000    2.64000010
   15.30416679  173.41600037    1.61000001    2.64000010
   15.30749989  163.17100525    1.63000000    2.64000010
   15.31055546  171.19200134    1.63000000    2.64000010
   15.31388950  195.72900391    1.61000001    2.64000010
   15.31972218  195.72900391    1.63000000    2.64000010
   15.32388878  192.60800171    1.64999998    2.64000010
   15.32722187  185.53500366    1.69000006    2.64000010
   15.32805538  188.85400391    1.69000006    2.64000010
   15.33083344  159.90199280    1.69000006    2.64000010
   15.33388901  187.96800232    1.73000002    2.64000010
   15.33722210  210.11300659    1.71000004    2.64000010
   15.34055519  180.86799622    1.71000004    2.64000010
   15.34361076  178.81399536    1.78999996    2.64000010
   15.34694386  180.03799438    1.78999996    2.61999989
   15.35027790  168.73699951    1.83000004    2.61999989
   15.35333347  197.46499634    1.83000004    2.61999989
   15.35666752  166.86000061    1.80999994    2.61999989
   15.36277771  166.86000061    1.83000004    2.64000010
   15.36666679  188.13499451    1.85000002    2.64000010
   15.36999989  186.15199280    1.85000002    2.66000009
   15.37333393  174.73199463    1.83000004    2.64000010
   15.37638855  185.52200317    1.80999994    2.64000010
   15.37972260  173.95199585    1.80999994    2.64000010
   15.38305569  201.15199280    1.78999996    2.64000010
   15.38611126  187.79499817    1.75000000    2.64000010
   15.38944435  183.17900085    1.73000002    2.64000010
   15.39249992  183.20799255    1.71000004    2.64000010
   15.39472198  157.50900269    1.69000006    2.64000010
   15.39638901  185.75399780    1.69000006    2.64000010
   15.39944458  183.58500671    1.64999998    2.64000010
   15.40555477  183.58500671    1.63000000    2.66000009
   15.40972137  181.99299622    1.60000002    2.64000010
   15.41277695  181.31799316    1.61000001    2.64000010
   15.41611099  166.85200500    1.61000001    2.64000010
   15.41944504  186.44799805    1.60000002    2.64000010
   15.42250061  177.43400574    1.61000001    2.64000010
   15.42583370  197.79699707    1.61000001    2.64000010
   15.42805576  193.61300659    1.61000001    2.64000010
   15.42944431  180.12600708    1.58000004    2.64000010
   15.43249989  201.05999756    1.58000004    2.64000010
   15.43583298  183.65800476    1.53999996    2.61999989
   15.43916702  175.27900696    1.48000002    2.66000009
   15.44222260  159.01899719    1.44000006    2.64000010
   15.44833374  159.01899719    1.41999996    2.66000009
   15.45249939  191.75100708    1.44000006    2.66000009
   15.45583344  179.27200317    1.44000006    2.66000009
   15.45888901  199.10200500    1.46000004    2.66000009
   15.46138859  161.61199951    1.48000002    2.64000010
   15.46277714  178.58000183    1.50000000    2.66000009
   15.46583271  171.10499573    1.51999998    2.66000009
   15.46916580  170.32699585    1.48000002    2.66000009
   15.47249985  154.08599854    1.46000004    2.64000010
   15.47555542  166.96800232    1.46000004    2.66000009
   15.47888851  163.46099854    1.48000002    2.66000009
   15.48222160  169.28399658    1.51999998    2.64000010
   15.48527813  164.58000183    1.51999998    2.64000010
   15.49111176  164.58000183    1.63000000    2.64000010
   15.49527836  166.76499939    1.63000000    2.64000010
   15.49861145  142.53300476    1.64999998    2.64000010
   15.50194454  136.09100342    1.64999998    2.64000010
   15.50527763  160.75500488    1.64999998    2.64000010
   15.50833321  138.08900452    1.66999996    2.66000009
   15.51166630  156.88099670    1.66999996    2.66000009
   15.51500034  140.59599304    1.64999998    2.64000010
   15.51805496  157.00900269    1.63000000    2.64000010
   15.52138901  154.32600403    1.63000000    2.64000010
   15.52472210  142.24400330    1.63000000    2.64000010
   15.52777767  160.65899658    1.61000001    2.64000010
   15.52833271  129.76600647    1.61000001    2.64000010
   15.53416729  129.76600647    1.53999996    2.66000009
   15.53833389  157.17700195    1.51999998    2.64000010
   15.54138947  150.59800720    1.51999998    2.66000009
   15.54472256  141.29600525    1.53999996    2.64000010
   15.54777813  139.18299866    1.53999996    2.64000010
   15.55111122  151.92900085    1.51999998    2.64000010
   15.55444431  144.55900574    1.51999998    2.64000010
   15.55749989  149.88800049    1.51999998    2.66000009
   15.56083393  134.17199707    1.53999996    2.64000010
   15.56166649  145.64300537    1.53999996    2.64000010
   15.56444454  134.12199402    1.55999994    2.64000010
   15.56750011  141.80299377    1.55999994    2.64000010
   15.57083321  143.97200012    1.55999994    2.64000010
   15.57694435  143.97200012    1.55999994    2.61999989
   15.58111095  140.45599365    1.55999994    2.66000009
   15.58416653  130.18800354    1.55999994    2.66000009
   15.58749962  133.08299255    1.55999994    2.64000010
   15.59055519  127.60099792    1.55999994    2.64000010
   15.59388828  127.96499634    1.55999994    2.64000010
   15.59499931  127.62899780    1.53999996    2.64000010
   15.59749985  132.88800049    1.53999996    2.64000010
   15.60055637  117.42500305    1.53999996    2.64000010
   15.60388947  121.36000061    1.51999998    2.64000010
   15.60722256  123.36399841    1.51999998    2.64000010
   15.61027813  126.77500153    1.58000004    2.64000010
   15.61361122  126.64600372    1.60000002    2.66000009
   15.61972237  126.64600372    1.64999998    2.66000009
   15.62388897  111.57399750    1.64999998    2.66000009
   15.62694454  118.62899780    1.64999998    2.64000010
   15.62833309  117.13800049    1.66999996    2.66000009
   15.63083363  122.06500244    1.69000006    2.64000010
   15.63388920  118.63899994    1.69000006    2.66000009
   15.63722229  109.63500214    1.71000004    2.64000010
   15.64055538  107.87000275    1.73000002    2.66000009
   15.64361095  124.08599854    1.73000002    2.64000010
   15.64694405  126.36000061    1.75000000    2.64000010
   15.64999962  120.30999756    1.75000000    2.64000010
   15.65333271  118.54900360    1.75000000    2.64000010
   15.65666676  127.40599823    1.75000000    2.64000010
   15.66249943  127.40599823    1.71000004    2.64000010
   15.66666698  112.82900238    1.69000006    2.64000010
   15.67000008  120.76000214    1.66999996    2.64000010
   15.67305565  117.55300140    1.64999998    2.64000010
   15.67638874  118.20400238    1.60000002    2.64000010
   15.67972279  129.07200623    1.60000002    2.64000010
   15.68277836  122.48600006    1.53999996    2.64000010
   15.68611145  116.76999664    1.48000002    2.66000009
   15.68944454  122.36599731    1.50000000    2.66000009
   15.69250011  112.13500214    1.51999998    2.66000009
   15.69499969  112.58999634    1.51999998    2.66000009
   15.69611073  106.33100128    1.51999998    2.66000009
   15.69916630  114.15200043    1.51999998    2.66000009
   15.70555496  114.15200043    1.58000004    2.66000009
   15.70944405  107.26200104    1.58000004    2.66000009
   15.71277714  121.98400116    1.63000000    2.64000010
   15.71611118  120.19100189    1.64999998    2.64000010
   15.71916580  109.12699890    1.69000006    2.64000010
   15.72249985  113.73400116    1.71000004    2.66000009
   15.72583294  107.90799713    1.71000004    2.64000010
   15.72833252  101.76699829    1.71000004    2.64000010
   15.72944355  104.94899750    1.73000002    2.66000009
   15.73249912  111.85500336    1.75000000    2.64000010
   15.73583317  111.36699677    1.78999996    2.64000010
   15.73916721  120.92500305    1.78999996    2.64000010
   15.74222279  117.32099915    1.78999996    2.64000010
   15.74833393  117.32099915    1.83000004    2.64000010
   15.75249958  118.13700104    1.80999994    2.64000010
   15.75555515  121.22299957    1.80999994    2.64000010
   15.75888920  118.78600311    1.64999998    2.64000010
   15.76166630  119.62899780    1.61000001    2.64000010
   15.76249981  127.42400360    1.61000001    2.66000009
   15.76555538  107.66600037    1.60000002    2.66000009
   15.76888847  120.87799835    1.55999994    2.64000010
   15.77222157  128.83999634    1.51999998    2.66000009
   15.77527714  107.95899963    1.51999998    2.66000009
   15.77861118  116.64199829    1.50000000    2.66000009
   15.78194427  107.93699646    1.50000000    2.66000009
   15.78500080  115.26100159    1.50000000    2.66000009
   15.79111195  115.26100159    1.48000002    2.66000009
   15.79527855  127.39600372    1.44000006    2.66000009
   15.79861164  110.82199860    1.46000004    2.66000009
   15.80194473  110.64600372    1.44000006    2.67000008
   15.80500031  120.68499756    1.44000006    2.66000009
   15.80833340  105.96600342    1.44000006    2.67000008
   15.81166649  117.20200348    1.44000006    2.67000008
   15.81472206  111.75000000    1.46000004    2.66000009
   15.81805515  109.49600220    1.48000002    2.66000009
   15.82138920  114.28299713    1.48000002    2.64000010
   15.82444477  112.50499725    1.48000002    2.66000009
   15.82777786  104.79799652    1.48000002    2.66000009
   15.82833290  121.02600098    1.50000000    2.66000009
   15.83388901  121.02600098    1.55999994    2.66000009
   15.83805561  116.07700348    1.58000004    2.66000009
   15.84138870  121.49600220    1.60000002    2.64000010
   15.84444427  112.44899750    1.61000001    2.66000009
   15.84777737  112.56700134    1.63000000    2.66000009
   15.85111141  123.56300354    1.66999996    2.66000009
   15.85416698  106.54399872    1.66999996    2.66000009
   15.85750008  110.53500366    1.66999996    2.66000009
   15.86055565  117.98300171    1.63000000    2.64000010
   15.86166668  113.00399780    1.63000000    2.64000010
   15.86444473  115.57800293    1.63000000    2.66000009
   15.86750031  107.97899628    1.64999998    2.66000009
   15.87083340  114.23999786    1.64999998    2.64000010
   15.87694454  114.23999786    1.64999998    2.66000009
   15.88083363  124.38999939    1.66999996    2.64000010
   15.88416672  119.30100250    1.66999996    2.64000010
   15.88749981  115.78399658    1.61000001    2.64000010
   15.89055538  115.01200104    1.63000000    2.66000009
   15.89388847  134.26100159    1.64999998    2.66000009
   15.89499950  125.59100342    1.64999998    2.66000009
   15.89750004  117.83000183    1.63000000    2.66000009
   15.90055561  114.39099884    1.63000000    2.66000009
   15.90388870  122.72899628    1.66999996    2.64000010
   15.90722179  119.54699707    1.66999996    2.64000010
   15.91027737  115.76799774    1.64999998    2.64000010
   15.91361046  111.45099640    1.63000000    2.66000009
   15.91972256  111.45099640    1.60000002    2.66000009
   15.92388916  119.46499634    1.60000002    2.66000009
   15.92694473  128.79400635    1.58000004    2.66000009
   15.92833328  121.82800293    1.58000004    2.66000009
   15.93055630  120.04499817    1.60000002    2.66000009
   15.93361092  122.53500366    1.61000001    2.66000009
   15.93694496  131.63600159    1.61000001    2.66000009
   15.94027805  119.94699860    1.61000001    2.66000009
   15.94333363  121.38099670    1.63000000    2.66000009
   15.94666672  115.59799957    1.61000001    2.66000009
   15.94999981  114.78399658    1.63000000    2.66000009
   15.95305538  132.82099915    1.63000000    2.66000009
   15.95638847  120.26799774    1.64999998    2.64000010
   15.96249962  120.26799774    1.64999998    2.66000009
   15.96666622  131.65100098    1.64999998    2.66000009
   15.96972179  128.54200745    1.64999998    2.64000010
   15.97305489  113.79399872    1.64999998    2.66000009
   15.97638798  121.54399872    1.64999998    2.64000010
   15.97944355  113.12799835    1.64999998    2.64000010
   15.98277760  123.04799652    1.64999998    2.66000009
   15.98611164  121.80899811    1.63000000    2.66000009
   15.98916721  105.53600311    1.63000000    2.64000010
   15.99250031  121.57599640    1.61000001    2.66000009
   15.99499989  120.76999664    1.60000002    2.64000010
   15.99611092  121.87400055    1.60000002    2.64000010
   15.99944496  111.61900330    1.58000004    2.66000009
   16.00527763  111.61900330    1.51999998    2.64000010
   16.00944519  118.29399872    1.51999998    2.64000010
   16.01277733  121.29599762    1.48000002    2.66000009
   16.01583290  122.96099854    1.48000002    2.66000009
   16.01916695  118.37899780    1.48000002    2.64000010
   16.02249908  125.07700348    1.48000002    2.67000008
   16.02555466  114.02500153    1.48000002    2.66000009
   16.02833366  135.80299377    1.48000002    2.66000009
   16.02916718  119.20500183    1.46000004    2.66000009
   16.03222275  108.30699921    1.46000004    2.66000009
   16.03555489  101.33200073    1.46000004    2.66000009
   16.03888893  116.90399933    1.51999998    2.66000009
   16.04194450  125.99199677    1.50000000    2.66000009
   16.04833221  125.99199677    1.50000000    2.66000009
   16.05222130  110.77100372    1.58000004    2.64000010
   16.05555534  116.92500305    1.60000002    2.64000010
   16.05888748  119.52400208    1.60000002    2.66000009
   16.06166649  126.04799652    1.60000002    2.66000009
   16.06250000  124.58000183    1.58000004    2.66000009
   16.06555557  112.87999725    1.55999994    2.66000009
   16.06888962  109.29100037    1.55999994    2.66000009
   16.07222366  109.90299988    1.60000002    2.66000009
   16.07527924  117.81199646    1.60000002    2.66000009
   16.07861137  117.26100159    1.61000001    2.66000009
   16.08194542  123.31800079    1.73000002    2.64000010
   16.08500099  112.76300049    1.76999998    2.64000010
   16.09111214  112.76300049    1.76999998    2.64000010
   16.09527779  112.75099945    1.78999996    2.64000010
   16.09833336  114.90799713    1.78999996    2.64000010
   16.10166740  117.01300049    1.80999994    2.64000010
   16.10499954  103.27100372    1.80999994    2.64000010
   16.10805511  109.12300110    1.80999994    2.64000010
   16.11138916  113.87999725    1.80999994    2.64000010
   16.11444473  109.47899628    1.80999994    2.66000009
   16.11777878  104.28199768    1.80999994    2.64000010
   16.12111092  128.08999634    1.80999994    2.64000010
   16.12416649  119.95099640    1.73000002    2.64000010
   16.12750053  120.00399780    1.71000004    2.64000010
   16.12833405  135.82200623    1.71000004    2.64000010
   16.13388824  135.82200623    1.71000004    2.66000009
   16.13805580  119.49800110    1.71000004    2.64000010
   16.14138794  120.44499969    1.71000004    2.64000010
   16.14444351  119.26300049    1.69000006    2.66000009
   16.16222191  186.48500061    1.63000000    2.66000009
   16.16444397  164.42300415    1.63000000    2.66000009
   16.16777802  211.12800598    1.63000000    2.66000009
   16.17083359  204.93600464    1.63000000    2.64000010
   16.17694473  204.93600464    1.69000006    2.66000009
   16.18111038  174.84399414    1.69000006    2.64000010
   16.18444443  163.97000122    1.69000006    2.66000009
   16.18750000  171.65199280    1.71000004    2.64000010
   16.19083214  180.14999390    1.71000004    2.64000010
   16.19388771  144.37199402    1.75000000    2.64000010
   16.19527626  154.13299561    1.86000001    2.64000010
   16.19777679  148.60000610    1.86000001    2.64000010
   16.20083427  139.48300171    1.86000001    2.64000010
   16.20416832  143.02400208    1.86000001    2.64000010
   16.20750046  156.63499451    1.85000002    2.64000010
   16.21055603  129.39999390    1.85000002    2.64000010
   16.21389008  137.38999939    1.85000002    2.64000010
   16.21972275  137.38999939    1.83000004    2.64000010
   16.22389030  139.82600403    1.80999994    2.64000010
   16.22722244  127.34100342    1.80999994    2.66000009
   16.22861099  125.70899963    1.78999996    2.66000009
   16.23083305  151.98399353    1.80999994    2.64000010
   16.23388863  145.07200623    1.80999994    2.64000010
   16.23722267  154.80700684    1.80999994    2.64000010
   16.24055672  146.75599670    1.80999994    2.66000009
   16.24361229  157.92700195    1.78999996    2.64000010
   16.24694443  143.06700134    1.76999998    2.64000010
   16.25027847  133.73399353    1.75000000    2.66000009
   16.25333405  155.36500549    1.75000000    2.66000009
   16.25666618  139.86500549    1.73000002    2.64000010
   16.26250076  139.86500549    1.73000002    2.64000010
   16.26666641  121.00800323    1.73000002    2.64000010
   16.27000046  105.79799652    1.73000002    2.64000010
   16.27305603  124.33599854    1.76999998    2.66000009
   16.27638817  114.68800354    1.85000002    2.64000010
   16.27972221  118.48200226    1.88000000    2.61999989
   16.28277779  121.48600006    1.86000001    2.64000010
   16.28610992  115.14299774    1.86000001    2.64000010
   16.28944397  113.62300110    1.83000004    2.64000010
   16.29249954  131.58099365    1.83000004    2.64000010
   16.29527664  139.39399719    1.83000004    2.64000010
   16.29611015  121.85500336    1.80999994    2.64000010
   16.29916573  127.80000305    1.85000002    2.64000010
   16.30555534  127.80000305    1.88000000    2.64000010
   16.30944443  117.65799713    1.88000000    2.64000010
   16.31277657  128.46499634    1.85000002    2.64000010
   16.31611061  118.39499664    1.80999994    2.64000010
   16.31944466  110.63999939    1.78999996    2.64000010
   16.32277870  105.45800018    1.78999996    2.64000010
   16.32583427  118.82099915    1.78999996    2.64000010
   16.32861137  134.79699707    1.80999994    2.64000010
   16.32944489  125.96099854    1.80999994    2.64000010
   16.33277893  111.37799835    1.78999996    2.64000010
   16.33583450  116.58599854    1.76999998    2.64000010
   16.33916664  122.22499847    1.75000000    2.64000010
   16.34250069  117.73300171    1.73000002    2.66000009
   16.34833336  117.73300171    1.73000002    2.64000010
   16.35250092  117.28900146    1.71000004    2.64000010
   16.35555649  123.05500031    1.66999996    2.64000010
   16.35888863  121.32299805    1.69000006    2.64000010
   16.36194420  121.47599792    1.73000002    2.64000010
   16.36250114  119.15799713    1.73000002    2.64000010
   16.36555672  110.44400024    1.73000002    2.64000010
   16.36888885  119.73999786    1.75000000    2.64000010
   16.37222290  122.08899689    1.75000000    2.66000009
   16.37527847  136.92199707    1.76999998    2.64000010
   16.37861061  111.88999939    1.76999998    2.64000010
   16.38194466  100.33799744    1.76999998    2.64000010
   16.38500023  118.68099976    1.80999994    2.64000010
   16.39111137  118.68099976    1.86000001    2.64000010
   16.39555550  115.66799927    1.88000000    2.64000010
   16.39611053  121.21700287    1.88000000    2.64000010
   16.39916611  114.02700043    1.89999998    2.64000010
   16.40250015  113.89800262    1.89999998    2.64000010
   16.40555573  119.58899689    1.89999998    2.64000010
   16.40888786  110.87899780    1.89999998    2.64000010
   16.41222191  116.49199677    1.89999998    2.64000010
   16.41527748  113.26399994    1.88000000    2.64000010
   16.41860962  109.68000031    1.86000001    2.64000010
   16.42194366  104.61699677    1.85000002    2.64000010
   16.42499924  118.12799835    1.85000002    2.66000009
   16.42833328  107.96399689    1.85000002    2.66000009
   16.42888832  115.09799957    1.85000002    2.66000009
   16.43388748  115.09799957    1.76999998    2.64000010
   16.43805504  107.25399780    1.76999998    2.64000010
   16.44138718  113.83999634    1.78999996    2.64000010
   16.44444275  116.52100372    1.80999994    2.66000009
   16.44777679  104.17099762    1.83000004    2.66000009
   16.45111275  111.71800232    1.83000004    2.64000010
   16.45416832  116.77500153    1.86000001    2.64000010
   16.45750046  120.10099792    1.86000001    2.64000010
   16.46083450  119.44100189    1.86000001    2.64000010
   16.46222305  116.19100189    1.89999998    2.64000010
   16.46416664  114.74299622    1.89999998    2.64000010
   16.46750069  113.86599731    1.91999996    2.64000010
   16.47083473  122.18499756    1.89999998    2.64000010
   16.47694588  122.18499756    1.89999998    2.64000010
   16.48083305  111.99600220    1.89999998    2.64000010
   16.48416710  128.68499756    1.89999998    2.64000010
   16.48750114  108.09300232    1.91999996    2.64000010
   16.49055672  115.11699677    1.91999996    2.64000010
   16.49388885  120.81999969    1.94000006    2.64000010
   16.49555588  116.33499908    1.94000006    2.64000010
   16.49777794  109.58399963    1.89999998    2.64000010
   16.50111198  112.29499817    1.89999998    2.61999989
   16.50416756  108.59200287    1.89999998    2.61999989
   16.50749969  114.73100281    1.94000006    2.64000010
   16.51083374  120.59700012    1.98000002    2.64000010
   16.51388931  112.39700317    2.00000000    2.64000010
   16.51972198  112.39700317    2.00000000    2.61999989
   16.52388954  118.72499847    2.05999994    2.61999989
   16.52694511  107.75599670    2.05999994    2.64000010
   16.52888870  108.66200256    2.07999992    2.64000010
   16.53055573  117.74099731    2.07999992    2.64000010
   16.53388786  113.22100067    2.09999990    2.64000010
   16.53722191  110.42400360    2.09999990    2.64000010
   16.54027748  115.27200317    2.09999990    2.64000010
   16.54361153  118.42400360    2.05999994    2.61999989
   16.54694366  111.53099823    2.05999994    2.64000010
   16.54999924  107.76899719    2.05999994    2.64000010
   16.55333328  116.83399963    2.07999992    2.64000010
   16.55638885  121.50199890    2.07999992    2.61999989
   16.56250000  121.50199890    2.09999990    2.61999989
   16.56666756  122.87699890    2.11999989    2.61999989
   16.57000160  106.76699829    2.13000011    2.61999989
   16.57305717  111.67199707    2.15000010    2.64000010
   16.57638931  107.79399872    2.17000008    2.61999989
   16.57944489  114.49400330    2.19000006    2.61999989
   16.58277893  125.62200165    2.19000006    2.61999989
   16.58611107  120.71399689    2.17000008    2.61999989
   16.58916664  116.45400238    2.15000010    2.61999989
   16.59250069  112.95600128    2.09999990    2.64000010
   16.59555626  118.42299652    2.09999990    2.61999989
   16.59611130  109.40200043    2.11999989    2.61999989
   16.59944534  116.04100037    2.13000011    2.61999989
   16.60527802  116.04100037    2.13000011    2.61999989
   16.60944557  106.58599854    2.13000011    2.61999989
   16.61277771  117.70300293    2.13000011    2.61999989
   16.61583328  115.28199768    2.11999989    2.61999989
   16.61916733  111.45899963    2.11999989    2.61999989
   16.62249947  120.02100372    2.15000010    2.61999989
   16.62555504  110.16799927    2.15000010    2.61999989
   16.62888908  120.57599640    2.17000008    2.61999989
   16.62916756  109.70500183    2.17000008    2.61999989
   16.63249969  125.33699799    2.17000008    2.61999989
   16.63583374  115.93599701    2.17000008    2.61999989
   16.63888931  110.12899780    2.15000010    2.61999989
   16.64222145  110.90200043    2.13000011    2.61999989
   16.64833260  110.90200043    2.11999989    2.61999989
   16.65222168  109.67900085    2.17000008    2.64000010
   16.65555573  115.72200012    2.17000008    2.61999989
   16.65888786  117.16300201    2.17000008    2.64000010
   16.66194344  113.66600037    2.15000010    2.61999989
   16.66250038  101.80200195    2.15000010    2.61999989
   16.66583252  115.27200317    2.15000010    2.61999989
   16.66888809  108.46399689    2.17000008    2.61999989
   16.67222214  110.43000031    2.17000008    2.61999989
   16.67555428  114.59100342    2.17000008    2.61999989
   16.67860985  107.82399750    2.13000011    2.61999989
   16.68194389  120.36299896    2.13000011    2.61999989
   16.68527603  116.38600159    2.13000011    2.61999989
   16.69111061  116.38600159    2.13000011    2.61999989
   16.69527626  110.10099792    2.11999989    2.61999989
   16.69583321  116.62500000    2.13000011    2.61999989
   16.69888878  122.42700195    2.09999990    2.61999989
   16.70222282  113.41999817    2.09999990    2.64000010
   16.70527840  114.30300140    2.09999990    2.61999989
   16.70861244  118.43599701    2.07999992    2.61999989
   16.71166801  107.95700073    2.07999992    2.61999989
   16.71500015  112.34799957    2.09999990    2.61999989
   16.71833420  128.05700684    2.11999989    2.61999989
   16.72138977  120.76200104    2.15000010    2.61999989
   16.72472191  115.07199860    2.15000010    2.64000010
   16.72805595  108.59500122    2.21000004    2.64000010
   16.72916794  102.95400238    2.25000000    2.61999989
   16.73388863  102.95400238    2.36999989    2.61999989
   16.73805618  117.27700043    2.40000010    2.59999990
   16.74138832  128.33200073    2.44000006    2.61999989
   16.74444389  126.66699982    2.46000004    2.61999989
   16.74777794  121.08599854    2.48000002    2.59999990
   16.75111198  121.30899811    2.51999998    2.61999989
   16.75416756  104.84200287    2.51999998    2.59999990
   16.75749969  108.80500031    2.50000000    2.59999990
   16.76083374  121.70899963    2.50000000    2.59999990
   16.76250076  116.98600006    2.50000000    2.61999989
   16.76444435  112.60399628    2.48000002    2.59999990
   16.76777840  101.66799927    2.48000002    2.59999990
   16.77083397  111.48200226    2.44000006    2.59999990
   16.77666664  111.48200226    2.36999989    2.61999989
   16.78083229  109.99700165    2.30999994    2.59999990
   16.78416634  118.16000366    2.26999998    2.61999989
   16.78722191  120.10500336    2.23000002    2.61999989
   16.79055595  117.45099640    2.21000004    2.61999989
   16.79388809  110.36299896    2.19000006    2.64000010
   16.79583359  117.44999695    2.19000006    2.61999989
   16.79749870  112.04199982    2.17000008    2.61999989
   16.80083275  120.62699890    2.17000008    2.61999989
   16.80388832  115.69300079    2.15000010    2.61999989
   16.80722237  118.73300171    2.17000008    2.61999989
   16.81027794  122.97599792    2.15000010    2.61999989
   16.81361008  112.59300232    2.15000010    2.59999990
   16.81972313  112.59300232    2.19000006    2.61999989
   16.82361221  114.27200317    2.21000004    2.61999989
   16.82694626  112.10500336    2.25000000    2.61999989
   16.82916832  112.72200012    2.23000002    2.61999989
   16.83055687  109.95999908    2.25000000    2.61999989
   16.83388901  111.16999817    2.25000000    2.61999989
   16.83694458  116.62699890    2.28999996    2.59999990
   16.84027863  113.78800201    2.28999996    2.59999990
   16.84361267  115.95300293    2.28999996    2.61999989
   16.84666824  113.43299866    2.26999998    2.61999989
   16.85000038  119.19300079    2.26999998    2.61999989
   16.85305595  121.67500305    2.26999998    2.59999990
   16.85639000  113.69400024    2.25000000    2.61999989
   16.86250114  113.69400024    2.23000002    2.61999989
   16.86666679  114.69699860    2.25000000    2.59999990
   16.86972237  117.71700287    2.25000000    2.61999989
   16.87305641  124.44000244    2.25000000    2.59999990
   16.87638855  119.51200104    2.25000000    2.61999989
   16.87944412  121.33200073    2.25000000    2.61999989
   16.88277817  125.66300201    2.25000000    2.59999990
   16.88583374  123.20400238    2.25000000    2.61999989
   16.88916588  119.95200348    2.23000002    2.59999990
   16.89249992  122.31600189    2.25000000    2.59999990
   16.89555550  115.66500092    2.25000000    2.59999990
   16.89749908  118.98300171    2.25000000    2.61999989
   16.89944458  127.47399902    2.25000000    2.61999989
   16.90527725  127.47399902    2.26999998    2.59999990
   16.90944481  116.35399628    2.25000000    2.59999990
   16.91277695  123.66799927    2.26999998    2.61999989
   16.91583252  116.82800293    2.30999994    2.59999990
   16.91916656  114.93399811    2.39000010    2.59999990
   16.92222214  125.42900085    2.42000008    2.59999990
   16.92555428  116.61699677    2.44000006    2.59999990
   16.92888832  108.59400177    2.46000004    2.59999990
   16.93083191  107.43800354    2.48000002    2.59999990
   16.93249893  108.55000305    2.51999998    2.59999990
   16.93555450  108.36100006    2.55999994    2.59999990
   16.93888855  110.04100037    2.59999990    2.59999990
   16.94194412  100.67199707    2.61999989    2.59999990
   16.94805527  100.67199707    2.66000009    2.59999990
   16.95222282  114.28600311    2.67000008    2.57999992
   16.95555687  111.84600067    2.64000010    2.57999992
   16.95861244  102.76999664    2.64000010    2.59999990
   16.96194458  124.09200287    2.64000010    2.59999990
   16.96444511  113.46099854    2.61999989    2.59999990
   16.96555710  121.35600281    2.61999989    2.59999990
   16.96888924  116.26100159    2.57999992    2.59999990
   16.97222328  114.74299622    2.55999994    2.59999990
   16.97527885  117.11799622    2.53999996    2.59999990
   16.97861099  116.43399811    2.53999996    2.59999990
   16.98166656  109.56800079    2.53999996    2.57999992
   16.98500061  121.13700104    2.55999994    2.57999992
   16.99111176  121.13700104    2.53999996    2.57999992
   16.99500084  118.02400208    2.51999998    2.59999990
   16.99777794  123.47100067    2.51999998    2.59999990
   16.99861145  123.43900299    2.50000000    2.59999990
   17.00194359  118.68900299    2.50000000    2.59999990
   17.00527763  113.12400055    2.50000000    2.59999990
   17.00833321  121.02100372    2.50000000    2.59999990
   17.01166725  113.31199646    2.48000002    2.59999990
   17.01472282  125.29299927    2.44000006    2.59999990
   17.01805496  126.53199768    2.39000010    2.59999990
   17.02138901  127.49700165    2.36999989    2.59999990
   17.02444458  117.68299866    2.36999989    2.59999990
   17.02777672  128.83799744    2.34999990    2.59999990
   17.03388786  128.83799744    2.32999992    2.59999990
   17.03805542  119.53500366    2.34999990    2.59999990
   17.04111099  123.80999756    2.32999992    2.59999990
   17.04444313  127.47200012    2.30999994    2.59999990
   17.04749870  125.73899841    2.28999996    2.59999990
   17.05083275  128.18299866    2.28999996    2.59999990
   17.05416679  121.62300110    2.28999996    2.59999990
   17.05722237  136.25500488    2.25000000    2.64000010
   17.06055450  110.37200165    2.23000002    2.59999990
   17.06388855  132.82400513    2.23000002    2.59999990
   17.06472206  125.18800354    2.23000002    2.59999990
   17.06750107  101.46399689    2.23000002    2.61999989
   17.07055664  120.92600250    2.25000000    2.59999990
   17.07666779  120.92600250    2.25000000    2.59999990
   17.08083344  114.80400085    2.25000000    2.59999990
   17.08416748  110.64399719    2.23000002    2.59999990
   17.08722305  110.80500031    2.25000000    2.59999990
   17.09055710  116.58799744    2.28999996    2.59999990
   17.09388924  110.05500031    2.28999996    2.59999990
   17.09694481  115.06199646    2.28999996    2.59999990
   17.09805679  113.08599854    2.30999994    2.59999990
   17.10083389  103.04699707    2.32999992    2.59999990
   17.10388947  104.33000183    2.34999990    2.59999990
   17.10722351  105.68699646    2.39000010    2.59999990
   17.11055565  108.48899841    2.42000008    2.59999990
   17.11361122  111.40100098    2.44000006    2.59999990
   17.11944389  111.40100098    2.42000008    2.59999990
   17.12361145  111.61399841    2.44000006    2.59999990
   17.12694550  113.53700256    2.42000008    2.59999990
   17.13000107  115.39099884    2.42000008    2.59999990
   17.13166618  124.40100098    2.40000010    2.59999990
   17.13361168  126.70300293    2.40000010    2.59999990
   17.13694382  125.86399841    2.40000010    2.61999989
   17.14027786  113.69899750    2.42000008    2.59999990
   17.14333344  112.82499695    2.42000008    2.59999990
   17.14666748  121.38800049    2.44000006    2.59999990
   17.14999962  103.78800201    2.46000004    2.59999990
   17.15305519  111.18900299    2.44000006    2.59999990
   17.15638924  108.40699768    2.40000010    2.57999992
   17.16222191  108.40699768    2.40000010    2.59999990
   17.18083191  110.04100037    2.48000002    2.59999990
   17.18388748  106.87100220    2.48000002    2.57999992
   17.18722153  108.31800079    2.48000002    2.59999990
   17.19055557  114.51899719    2.46000004    2.59999990
   17.19361115  105.34300232    2.40000010    2.61999989
   17.19694328  109.75299835    2.39000010    2.59999990
   17.20000076  107.54599762    2.34999990    2.59999990
   17.20555687  107.54599762    2.39000010    2.61999989
   17.20944595  112.19300079    2.39000010    2.61999989
   17.21277809  117.00599670    2.32999992    2.59999990
   17.21389008  110.18399811    2.32999992    2.59999990
   17.21638870  127.10199738    2.30999994    2.59999990
   17.21972275  114.90899658    2.30999994    2.59999990
   17.22305679  111.32299805    2.26999998    2.59999990
   17.22611237  113.19300079    2.25000000    2.59999990
   17.22944450  113.19999695    2.23000002    2.59999990
   17.23250008  115.63400269    2.21000004    2.59999990
   17.23583412  106.46299744    2.19000006    2.59999990
   17.23916626  107.65000153    2.19000006    2.59999990
   17.24222183  109.51200104    2.19000006    2.61999989
   17.24833298  109.51200104    2.26999998    2.59999990
   17.25250053  102.33300018    2.36999989    2.59999990
   17.25555611  106.60199738    2.36999989    2.57999992
   17.25888824  103.58499908    2.39000010    2.59999990
   17.26222229  112.42500305    2.40000010    2.59999990
   17.26527786  107.69200134    2.44000006    2.59999990
   17.26861000  107.06999969    2.46000004    2.59999990
   17.27166557  109.01300049    2.46000004    2.59999990
   17.27499962  105.27200317    2.48000002    2.59999990
   17.27833366  105.78500366    2.46000004    2.59999990
   17.28055573  101.44100189    2.48000002    2.59999990
   17.28166580  102.07800293    2.48000002    2.59999990
   17.28499985  106.32499695    2.50000000    2.59999990
   17.29111099  106.32499695    2.48000002    2.59999990
   17.29527664  105.22200012    2.42000008    2.59999990
   17.29861069  103.26599884    2.40000010    2.61999989
   17.30166626  105.26599884    2.39000010    2.59999990
   17.30499840  110.65899658    2.34999990    2.59999990
   17.30805397   97.23590088    2.30999994    2.59999990
   17.31138802  116.82099915    2.28999996    2.59999990
   17.31388855  112.08399963    2.28999996    2.59999990
   17.31499863  122.55500031    2.26999998    2.59999990
   17.31833458  107.55000305    2.25000000    2.61999989
   17.32166672  109.48600006    2.28999996    2.59999990
   17.32472229  111.45999908    2.32999992    2.59999990
   17.32805634  125.75700378    2.30999994    2.59999990
   17.33388901  125.75700378    2.30999994    2.59999990
   17.33805656  111.49500275    2.30999994    2.59999990
   17.34138870  120.21900177    2.30999994    2.61999989
   17.34472275  112.95200348    2.34999990    2.59999990
   17.34722328  125.60500336    2.34999990    2.59999990
   17.34805679  138.18099976    2.32999992    2.59999990
   17.35138893  150.24400330    2.30999994    2.59999990
   17.35472298  153.24800110    2.28999996    2.59999990
   17.35777855  220.91600037    2.30999994    2.59999990
   17.36111069  177.49000549    2.28999996    2.59999990
   17.36444473  198.12800598    2.26999998    2.59999990
   17.36750031  188.18699646    2.25000000    2.59999990
   17.37083435  163.07499695    2.21000004    2.59999990
   17.37694550  163.07499695    2.17000008    2.61999989
   17.38083267  149.50500488    2.15000010    2.59999990
   17.38416672  169.65199280    2.13000011    2.59999990
   17.38750076  155.80099487    2.13000011    2.61999989
   17.39055634  163.02699280    2.11999989    2.59999990
   17.39388847  161.66299438    2.09999990    2.59999990
   17.39722252  138.49299622    2.09999990    2.61999989
   17.40027809  151.81300354    2.09999990    2.61999989
   17.40361023  142.44299316    2.11999989    2.59999990
   17.40666580  155.06900024    2.11999989    2.61999989
   17.40999985  148.44999695    2.17000008    2.59999990
   17.41333389  151.06100464    2.23000002    2.59999990
   17.41388893  134.99099731    2.23000002    2.59999990
   17.41972160  134.99099731    4.90999985    2.69000006
   17.42388916  126.71399689    0.64999998    0.50000000
   17.42694473  121.76699829    0.51999998    0.38000000
   17.43027687  132.46099854    0.36000001    0.15000001
   17.43361092  139.43200684    0.30000001    0.05000000
   17.43666649  140.88000488    0.30000001    0.05000000
   17.43999863  129.38000488    0.30000001    0.05000000
   17.44333267  139.30400085    0.30000001    0.05000000
   17.44638824  125.94899750    0.30000001    0.05000000
   17.44722176  124.66200256    0.30000001    0.05000000
   17.45000076  125.73699951    0.30000001    0.05000000
   17.45333481  119.85700226    0.30000001    0.05000000
   17.45666695  138.81300354    0.30000001    0.05000000
   17.46250153  138.81300354    0.30000001    0.05000000
   17.46666718  125.69000244    0.30000001    0.05000000
   17.47000122  110.42400360    0.30000001    0.05000000
   17.47305679  123.35299683    0.30000001    0.05000000
   17.47638893  120.06999969    0.30000001    0.05000000
   17.47944450  125.23899841    0.30000001    0.05000000
   17.48055649  115.56400299    0.30000001    0.05000000
   17.48333359  113.19000244    0.30000001    0.05000000
   17.48666763  126.99400330    0.30000001    0.05000000
   17.48972321  112.58499908    0.30000001    0.05000000
   17.49305534  124.01999664    0.30000001    0.05000000
   17.49611092  108.06900024    0.30000001    0.05000000
   17.49944496  110.71600342    0.30000001    0.05000000
   17.50527763  110.71600342    0.30000001    0.05000000
   17.50944519  110.48799896    0.30000001    0.05000000
   17.51277733  114.15299988    0.30000001    0.05000000
   17.51388931  124.13400269    0.30000001    0.05000000
   17.51611137  124.19400024    0.30000001    0.05000000
   17.51944351  116.55400085    0.30000001    0.05000000
   17.52277756  119.01499939    0.30000001    0.05000000
   17.52583313  108.47000122    0.30000001    0.05000000
   17.52916718  122.03199768    0.30000001    0.05000000
   17.53249931  107.38999939    0.30000001    0.05000000
   17.53555489  105.85299683    0.30000001    0.05000000
   17.53888893  103.85299683    0.30000001    0.05000000
   17.54194450  110.59600067    0.30000001    0.05000000
   17.54833221  110.59600067    0.30000001    0.05000000
   17.55249977  105.11499786    0.30000001    0.05000000
   17.55555534  106.90299988    0.30000001    0.05000000
   17.55888748  111.98500061    0.30000001    0.05000000
   17.56194305  110.14499664    0.30000001    0.05000000
   17.56527710  107.61699677    0.30000001    0.05000000
   17.56861115  103.68699646    0.30000001    0.05000000
   17.57166672  103.69799805    0.30000001    0.05000000
   17.57500076  109.63500214    0.30000001    0.05000000
   17.57833481  103.37899780    0.30000001    0.05000000
   17.58055687   94.15380096    0.30000001    0.05000000
   17.58166695  113.34300232    0.30000001    0.05000000
   17.58500099  107.18000031    0.30000001    0.05000000
   17.59111214  107.18000031    0.30000001    0.05000000
   17.59527779  106.78700256    0.30000001    0.05000000
   17.59833336  109.46099854    0.30000001    0.05000000
   17.60166740  113.53700256    0.30000001    0.05000000
   17.60499954  107.93499756    0.30000001    0.05000000
   17.60805511  120.34799957    0.30000001    0.05000000
   17.61138916  116.65699768    0.30000001    0.05000000
   17.61388969  102.85900116    0.30000001    0.05000000
   17.61472321  106.60700226    0.30000001    0.05000000
   17.61805534  110.10299683    0.30000001    0.05000000
   17.62138939  109.19100189    0.30000001    0.05000000
   17.62444496  106.57299805    0.30000001    0.05000000
   17.62777710  111.00299835    0.30000001    0.05000000
   17.63388824  111.00299835    0.30000001    0.05000000
   17.63805580  107.57099915    0.30000001    0.05000000
   17.64138794  113.65699768    0.30000001    0.05000000
   17.64444351  107.07499695    0.30000001    0.05000000
   17.64722252  104.12500000    0.30000001    0.05000000
   17.64805603   98.16549683    0.30000001    0.05000000
   17.65138817  110.05400085    0.30000001    0.05000000
   17.65472221  105.56800079    0.30000001    0.05000000
   17.65777779  118.79299927    0.30000001    0.05000000
   17.66110992  100.95099640    0.30000001    0.05000000
   17.66444397  103.87300110    0.30000001    0.05000000
   17.66749954  109.36599731    0.30000001    0.05000000
   17.67083359  106.73699951    0.30000001    0.05000000
   17.67666626  106.73699951    0.30000001    0.05000000
   17.68083191  112.62599945    0.30000001    0.05000000
   17.68416595  118.33899689    0.30000001    0.05000000
   17.68750000  120.73799896    0.30000001    0.05000000
   17.69055557  110.83599854    0.30000001    0.05000000
   17.69388771  104.14600372    0.30000001    0.05000000
   17.69722176  125.15200043    0.30000001    0.05000000
   17.70027924  131.60499573    0.30000001    0.05000000
   17.70361137  140.21200562    0.30000001    0.05000000
   17.70666695  134.96499634    0.30000001    0.05000000
   17.71000099   98.38999939    0.30000001    0.05000000
   17.71333504  122.57800293    0.30000001    0.05000000
   17.71389008  124.95999908    0.30000001    0.05000000
   17.71972275  124.95999908    0.30000001    0.05000000
   17.72361183  110.88200378    0.30000001    0.05000000
   17.72694588  128.98800659    0.30000001    0.05000000
   17.73027802  122.53500366    0.30000001    0.05000000
   17.73333359  122.76699829    0.30000001    0.05000000
   17.73666763  110.12699890    0.30000001    0.05000000
   17.73999977  124.46700287    0.30000001    0.05000000
   17.74305534  118.24500275    0.30000001    0.05000000
   17.74638939  123.19100189    0.30000001    0.05000000
   17.74722290  110.98999786    0.30000001    0.05000000
   17.75000000  111.74500275    0.30000001    0.05000000
   17.75305557  127.31199646    0.30000001    0.05000000
   17.75638962  129.13299561    0.30000001    0.05000000
   17.76250076  129.13299561    0.30000001    0.05000000
   17.76666641  120.66600037    0.30000001    0.05000000
   17.76972198  115.27300262    0.30000001    0.05000000
   17.77305603  122.62699890    0.30000001    0.05000000
   17.77638817  104.82700348    0.30000001    0.05000000
   17.77944374  112.71900177    0.30000001    0.05000000
   17.78055573  122.58799744    0.30000001    0.05000000
   17.78333282  132.15299988    0.30000001    0.05000000
   17.78638840  123.29399872    0.30000001    0.05000000
   17.78972244  117.99700165    0.30000001    0.05000000
   17.79277802  121.30599976    0.30000001    0.05000000
   17.79611015  115.08100128    0.30000001    0.05000000
   17.79944420  126.31199646    0.30000001    0.05000000
   17.80527687  126.31199646    0.30000001    0.05000000
   17.80944443  104.69599915    0.30000001    0.05000000
   17.81277657  122.19599915    0.30000001    0.05000000
   17.81388855   99.36820221    0.30000001    0.05000000
   17.81638718  127.60700226    0.30000001    0.05000000
   17.81944466  120.28299713    0.30000001    0.05000000
   17.82277870  127.22899628    0.30000001    0.05000000
   17.82583427  109.53700256    0.30000001    0.05000000
   17.82916832  137.73399353    0.30000001    0.05000000
   17.83250046  108.14199829    0.30000001    0.05000000
   17.83555603  130.55999756    0.30000001    0.05000000
   17.83889008  122.22599792    0.30000001    0.05000000
   17.84222221  128.19500732    0.30000001    0.05000000
   17.84805679  128.19500732    0.30000001    0.05000000
   17.85222244  121.10199738    0.30000001    0.05000000
   17.85555649  119.85299683    0.30000001    0.05000000
   17.85861206  122.77600098    0.30000001    0.05000000
   17.86194420   99.75669861    0.30000001    0.05000000
   17.86527824  114.53900146    0.30000001    0.05000000
   17.86833382  143.60099792    0.30000001    0.05000000
   17.87166595  115.16200256    0.30000001    0.05000000
   17.87500000  132.62100220    0.30000001    0.05000000
   17.87805557  113.85099792    0.30000001    0.05000000
   17.88055611  111.14900208    0.30000001    0.05000000
   17.88194466  118.34600067    0.30000001    0.05000000
   17.88500023  124.68800354    0.30000001    0.05000000
   17.89111137  124.68800354    0.30000001    0.05000000
   17.89500046  114.01999664    0.30000001    0.05000000
   17.89833260  117.08100128    0.30000001    0.05000000
   17.90166664  128.59300232    0.30000001    0.05000000
   17.90472221  134.33799744    0.30000001    0.05000000
   17.90805435  132.04299927    0.30000001    0.05000000
   17.91138840  140.70500183    0.30000001    0.05000000
   17.91388893  140.22999573    0.30000001    0.05000000
   17.91499901  120.01300049    0.30000001    0.05000000
   17.91805458  126.24700165    0.30000001    0.05000000
   17.92138863  123.46700287    0.30000001    0.05000000
   17.92444420  129.92399597    0.30000001    0.05000000
   17.92777634  121.23000336    0.30000001    0.05000000
   17.93388748  121.23000336    0.30000001    0.05000000
   17.93805504  120.27999878    0.30000001    0.05000000
   17.94111061  131.00799561    0.30000001    0.05000000
   17.94444275  136.50000000    0.30000001    0.05000000
   17.94722176  125.80599976    0.30000001    0.05000000
   17.94805527  122.54299927    0.30000001    0.05000000
   17.95111275  132.95199585    0.30000001    0.05000000
   17.95444489  129.44099426    0.30000001    0.05000000
   17.95750046  130.22200012    0.30000001    0.05000000
   17.96083450  121.35600281    0.30000001    0.05000000
   17.96416664  122.37999725    0.30000001    0.05000000
   17.96722221  116.51499939    0.30000001    0.05000000
   17.97055626  123.97200012    0.30000001    0.05000000
   17.97666740  123.97200012    0.30000001    0.05000000
   17.98083305  120.21299744    0.30000001    0.05000000
   17.98416710  141.53700256    0.30000001    0.05000000
   17.98722267  119.17700195    0.30000001    0.05000000
   17.99055672  118.24900055    0.30000001    0.05000000
   17.99361229  111.16400146    0.30000001    0.05000000
   17.99694443  113.69699860    0.30000001    0.05000000
   18.00027847  123.88500214    0.30000001    0.05000000
   18.00333405  121.71399689    0.30000001    0.05000000
   18.00666618  122.19300079    0.30000001    0.05000000
   18.01000023  118.26200104    0.30000001    0.05000000
   18.01305580  115.40299988    0.30000001    0.05000000
   18.01388931  124.22100067    0.30000001    0.05000000
   18.01944351  124.22100067    0.30000001    0.05000000
   18.02361107  127.66300201    0.30000001    0.05000000
   18.02694511  103.04199982    0.30000001    0.05000000
   18.03000069  112.63400269    0.30000001    0.05000000
   18.03333282  121.25399780    0.30000001    0.05000000
   18.03666687  118.26799774    0.30000001    0.05000000
   18.03999901  121.73100281    0.30000001    0.05000000
   18.04305458  116.96700287    0.30000001    0.05000000
   18.04638863  104.13200378    0.30000001    0.05000000
   18.04722214  124.58799744    0.30000001    0.05000000
   18.04999924  110.06500244    0.30000001    0.05000000
   18.05305481  127.99700165    0.30000001    0.05000000
   18.05638885  107.94899750    0.30000001    0.05000000
   18.06250000  107.94899750    0.30000001    0.05000000
   18.06638718  117.85700226    0.30000001    0.05000000
   18.06972313  120.37100220    0.30000001    0.05000000
   18.07305717  111.07599640    0.30000001    0.05000000
   18.07611275  116.67700195    0.30000001    0.05000000
   18.07944489  118.05000305    0.30000001    0.05000000
   18.08055687  116.41500092    0.30000001    0.05000000
   18.08305550  117.04399872    0.30000001    0.05000000
   18.08611107  108.29100037    0.30000001    0.05000000
   18.08944511  103.10700226    0.30000001    0.05000000
   18.09277916   99.08350372    0.30000001    0.05000000
   18.09583473  117.99299622    0.30000001    0.05000000
   18.09916687  103.46199799    0.30000001    0.05000000
   18.10527802  103.46199799    0.30000001    0.05000000
   18.10944557   99.01679993    0.30000001    0.05000000
   18.11250114  112.24500275    0.30000001    0.05000000
   18.11388969  117.08699799    0.30000001    0.05000000
   18.11638832  109.70200348    0.30000001    0.05000000
   18.11944389  113.36000061    0.30000001    0.05000000
   18.12277794  111.68399811    0.30000001    0.05000000
   18.12611198  122.28099823    0.30000001    0.05000000
   18.12916756  118.67800140    0.30000001    0.05000000
   18.13249969  130.57299805    0.30000001    0.05000000
   18.13555527  125.71399689    0.30000001    0.05000000
   18.13888931  117.29299927    0.30000001    0.05000000
   18.14222145  121.66400146    0.30000001    0.05000000
   18.14805603  121.66400146    0.30000001    0.05000000
   18.15222168  141.76699829    0.30000001    0.05000000
   18.15555573  124.13700104    0.30000001    0.05000000
   18.15861130  143.64399719    0.30000001    0.05000000
   18.16194344  135.68699646    0.30000001    0.05000000
   18.16499901  133.81500244    0.30000001    0.05000000
   18.16833305  128.21800232    0.30000001    0.05000000
   18.17166519  127.47100067    0.30000001    0.05000000
   18.17472076  144.19700623    0.30000001    0.05000000
   18.17805481  153.30000305    0.30000001    0.05000000
   18.18055534  118.32399750    0.30000001    0.05000000
   18.20111275  118.32399750    0.30000001    0.05000000
   18.20527840  131.37399292    0.30000001    0.05000000
   18.20861244  131.46600342    0.30000001    0.05000000
   18.21166801  119.90399933    0.30000001    0.05000000
   18.21389008  125.25800323    0.30000001    0.05000000
   18.21555710  117.60600281    0.30000001    0.05000000
   18.21888924  122.92299652    0.30000001    0.05000000
   18.22194481  103.07499695    0.30000001    0.05000000
   18.22527885  113.92500305    0.30000001    0.05000000
   18.22833443  107.46600342    0.30000001    0.05000000
   18.23166656  102.62500000    0.30000001    0.05000000
   18.23500061  119.79199982    0.30000001    0.05000000
   18.23805618  110.67500305    0.30000001    0.05000000
   18.24388885  110.67500305    0.30000001    0.05000000
   18.24805641  122.88800049    0.30000001    0.05000000
   18.25138855  124.36799622    0.30000001    0.05000000
   18.25444412  112.93099976    0.30000001    0.05000000
   18.25777817  109.62400055    0.30000001    0.05000000
   18.26111031  112.69799805    0.30000001    0.05000000
   18.26416588  124.91500092    0.30000001    0.05000000
   18.26749992  124.58300018    0.30000001    0.05000000
   18.27083397  102.13200378    0.30000001    0.05000000
   18.27388954  117.38700104    0.30000001    0.05000000
   18.27722168  108.46199799    0.30000001    0.05000000
   18.28027725  106.73200226    0.30000001    0.05000000
   18.28083229  123.90200043    0.30000001    0.05000000
   18.28666687  123.90200043    0.30000001    0.05000000
   18.29083252  103.21700287    0.30000001    0.05000000
   18.29416656  105.47699738    0.30000001    0.05000000
   18.29749870  124.51499939    0.30000001    0.05000000
   18.30055428  111.77300262    0.30000001    0.05000000
   18.30388832  108.48400116    0.30000001    0.05000000
   18.30722237  118.52400208    0.30000001    0.05000000
   18.31027794  105.82700348    0.30000001    0.05000000
   18.31361008  113.90599823    0.30000001    0.05000000
   18.31416512  102.40899658    0.30000001    0.05000000
   18.31722260  101.17299652    0.30000001    0.05000000
