    HOUR (UT)   FLARE FACTOR    SKY TESTER    SUN TESTER
   12.31666660   -1.00000000   -1.00000000   -1.00000000
   12.35305595  224.30299377    1.51999998    1.98000002
   12.35638905  152.22799683    1.50000000    1.98000002
   12.35944462  146.06100464    1.51999998    1.98000002
   12.36277771  149.43499756    1.50000000    1.96000004
   12.36583328  139.83399963    1.50000000    1.98000002
   12.36916637  130.51100159    1.50000000    1.98000002
   12.37333393  130.51100159    1.50000000    1.98000002
   12.37750053  140.21899414    1.48000002    1.98000002
   12.38083363  147.82299805    1.48000002    1.98000002
   12.38388920  157.27099609    1.48000002    2.00000000
   12.38638878  150.13200378    1.48000002    1.98000002
   12.38749981  154.73399353    1.48000002    2.00000000
   12.39083290  164.19200134    1.48000002    2.00000000
   12.39416695  148.95899963    1.48000002    2.00000000
   12.39722252  167.45700073    1.46000004    2.00000000
   12.40055561  155.66700745    1.46000004    2.00000000
   12.40388870  153.37199402    1.46000004    2.00000000
   12.40694427  157.69999695    1.46000004    2.00000000
   12.41027737  179.94500732    1.44000006    2.01999998
   12.41611099  179.94500732    1.44000006    2.00000000
   12.42027855  152.78799438    1.39999998    2.01999998
   12.42361164  164.73800659    1.38000000    2.03999996
   12.42666721  145.15199280    1.36000001    2.03999996
   12.43000031  160.40699768    1.36000001    2.03999996
   12.43333340  156.21800232    1.34000003    2.03999996
   12.43638897  158.44599915    1.34000003    2.03999996
   12.43972206  178.42599487    1.34000003    2.03999996
   12.44305515  152.39199829    1.34000003    2.03999996
   12.44611073  153.60499573    1.34000003    2.05999994
   12.44944477  139.93299866    1.36000001    2.05999994
   12.45249939  157.53300476    1.34000003    2.03999996
   12.45305538  160.31799316    1.34000003    2.03999996
   12.45888901  160.31799316    1.36000001    2.05999994
   12.46305561  148.34300232    1.36000001    2.05999994
   12.46638870  174.28500366    1.36000001    2.05999994
   12.46972179  178.94200134    1.36000001    2.05999994
   12.47277737  173.36900330    1.38000000    2.07999992
   12.47611046  135.47999573    1.38000000    2.07999992
   12.47916603  163.85099792    1.36000001    2.07999992
   12.48249912  160.02099609    1.36000001    2.07999992
   12.48583317  143.46499634    1.36000001    2.07999992
   12.48638916  137.41700745    1.36000001    2.07999992
   12.48944473  157.06500244    1.36000001    2.07999992
   12.49277782  149.63200378    1.36000001    2.09999990
   12.49583340  150.09500122    1.36000001    2.09999990
   12.50194454  150.09500122    1.36000001    2.07999992
   12.50611115  150.67900085    1.36000001    2.07999992
   12.50916672  156.21699524    1.36000001    2.09999990
   12.51249981  151.94099426    1.36000001    2.09999990
   12.51583290  149.10499573    1.36000001    2.09999990
   12.51916599  154.39900208    1.38000000    2.09999990
   12.51972198  150.83799744    1.38000000    2.09999990
   12.52277756  145.78599548    1.38000000    2.09999990
   12.52611065  144.24499512    1.38000000    2.09999990
   12.52916622  156.76800537    1.38000000    2.09999990
   12.53249931  171.24499512    1.39999998    2.11999989
   12.53583336  156.60800171    1.41999996    2.11999989
   12.53888893  147.75900269    1.39999998    2.11999989
   12.54472256  147.75900269    1.39999998    2.11999989
   12.54888916  145.64399719    1.38000000    2.11999989
   12.55194473  145.08599854    1.38000000    2.11999989
   12.55305576  138.71299744    1.38000000    2.13000011
   12.55555534  151.25999451    1.38000000    2.13000011
   12.55888939  142.56900024    1.38000000    2.13000011
   12.56194496  153.11900330    1.36000001    2.13000011
   12.56527805  139.31399536    1.36000001    2.13000011
   12.56861115  138.53300476    1.36000001    2.13000011
   12.57166672  144.37100220    1.34000003    2.13000011
   12.57499981  143.59399414    1.34000003    2.13000011
   12.57805538  149.38800049    1.33000004    2.13000011
   12.58138847  134.89900208    1.33000004    2.13000011
   12.58749962  134.89900208    1.26999998    2.15000010
   12.59166622  145.33900452    1.23000002    2.15000010
   12.59499931  137.51300049    1.21000004    2.15000010
   12.59805489  128.77000427    1.21000004    2.15000010
   12.60138893  125.81199646    1.21000004    2.17000008
   12.60472298  128.54499817    1.21000004    2.15000010
   12.60805607  133.15699768    1.21000004    2.15000010
   12.61111164  131.55200195    1.19000006    2.15000010
   12.61444473  143.75599670    1.19000006    2.17000008
   12.61750031  153.02299500    1.21000004    2.17000008
   12.61972237  150.18699646    1.21000004    2.17000008
   12.62111092  151.50500488    1.21000004    2.17000008
   12.62444496  164.98399353    1.21000004    2.17000008
   12.63027763  164.98399353    1.23000002    2.17000008
   12.63444424  151.45599365    1.25000000    2.17000008
   12.63777733  150.77900696    1.25000000    2.17000008
   12.64111137  149.33099365    1.26999998    2.19000006
   12.64416695  156.76499939    1.26999998    2.17000008
   12.64750004  146.44400024    1.26999998    2.17000008
   12.65083313  153.44999695    1.26999998    2.19000006
   12.65305519  152.56900024    1.26999998    2.17000008
   12.65444374  153.57400513    1.25000000    2.19000006
   12.65805531  152.94000244    1.25000000    2.19000006
   12.66111088  135.11500549    1.25000000    2.19000006
   12.66444397  132.30200195    1.23000002    2.19000006
   12.66777802  134.33000183    1.23000002    2.19000006
   12.67333412  134.33000183    1.23000002    2.19000006
   12.67750072  139.67399597    1.21000004    2.21000004
   12.68055630  130.27499390    1.21000004    2.21000004
   12.68388939  138.61900330    1.21000004    2.21000004
   12.68638897  136.27200317    1.16999996    2.19000006
   12.68750000  151.85600281    1.16999996    2.21000004
   12.69083309  134.85899353    1.14999998    2.21000004
   12.69388866  132.88000488    1.14999998    2.21000004
   12.69722271  134.87500000    1.14999998    2.21000004
   12.70055580  148.13299561    1.14999998    2.21000004
   12.70361137  133.52400208    1.14999998    2.21000004
   12.70694447  136.87699890    1.14999998    2.21000004
   12.71000004  155.77699280    1.14999998    2.21000004
   12.71611118  155.77699280    1.14999998    2.23000002
   12.72027779  141.56799316    1.11000001    2.23000002
   12.72333336  141.26899719    1.11000001    2.23000002
   12.72666645  136.56199646    1.07000005    2.23000002
   12.72999954  137.82099915    1.05999994    2.23000002
   12.73305511  156.63900757    1.05999994    2.23000002
   12.73638916  148.91900635    1.03999996    2.23000002
   12.73972225  137.27799988    1.03999996    2.23000002
   12.74277782  150.25100708    1.03999996    2.23000002
   12.74611092  145.11000061    1.03999996    2.23000002
   12.74916649  159.33399963    0.95999998    2.25000000
   12.75249958  141.21400452    0.92000002    2.25000000
   12.75305557  131.26499939    0.92000002    2.25000000
   12.75888920  131.26499939    0.92000002    2.25000000
   12.76305580  147.46200562    0.89999998    2.25000000
   12.76638889  158.74299622    0.92000002    2.25000000
   12.76944447  151.41600037    0.89999998    2.25000000
   12.77277756  152.36500549    0.92000002    2.26999998
   12.77611065  150.56399536    0.92000002    2.25000000
   12.77916622  153.47700500    0.92000002    2.26999998
   12.78249931  155.58099365    0.94000000    2.25000000
   12.78583336  154.12300110    0.95999998    2.26999998
   12.78638935  151.76699829    0.94000000    2.26999998
   12.78916740  151.45899963    0.94000000    2.26999998
   12.79250050  145.23800659    0.94000000    2.26999998
   12.79555607  141.99499512    0.94000000    2.26999998
   12.80166721  141.99499512    0.94000000    2.26999998
   12.80583382  149.26499939    0.95999998    2.28999996
   12.80916691  133.96800232    0.95999998    2.28999996
   12.81250000  122.31900024    0.98000002    2.26999998
   12.81555557  126.45099640    0.98000002    2.26999998
   12.81888866  132.78199768    0.98000002    2.26999998
   12.81972218  140.75300598    1.00000000    2.26999998
   12.82250023  126.07499695    1.00000000    2.26999998
   12.82583332  142.78100586    0.98000002    2.26999998
   12.82888889  139.63099670    0.95999998    2.28999996
   12.83222198  140.54100037    0.95999998    2.28999996
   12.83555508  137.69500732    0.94000000    2.28999996
   12.83861065  142.76499939    0.94000000    2.28999996
   12.84472179  142.76499939    0.95999998    2.28999996
   12.84888840  145.37399292    0.92000002    2.28999996
   12.85194492  143.48300171    0.92000002    2.28999996
   12.85333347  136.17300415    0.92000002    2.28999996
   12.85555553  134.24400330    0.89999998    2.28999996
   12.85888958  135.78500366    0.89999998    2.28999996
   12.86194515  150.40100098    0.89999998    2.30999994
   12.86527824  144.47200012    0.89999998    2.30999994
   12.86861134  165.77699280    0.89999998    2.30999994
   12.87166691  147.95399475    0.88000000    2.30999994
   12.87500000  149.84399414    0.88000000    2.30999994
   12.87833309  152.37800598    0.88000000    2.30999994
   12.88138866  143.53999329    0.88000000    2.30999994
   12.88749981  143.53999329    0.89999998    2.30999994
   12.89166641  140.41099548    0.92000002    2.30999994
   12.89472198  134.87800598    0.92000002    2.30999994
   12.89805508  142.00700378    0.92000002    2.30999994
   12.90138817  132.07200623    0.92000002    2.30999994
   12.90444374  150.56799316    0.92000002    2.30999994
   12.90777779  142.03999329    0.94000000    2.30999994
   12.91111088  133.25799561    0.94000000    2.30999994
   12.91416645  131.75500488    0.95999998    2.32999992
   12.91750050  126.82700348    0.95999998    2.32999992
   12.92000008  145.14399719    0.95999998    2.32999992
   12.92111111  132.71200562    0.98000002    2.30999994
   12.92444515  136.59800720    0.98000002    2.30999994
   12.93027782  136.59800720    1.00000000    2.32999992
   12.93444443  147.95599365    1.01999998    2.32999992
   12.93777752  128.48399353    1.01999998    2.32999992
   12.94083309  131.44400024    1.01999998    2.32999992
   12.94416714  149.01899719    1.01999998    2.32999992
   12.94750023  135.18499756    1.01999998    2.32999992
   12.95055580  128.97000122    0.98000002    2.32999992
   12.95333290  134.38299561    0.98000002    2.34999990
   12.95416641  137.17500305    0.98000002    2.34999990
   12.95749950  135.91099548    0.95999998    2.34999990
   12.96055508  136.04200745    0.94000000    2.34999990
   12.96388912  135.32499695    0.94000000    2.34999990
   12.96722221  132.41900635    0.92000002    2.34999990
   12.97305489  132.41900635    0.89999998    2.34999990
   12.97722149  140.53799438    0.89999998    2.34999990
   12.98055553  138.91600037    0.89999998    2.34999990
   12.98388958  142.91999817    0.89999998    2.36999989
   12.98666668  142.46800232    0.89999998    2.34999990
   12.98722267  135.95399475    0.92000002    2.34999990
   12.99055576  130.29600525    0.92000002    2.34999990
   12.99361134  131.69599915    0.92000002    2.36999989
   12.99694443  140.25900269    0.92000002    2.36999989
   13.00027752  143.79299927    0.92000002    2.34999990
   13.00361156  137.26400757    0.92000002    2.34999990
   13.00666714  159.57299805    0.92000002    2.36999989
   13.01000023  136.97500610    0.92000002    2.34999990
   13.01611137  136.97500610    0.89999998    2.36999989
   13.02027798  148.07600403    0.92000002    2.34999990
   13.02333355  134.05900574    0.89999998    2.36999989
   13.02666664  131.30599976    0.92000002    2.36999989
   13.02972221  138.67399597    0.92000002    2.36999989
   13.03305531  144.82099915    0.92000002    2.36999989
   13.03638935  142.86999512    0.89999998    2.36999989
   13.03944492  132.60899353    0.88000000    2.36999989
   13.04277802  132.05299377    0.86000001    2.39000010
   13.04611111  146.60099792    0.86000001    2.39000010
   13.04916668  138.11999512    0.83999997    2.36999989
   13.05249977  141.22799683    0.83999997    2.39000010
   13.05333328  142.87899780    0.81999999    2.39000010
   13.05888939  142.87899780    0.81999999    2.36999989
   13.06305599  150.19700623    0.81999999    2.39000010
   13.06611156  148.85800171    0.81999999    2.39000010
   13.06944466  143.32400513    0.81999999    2.39000010
   13.07277775  144.32299805    0.81999999    2.39000010
   13.07583332  135.75900269    0.83999997    2.39000010
   13.07916641  135.05700684    0.81999999    2.39000010
   13.08222198  141.81100464    0.80000001    2.39000010
   13.08555508  137.50999451    0.79000002    2.39000010
   13.08666611  144.65400696    0.79000002    2.39000010
   13.08916664  142.38200378    0.79000002    2.39000010
   13.09249973  144.85899353    0.79000002    2.39000010
   13.09555531  143.25599670    0.79000002    2.39000010
   13.10166740  143.25599670    0.76999998    2.39000010
   13.10583401  134.96099854    0.76999998    2.39000010
   13.10916710  131.93099976    0.75000000    2.40000010
   13.11222267  128.72599792    0.75000000    2.40000010
   13.11555576  124.75599670    0.73000002    2.39000010
   13.11888885  131.92500305    0.73000002    2.40000010
   13.11999989  124.55899811    0.73000002    2.40000010
   13.12222195  132.06399536    0.70999998    2.39000010
   13.12555599  137.19999695    0.70999998    2.39000010
   13.12861156  137.07000732    0.69000000    2.40000010
   13.13194466  132.05900574    0.69000000    2.40000010
   13.13527775  133.15699768    0.67000002    2.40000010
   13.13833332  135.87800598    0.67000002    2.40000010
   13.14444447  135.87800598    0.67000002    2.40000010
   13.14861107  140.68699646    0.67000002    2.40000010
   13.15194416  136.36300659    0.67000002    2.40000010
   13.15333271  132.62600708    0.67000002    2.40000010
   13.15555477  145.91999817    0.67000002    2.40000010
   13.15888882  133.91700745    0.67000002    2.40000010
   13.16194439  141.46800232    0.67000002    2.42000008
   13.16527748  129.07200623    0.67000002    2.40000010
   13.16861153  129.99099731    0.64999998    2.42000008
   13.17166710  144.42599487    0.67000002    2.42000008
   13.17500019  140.75399780    0.64999998    2.42000008
   13.17833328  139.45599365    0.64999998    2.42000008
   13.18138885  145.07099915    0.64999998    2.42000008
   13.18750000  145.07099915    0.64999998    2.42000008
   13.19138908  142.97799683    0.64999998    2.44000006
   13.19472218  137.42999268    0.64999998    2.42000008
   13.19805527  140.48699951    0.64999998    2.42000008
   13.20111084  139.72399902    0.64999998    2.42000008
   13.20444393  142.87300110    0.64999998    2.42000008
   13.20777798  134.92799377    0.64999998    2.42000008
   13.21083355  145.23699951    0.63000000    2.42000008
   13.21416664  146.84599304    0.64999998    2.42000008
   13.21722221  144.04800415    0.64999998    2.42000008
   13.21999931  147.56199646    0.64999998    2.42000008
   13.22083282  136.86199951    0.67000002    2.44000006
   13.22416592  135.63699341    0.64999998    2.44000006
   13.23027706  135.63699341    0.64999998    2.42000008
   13.23444462  134.31799316    0.67000002    2.44000006
   13.23750019  138.91999817    0.64999998    2.44000006
   13.24083328  150.79200745    0.64999998    2.44000006
   13.24416733  141.72799683    0.64999998    2.44000006
   13.24722290  152.31399536    0.64999998    2.44000006
   13.25055599  149.21299744    0.67000002    2.44000006
   13.25333309  147.31300354    0.67000002    2.46000004
   13.25416660  147.34199524    0.64999998    2.44000006
   13.25749969  135.18699646    0.64999998    2.44000006
   13.26083374  141.65699768    0.64999998    2.46000004
   13.26388931  143.72999573    0.64999998    2.46000004
   13.26722240  129.38099670    0.67000002    2.46000004
   13.27305508  129.38099670    0.64999998    2.46000004
   13.27722168  136.14999390    0.64999998    2.46000004
   13.28055573  136.78900146    0.64999998    2.46000004
   13.28361130  132.45500183    0.64999998    2.46000004
   13.28666687  132.47500610    0.63000000    2.44000006
   13.28722286  135.70599365    0.63000000    2.44000006
   13.29055595  128.98199463    0.63000000    2.46000004
   13.29388905  145.41499329    0.61000001    2.44000006
   13.29694462  143.75100708    0.61000001    2.46000004
   13.30027771  128.92199707    0.61000001    2.46000004
   13.30361176  139.06700134    0.61000001    2.46000004
   13.30666733  143.08099365    0.61000001    2.46000004
   13.31000042  141.76899719    0.58999997    2.46000004
   13.31583309  141.76899719    0.56999999    2.46000004
   13.31999969  133.90100098    0.56999999    2.46000004
   13.32333374  139.75999451    0.58999997    2.46000004
   13.32638836  143.94500732    0.58999997    2.46000004
   13.32972240  149.08900452    0.61000001    2.46000004
   13.33305550  141.85699463    0.61000001    2.46000004
   13.33611107  145.37500000    0.61000001    2.46000004
   13.33944416  149.56300354    0.61000001    2.48000002
   13.34249973  146.49499512    0.63000000    2.48000002
   13.34583282  150.44799805    0.63000000    2.46000004
   13.34916592  134.15499878    0.63000000    2.46000004
   13.35222244  137.64900208    0.64999998    2.46000004
   13.35333347  142.91299438    0.64999998    2.46000004
   13.37388897  142.91299438    0.63000000    2.48000002
   13.37805557  140.04100037    0.63000000    2.46000004
   13.38138866  139.49899292    0.63000000    2.46000004
   13.38444424  137.80400085    0.63000000    2.48000002
   13.38666630  138.02600098    0.61000001    2.48000002
   13.38833332  142.82899475    0.61000001    2.48000002
   13.39138889  149.63600159    0.61000001    2.48000002
   13.39472198  136.81300354    0.58999997    2.48000002
   13.39777756  137.79899597    0.58999997    2.48000002
   13.40111065  144.22399902    0.58999997    2.48000002
   13.40444374  127.73699951    0.56999999    2.48000002
   13.40749931  130.38900757    0.56999999    2.48000002
   13.41083336  140.01199341    0.56999999    2.48000002
   13.41666698  140.01199341    0.55000001    2.50000000
   13.42083359  138.00300598    0.55000001    2.48000002
   13.42416668  141.17999268    0.55000001    2.48000002
   13.42722225  147.99400330    0.55000001    2.50000000
   13.43055630  149.36099243    0.55000001    2.48000002
   13.43361092  145.25500488    0.55000001    2.48000002
   13.43694496  144.70199585    0.55000001    2.50000000
   13.44027805  151.30099487    0.55000001    2.50000000
   13.44333363  141.04400635    0.55000001    2.50000000
   13.44666672  153.46200562    0.52999997    2.50000000
   13.44972229  149.13800049    0.55000001    2.50000000
   13.45305538  148.14399719    0.55000001    2.50000000
   13.45361137  148.47999573    0.55000001    2.50000000
   13.45944405  148.47999573    0.52999997    2.50000000
   13.46361065  146.55999756    0.55000001    2.50000000
   13.46694374  138.89399719    0.55000001    2.50000000
   13.46999931  146.94200134    0.55000001    2.50000000
   13.47333336  143.78999329    0.55000001    2.50000000
   13.47666645  143.46200562    0.55000001    2.50000000
   13.47972202  149.04800415    0.56999999    2.50000000
   13.48305511  151.62199402    0.56999999    2.50000000
   13.48611164  140.32000732    0.56999999    2.50000000
   13.48694515  147.03300476    0.56999999    2.50000000
   13.49000072  141.50599670    0.56999999    2.50000000
   13.49305534  137.30599976    0.55000001    2.50000000
   13.49638939  145.05799866    0.55000001    2.51999998
   13.50222206  145.05799866    0.55000001    2.50000000
   13.50638866  138.45899963    0.52999997    2.50000000
   13.50972176  145.53500366    0.52999997    2.50000000
   13.51305580  142.22200012    0.52999997    2.51999998
   13.51611137  141.73300171    0.52999997    2.50000000
   13.51944447  137.58099365    0.55000001    2.50000000
   13.52027798  151.26699829    0.55000001    2.51999998
   13.52305508  140.87699890    0.55000001    2.51999998
   13.52611065  147.04200745    0.55000001    2.51999998
   13.52944374  132.17900085    0.56999999    2.51999998
   13.53277779  135.80400085    0.55000001    2.51999998
   13.53583336  143.44599915    0.55000001    2.51999998
   13.53916740  141.64900208    0.55000001    2.51999998
   13.54527855  141.64900208    0.55000001    2.51999998
   13.54944515  140.95300293    0.55000001    2.50000000
   13.55249977  135.26499939    0.56999999    2.51999998
   13.55361176  133.98800659    0.56999999    2.51999998
   13.55638885  145.78399658    0.56999999    2.51999998
   13.55944443  140.38299561    0.56999999    2.51999998
   13.56277752  136.00700378    0.56999999    2.51999998
   13.56611156  145.43099976    0.58999997    2.51999998
   13.56916618  143.58500671    0.58999997    2.51999998
   13.57250023  142.79800415    0.58999997    2.51999998
   13.57555580  127.80899811    0.58999997    2.51999998
   13.57888889  139.07299805    0.56999999    2.51999998
   13.58222198  140.07899475    0.56999999    2.51999998
   13.58805561  140.07899475    0.52999997    2.53999996
   13.59222221  129.36099243    0.52999997    2.53999996
   13.59527779  137.78700256    0.52999997    2.53999996
   13.59861088  137.72099304    0.52999997    2.53999996
   13.60194492  137.75000000    0.51999998    2.53999996
   13.60500050  146.67399597    0.52999997    2.53999996
   13.60833359  131.82600403    0.52999997    2.53999996
   13.61166668  144.60400391    0.52999997    2.53999996
   13.61472225  135.95399475    0.52999997    2.53999996
   13.61805534  137.16400146    0.51999998    2.53999996
   13.62027836  136.91000366    0.51999998    2.53999996
   13.62166691  135.43099976    0.51999998    2.53999996
   13.62472248  143.52900696    0.52999997    2.53999996
   13.63083363  143.52900696    0.52999997    2.53999996
   13.63500023  137.95899963    0.52999997    2.53999996
   13.63833332  144.76400757    0.52999997    2.53999996
   13.64138889  127.40799713    0.52999997    2.53999996
   13.64472198  133.22599792    0.52999997    2.53999996
   13.64805508  141.33000183    0.52999997    2.53999996
   13.65111065  138.00100708    0.55000001    2.53999996
   13.65361118  127.05899811    0.55000001    2.53999996
   13.65499973  134.86599731    0.55000001    2.53999996
   13.65805531  130.08500671    0.55000001    2.53999996
   13.66166592  131.20199585    0.56999999    2.53999996
   13.66499996  131.03799438    0.56999999    2.53999996
   13.66805553  131.06500244    0.56999999    2.55999994
   13.67361164  131.06500244    0.56999999    2.53999996
   13.67777824  131.10200500    0.56999999    2.53999996
   13.68111134  136.12399292    0.56999999    2.55999994
   13.68416691  130.51499939    0.55000001    2.53999996
   13.68694496  130.72799683    0.55000001    2.53999996
   13.68805599  123.15200043    0.55000001    2.53999996
   13.69111156  127.00700378    0.55000001    2.53999996
   13.69444466  134.27799988    0.55000001    2.53999996
   13.69777775  140.29100037    0.55000001    2.53999996
   13.70083332  126.17400360    0.55000001    2.55999994
   13.70416641  133.60099792    0.55000001    2.53999996
   13.70722198  134.11900330    0.55000001    2.55999994
   13.71055508  129.38499451    0.55000001    2.55999994
   13.71666622  129.38499451    0.56999999    2.53999996
   13.72055531  130.76300049    0.56999999    2.55999994
   13.72388840  127.77600098    0.56999999    2.53999996
   13.72722149  126.09999847    0.56999999    2.53999996
   13.73027706  130.60099792    0.56999999    2.55999994
   13.73361111  137.19500732    0.56999999    2.55999994
   13.73694515  124.34999847    0.56999999    2.55999994
   13.74000072  130.10000610    0.55000001    2.55999994
   13.74333382  137.58399963    0.56999999    2.55999994
   13.74638939  128.71200562    0.56999999    2.55999994
   13.74972248  128.57200623    0.56999999    2.55999994
   13.75305557  134.62300110    0.55000001    2.55999994
   13.75361156  127.36900330    0.55000001    2.55999994
   13.75944424  127.36900330    0.56999999    2.57999992
   13.76361084  127.23100281    0.56999999    2.57999992
   13.76666641  136.05599976    0.56999999    2.55999994
   13.76999950  123.83100128    0.56999999    2.55999994
   13.77333355  133.80499268    0.61000001    2.55999994
   13.77638817  130.97799683    0.61000001    2.55999994
   13.77972221  127.74800110    0.61000001    2.55999994
   13.78277779  131.24299622    0.61000001    2.55999994
   13.78611183  129.45399475    0.61000001    2.55999994
   13.78694534  119.18499756    0.61000001    2.55999994
   13.78972244  135.04299927    0.63000000    2.55999994
   13.79277802  120.80500031    0.61000001    2.55999994
   13.79611111  126.06500244    0.61000001    2.55999994
   13.80222225  126.06500244    0.61000001    2.55999994
   13.80638885  124.93000031    0.61000001    2.57999992
   13.80972195  132.18600464    0.61000001    2.55999994
   13.81277752  127.22799683    0.61000001    2.55999994
   13.81611156  120.42400360    0.61000001    2.55999994
   13.81916618  132.96400452    0.58999997    2.55999994
   13.82027817  135.28100586    0.58999997    2.55999994
   13.82305527  131.02000427    0.58999997    2.57999992
   13.82611084  123.24700165    0.58999997    2.55999994
   13.82944393  128.65499878    0.58999997    2.57999992
   13.83277798  129.88499451    0.58999997    2.57999992
   13.83583260  129.56100464    0.56999999    2.57999992
   13.83916664  135.91700745    0.56999999    2.55999994
   13.84499931  135.91700745    0.55000001    2.57999992
   13.84916592  121.85199738    0.55000001    2.57999992
   13.85249996  122.24900055    0.55000001    2.57999992
   13.85361195  125.70899963    0.55000001    2.57999992
   13.85611153  123.23300171    0.55000001    2.57999992
   13.85916710  135.28300476    0.55000001    2.57999992
   13.86250019  127.18099976    0.55000001    2.55999994
   13.86583328  126.60299683    0.55000001    2.57999992
   13.86888885  133.77299500    0.55000001    2.57999992
   13.87222195  123.03299713    0.55000001    2.57999992
   13.87555599  124.30100250    0.55000001    2.57999992
   13.87861156  127.79900360    0.55000001    2.57999992
   13.88194466  121.56800079    0.55000001    2.57999992
   13.88805580  121.56800079    0.55000001    2.57999992
   13.89222240  128.26300049    0.55000001    2.57999992
   13.89527798  124.11900330    0.55000001    2.57999992
   13.89861107  127.08599854    0.55000001    2.57999992
   13.90166664  127.71199799    0.55000001    2.59999990
   13.90499973  131.36999512    0.55000001    2.57999992
   13.90833282  131.57699585    0.55000001    2.57999992
   13.91138840  126.21099854    0.55000001    2.59999990
   13.91472149  126.11599731    0.55000001    2.59999990
   13.91805553  128.46099854    0.55000001    2.59999990
   13.92027855  126.73000336    0.55000001    2.57999992
   13.92166710  126.35299683    0.55000001    2.57999992
   13.92500019  127.01499939    0.55000001    2.57999992
   13.93083382  127.01499939    0.52999997    2.57999992
   13.93500042  125.26499939    0.52999997    2.57999992
   13.93805599  124.73100281    0.52999997    2.57999992
   13.94138908  125.76300049    0.51999998    2.59999990
   13.94472218  121.08999634    0.51999998    2.59999990
   13.94777775  128.87800598    0.50000000    2.59999990
   13.95111084  126.87000275    0.51999998    2.59999990
   13.95361137  127.08399963    0.50000000    2.59999990
   13.95472240  132.91700745    0.50000000    2.57999992
   13.95777798  127.40100098    0.50000000    2.59999990
   13.96111107  130.96400452    0.50000000    2.57999992
   13.96444416  124.56999969    0.50000000    2.57999992
   13.96749973  116.35099792    0.47999999    2.59999990
   13.97361088  116.35099792    0.50000000    2.59999990
   13.97777748  130.33500671    0.47999999    2.57999992
   13.98111057  127.30100250    0.47999999    2.57999992
   13.98416710  124.75299835    0.47999999    2.57999992
   13.98694515  128.51100159    0.47999999    2.57999992
   13.98777771  131.75999451    0.47999999    2.57999992
   13.99111176  132.69700623    0.50000000    2.57999992
   13.99416733  128.88499451    0.50000000    2.59999990
   13.99750042  125.21099854    0.50000000    2.57999992
   14.00055599  127.06600189    0.52999997    2.59999990
   14.00388908  123.64800262    0.51999998    2.59999990
   14.00722218  123.48300171    0.51999998    2.59999990
   14.01027775  119.40499878    0.55000001    2.59999990
   14.01638889  119.40499878    0.52999997    2.59999990
   14.02055550  129.66299438    0.55000001    2.59999990
   14.02388859  129.36000061    0.55000001    2.59999990
   14.02694416  123.79299927    0.55000001    2.59999990
   14.03027725  119.24500275    0.55000001    2.59999990
   14.03361130  118.86199951    0.55000001    2.59999990
   14.03666687  126.95800018    0.55000001    2.59999990
   14.04000092  126.21499634    0.55000001    2.59999990
   14.04333401  124.05599976    0.52999997    2.61999989
   14.04638958  120.57900238    0.52999997    2.59999990
   14.04972267  135.07200623    0.52999997    2.59999990
   14.05277824  130.99200439    0.52999997    2.61999989
   14.05361176  129.70399475    0.52999997    2.61999989
   14.05944443  129.70399475    0.52999997    2.61999989
   14.06333351  131.49000549    0.55000001    2.61999989
   14.06666660  124.08300018    0.55000001    2.61999989
   14.06999969  122.37599945    0.55000001    2.61999989
   14.07305527  134.05000305    0.55000001    2.59999990
   14.07638836  120.52999878    0.52999997    2.61999989
   14.07972240  129.95899963    0.52999997    2.59999990
   14.08305550  129.62699890    0.51999998    2.61999989
   14.08611107  126.13999939    0.50000000    2.61999989
   14.08694458  125.98000336    0.50000000    2.61999989
   14.08972168  119.84600067    0.50000000    2.59999990
   14.09305477  134.62100220    0.51999998    2.61999989
   14.09611034  135.08900452    0.51999998    2.61999989
   14.10222244  135.08900452    0.50000000    2.61999989
   14.10638905  123.95899963    0.51999998    2.61999989
   14.10944462  130.70599365    0.50000000    2.61999989
   14.11277771  122.85700226    0.50000000    2.61999989
   14.11611176  117.35800171    0.50000000    2.61999989
   14.11916637  118.19100189    0.50000000    2.61999989
   14.12027836  113.52999878    0.47999999    2.61999989
   14.12277794  118.13999939    0.47999999    2.61999989
   14.12611103  124.62200165    0.50000000    2.61999989
   14.12916660  117.30400085    0.50000000    2.61999989
   14.13249969  120.51499939    0.47999999    2.61999989
   14.13583279  116.68399811    0.47999999    2.61999989
   14.13888836  115.78600311    0.47999999    2.61999989
   14.14499950  115.78600311    0.46000001    2.61999989
   14.14916611  121.65899658    0.46000001    2.61999989
   14.15249920  116.67800140    0.47999999    2.61999989
   14.15361118  124.54100037    0.46000001    2.61999989
   14.15611076  114.36900330    0.46000001    2.64000010
   14.15944386  116.43299866    0.46000001    2.61999989
   14.16249943  121.98500061    0.47999999    2.61999989
   14.16583252  121.46800232    0.47999999    2.61999989
   14.16888905  114.81800079    0.47999999    2.61999989
   14.17222214  119.73100281    0.47999999    2.61999989
   14.17555618  119.81600189    0.47999999    2.61999989
   14.17861176  118.77700043    0.47999999    2.61999989
   14.18194485  123.75599670    0.46000001    2.64000010
   14.18777752  123.75599670    0.46000001    2.64000010
   14.19194412  124.67500305    0.44000000    2.64000010
   14.19527817  119.90100098    0.46000001    2.64000010
   14.19833374  111.41600037    0.44000000    2.61999989
   14.20166683  118.26000214    0.44000000    2.61999989
   14.20499992  123.61100006    0.44000000    2.61999989
   14.20805550  124.38999939    0.44000000    2.61999989
   14.21138859  120.01100159    0.44000000    2.64000010
   14.21472168  127.05899811    0.44000000    2.64000010
   14.21777725  123.05500031    0.44000000    2.64000010
   14.22027779  120.33000183    0.44000000    2.64000010
   14.22138882  120.85399628    0.44000000    2.64000010
   14.22472191  119.13700104    0.44000000    2.61999989
   14.23083305  119.13700104    0.44000000    2.64000010
   14.23500061  120.73200226    0.46000001    2.61999989
   14.23805618  117.67400360    0.44000000    2.64000010
   14.24138927  121.79799652    0.44000000    2.64000010
   14.24444485  118.35299683    0.44000000    2.64000010
   14.24777794  101.73200226    0.44000000    2.64000010
   14.25111103  119.50599670    0.44000000    2.64000010
   14.25361156  114.41300201    0.44000000    2.64000010
   14.25472260  118.65699768    0.44000000    2.64000010
   14.25805569  116.80100250    0.44000000    2.64000010
   14.26111126  124.11900330    0.44000000    2.64000010
   14.26444435  120.86100006    0.44000000    2.64000010
   14.26777744  126.10399628    0.44000000    2.64000010
   14.27361107  126.10399628    0.46000001    2.64000010
   14.27777767  121.13099670    0.44000000    2.64000010
   14.28083324  119.24900055    0.44000000    2.64000010
   14.28416729  123.08999634    0.44000000    2.64000010
   14.28694534  116.19000244    0.44000000    2.61999989
   14.28777790  119.34400177    0.44000000    2.61999989
   14.29111195  116.70999908    0.44000000    2.61999989
   14.29416752  122.27600098    0.44000000    2.64000010
   14.29750061  117.67900085    0.44000000    2.64000010
   14.30083370  117.42299652    0.44000000    2.64000010
   14.30388927  123.08699799    0.44000000    2.64000010
   14.30722237  120.26200104    0.44000000    2.64000010
   14.31027794  116.27200317    0.44000000    2.64000010
   14.31638908  116.27200317    0.46000001    2.64000010
   14.32055569  119.54199982    0.46000001    2.64000010
   14.32361126  117.86699677    0.47999999    2.66000009
   14.32694435  118.49400330    0.46000001    2.64000010
   14.33027744  120.89399719    0.47999999    2.64000010
   14.33333302  117.57499695    0.47999999    2.64000010
   14.33666611  127.97499847    0.47999999    2.66000009
   14.34000015  109.21900177    0.47999999    2.64000010
   14.34305477  120.30500031    0.47999999    2.64000010
   14.34638882  122.15299988    0.47999999    2.64000010
   14.34944439  121.55100250    0.47999999    2.64000010
   14.35277843  126.23999786    0.47999999    2.64000010
   14.35388947  121.46700287    0.47999999    2.64000010
   14.35916710  121.46700287    0.47999999    2.64000010
   14.36333370  118.56900024    0.47999999    2.64000010
   14.36666679  124.76799774    0.47999999    2.64000010
   14.36972237  125.47200012    0.47999999    2.64000010
   14.38749981  116.63300323    0.47999999    2.66000009
   14.38972187  117.10700226    0.46000001    2.66000009
   14.39305496  118.30100250    0.46000001    2.66000009
   14.39611053  122.33899689    0.46000001    2.66000009
   14.40222168  122.33899689    0.47999999    2.66000009
   14.40638828  116.80799866    0.46000001    2.66000009
   14.40972137  118.59500122    0.47999999    2.66000009
   14.41277695  119.61100006    0.47999999    2.66000009
   14.41611099  118.33200073    0.47999999    2.66000009
   14.41944504  121.80000305    0.47999999    2.66000009
   14.42055607  122.58599854    0.47999999    2.66000009
   14.42305565  123.87699890    0.47999999    2.66000009
   14.42638874  123.24400330    0.47999999    2.66000009
   14.42944431  120.15499878    0.47999999    2.66000009
   14.43277836  120.64900208    0.47999999    2.66000009
   14.43611145  118.69200134    0.47999999    2.66000009
   14.43916702  124.29100037    0.47999999    2.66000009
   14.44499969  124.29100037    0.46000001    2.67000008
   14.44916630  119.38500214    0.44000000    2.66000009
   14.45249939  117.23899841    0.44000000    2.66000009
   14.45388889  126.33000183    0.44000000    2.66000009
   14.45611095  125.43900299    0.44000000    2.66000009
   14.45916653  114.23999786    0.44000000    2.66000009
   14.46249962  115.14099884    0.44000000    2.66000009
   14.46583271  112.07800293    0.44000000    2.66000009
   14.46888828  118.87699890    0.44000000    2.66000009
   14.47222137  111.96299744    0.41999999    2.66000009
   14.47555542  121.76999664    0.41999999    2.66000009
   14.47861099  118.60600281    0.40000001    2.66000009
   14.48194408  112.79000092    0.40000001    2.66000009
   14.48805618  112.79000092    0.40000001    2.66000009
   14.49194431  129.11799622    0.40000001    2.64000010
   14.49527836  124.63700104    0.40000001    2.66000009
   14.49861145  124.55999756    0.40000001    2.67000008
   14.50166702  119.86499786    0.41999999    2.67000008
   14.50500011  130.75999451    0.41999999    2.67000008
   14.50833321  117.65200043    0.41999999    2.66000009
   14.51138878  126.81900024    0.41999999    2.67000008
   14.51472187  113.27600098    0.41999999    2.67000008
   14.51777744  122.66300201    0.41999999    2.67000008
   14.52055550  118.17299652    0.41999999    2.66000009
   14.52166653  118.80100250    0.41999999    2.66000009
   14.52499962  118.18900299    0.41999999    2.66000009
   14.53083324  118.18900299    0.41999999    2.66000009
   14.53500080  122.10500336    0.41999999    2.66000009
   14.53805637  117.54699707    0.41999999    2.67000008
   14.54138947  119.93399811    0.41999999    2.67000008
   14.54472256  116.24099731    0.41999999    2.67000008
   14.54777813  118.56500244    0.41999999    2.66000009
   14.55111122  120.66200256    0.41999999    2.66000009
   14.55388927  124.44000244    0.40000001    2.67000008
   14.55472279  110.74800110    0.40000001    2.67000008
   14.55805588  111.76899719    0.40000001    2.66000009
   14.56111145  114.39199829    0.40000001    2.67000008
   14.56444454  113.05400085    0.41999999    2.67000008
   14.56750011  121.08000183    0.41999999    2.67000008
   14.57361126  121.08000183    0.40000001    2.67000008
   14.57777786  123.15000153    0.40000001    2.67000008
   14.58111095  107.54199982    0.40000001    2.67000008
   14.58416653  114.74700165    0.41999999    2.66000009
   14.58722210  107.82499695    0.40000001    2.67000008
   14.58777714  118.22899628    0.40000001    2.67000008
   14.59111118  113.47100067    0.41999999    2.66000009
   14.59416676  113.84500122    0.40000001    2.67000008
   14.59749985  116.15299988    0.40000001    2.67000008
   14.60083389  114.19599915    0.40000001    2.67000008
   14.60388947  118.66699982    0.40000001    2.67000008
   14.60722256  121.08699799    0.40000001    2.67000008
   14.61055565  124.87300110    0.40000001    2.67000008
   14.61638927  124.87300110    0.40000001    2.67000008
   14.62055588  113.62300110    0.38000000    2.67000008
   14.62111092  115.79599762    0.38000000    2.67000008
   14.62444496  113.98799896    0.38000000    2.67000008
   14.62750053  118.09999847    0.40000001    2.67000008
   14.63083363  117.09899902    0.38000000    2.67000008
   14.63416672  117.16799927    0.38000000    2.67000008
   14.63722229  117.94599915    0.38000000    2.67000008
   14.64055538  117.76200104    0.38000000    2.67000008
   14.64361095  119.15599823    0.38000000    2.69000006
   14.64694405  119.52700043    0.38000000    2.67000008
   14.65027714  121.70899963    0.38000000    2.67000008
   14.65333271  118.04900360    0.38000000    2.67000008
   14.65388870  122.54000092    0.38000000    2.67000008
   14.65944386  122.54000092    0.38000000    2.67000008
   14.66333294  121.05899811    0.38000000    2.67000008
   14.66666698  123.43199921    0.38000000    2.67000008
   14.67000008  117.10199738    0.38000000    2.67000008
   14.67305565  123.39099884    0.38000000    2.69000006
   14.67638874  120.43800354    0.38000000    2.67000008
   14.67972279  124.36199951    0.36000001    2.67000008
   14.68277836  122.72299957    0.36000001    2.67000008
   14.68611145  119.97599792    0.36000001    2.67000008
   14.68722248  114.13300323    0.38000000    2.67000008
   14.68972206  117.78500366    0.36000001    2.67000008
   14.69305515  119.43399811    0.36000001    2.69000006
   14.69611073  116.83799744    0.36000001    2.67000008
   14.70222187  116.83799744    0.38000000    2.67000008
   14.70638847  119.57399750    0.36000001    2.67000008
   14.70972157  122.10600281    0.38000000    2.67000008
   14.71277714  119.85700226    0.38000000    2.67000008
   14.71611118  117.10500336    0.36000001    2.67000008
   14.71916580  116.45300293    0.36000001    2.67000008
   14.72055531  122.02400208    0.36000001    2.67000008
   14.72277737  121.30999756    0.36000001    2.67000008
   14.72611046  118.43699646    0.36000001    2.67000008
   14.72916603  122.05400085    0.36000001    2.67000008
   14.73249912  123.99500275    0.36000001    2.69000006
   14.73583317  123.15399933    0.36000001    2.69000006
   14.73888874  125.59799957    0.36000001    2.67000008
   14.74499989  125.59799957    0.36000001    2.67000008
   14.74916649  121.59600067    0.36000001    2.67000008
   14.75249958  124.66200256    0.34000000    2.69000006
   14.75388908  125.86599731    0.36000001    2.69000006
   14.75611115  120.82199860    0.36000001    2.67000008
   14.75944424  130.98100281    0.36000001    2.69000006
   14.76249981  121.87699890    0.36000001    2.69000006
   14.76583290  121.59999847    0.36000001    2.67000008
   14.76916599  113.86000061    0.36000001    2.67000008
   14.77222157  128.65600586    0.36000001    2.67000008
   14.77555561  119.65899658    0.36000001    2.69000006
   14.77888870  121.87000275    0.36000001    2.69000006
   14.78194427  123.38500214    0.36000001    2.69000006
   14.78777790  123.38500214    0.36000001    2.67000008
   14.79194450  118.68900299    0.36000001    2.69000006
   14.79527855  127.45099640    0.36000001    2.69000006
   14.79833412  125.38600159    0.36000001    2.69000006
   14.80166721  120.95099640    0.36000001    2.69000006
   14.80500031  122.97000122    0.36000001    2.67000008
   14.80805588  121.24099731    0.36000001    2.69000006
   14.81138897  119.88400269    0.38000000    2.69000006
   14.81472206  110.14700317    0.38000000    2.69000006
   14.81777763  117.21099854    0.36000001    2.69000006
   14.82083321  120.72200012    0.38000000    2.69000006
   14.82138920  121.72299957    0.38000000    2.69000006
   14.82472229  118.20899963    0.38000000    2.69000006
   14.83083344  118.20899963    0.38000000    2.69000006
   14.83472157  118.26300049    0.40000001    2.69000006
   14.83805561  116.26399994    0.41999999    2.69000006
   14.84138870  121.61399841    0.40000001    2.69000006
   14.84444427  121.87300110    0.40000001    2.69000006
   14.84777737  118.12000275    0.40000001    2.69000006
   14.85111141  118.90399933    0.40000001    2.67000008
   14.85388947  119.18499756    0.36000001    2.69000006
   14.85472298  124.74800110    0.36000001    2.69000006
   14.85805607  112.88500214    0.36000001    2.69000006
   14.86111164  122.66999817    0.36000001    2.69000006
   14.86444473  115.55200195    0.36000001    2.67000008
   14.86777782  119.14299774    0.38000000    2.69000006
   14.87361145  119.14299774    0.36000001    2.69000006
   14.87777805  120.09200287    0.36000001    2.69000006
   14.88083363  122.66500092    0.36000001    2.69000006
   14.88416672  116.34200287    0.38000000    2.69000006
   14.88722229  119.56300354    0.36000001    2.69000006
   14.88777733  124.45099640    0.36000001    2.69000006
   14.89111137  116.70899963    0.38000000    2.69000006
   14.89416695  116.50299835    0.40000001    2.69000006
   14.89750004  115.80200195    0.40000001    2.69000006
   14.90083313  119.41100311    0.40000001    2.69000006
   14.90388870  115.11599731    0.38000000    2.69000006
   14.90722179  111.85399628    0.40000001    2.69000006
   14.91027737  108.15599823    0.40000001    2.69000006
   14.91638851  108.15599823    0.40000001    2.69000006
   14.92055607  125.90200043    0.38000000    2.71000004
   14.92111111  117.99700165    0.38000000    2.71000004
   14.92444515  117.30300140    0.38000000    2.71000004
   14.92750072  114.80999756    0.36000001    2.69000006
   14.93083382  113.03500366    0.38000000    2.69000006
   14.93416691  122.62100220    0.36000001    2.69000006
   14.93722248  118.25399780    0.38000000    2.69000006
   14.94055557  114.64499664    0.38000000    2.71000004
   14.94361115  116.16699982    0.40000001    2.69000006
   14.94694424  113.44899750    0.38000000    2.69000006
   14.95027733  109.96800232    0.38000000    2.69000006
   14.95333290  114.66600037    0.38000000    2.69000006
   14.95444393  121.18599701    0.40000001    2.69000006
   14.95916653  121.18599701    0.40000001    2.69000006
   14.96333313  120.03800201    0.38000000    2.69000006
   14.96666622  120.99500275    0.38000000    2.71000004
   14.96972179  116.33899689    0.36000001    2.69000006
   14.97305489  116.05699921    0.38000000    2.69000006
   14.97638798  115.06300354    0.40000001    2.69000006
   14.97944355  115.84799957    0.40000001    2.69000006
   14.98277760  116.71099854    0.41999999    2.69000006
   14.98611164  112.80500031    0.41999999    2.71000004
   14.98777771  119.85800171    0.41999999    2.71000004
   14.98972225  114.58799744    0.41999999    2.69000006
   14.99277782  116.94000244    0.41999999    2.71000004
   14.99611092  117.75700378    0.44000000    2.69000006
   15.00222206  117.75700378    0.44000000    2.69000006
   15.00638866  121.77799988    0.46000001    2.69000006
   15.00944424  116.68800354    0.47999999    2.69000006
   15.01277733  119.16200256    0.51999998    2.71000004
   15.01583290  115.11100006    0.51999998    2.69000006
   15.01916599  122.63099670    0.51999998    2.71000004
   15.02111053  119.54599762    0.47999999    2.71000004
   15.02305508  121.62899780    0.47999999    2.71000004
   15.02611065  124.73600006    0.47999999    2.71000004
   15.02944374  123.38600159    0.47999999    2.71000004
   15.03249931  125.26899719    0.50000000    2.71000004
   15.03583336  115.00900269    0.50000000    2.69000006
   15.03916740  119.18399811    0.47999999    2.69000006
   15.04500008  119.18399811    0.50000000    2.69000006
   15.04916668  114.75900269    0.50000000    2.69000006
   15.05222225  119.01200104    0.50000000    2.69000006
   15.05444431  117.13200378    0.51999998    2.69000006
   15.05611134  111.23000336    0.51999998    2.69000006
   15.05916691  111.80999756    0.52999997    2.71000004
   15.06250000  114.75499725    0.47999999    2.71000004
   15.06583309  116.01899719    0.47999999    2.71000004
   15.06888866  113.68800354    0.46000001    2.71000004
   15.07222176  115.92199707    0.46000001    2.71000004
   15.07527733  114.75099945    0.46000001    2.71000004
   15.07861137  122.57599640    0.47999999    2.71000004
   15.08194447  120.59799957    0.47999999    2.69000006
   15.08777714  120.59799957    0.47999999    2.71000004
   15.09194374  116.19899750    0.47999999    2.71000004
   15.09527779  121.54100037    0.47999999    2.71000004
   15.09833336  127.66999817    0.44000000    2.69000006
   15.10166740  121.15699768    0.44000000    2.69000006
   15.10472298  118.01899719    0.41999999    2.71000004
   15.10805607  122.35399628    0.41999999    2.71000004
   15.11138916  122.40200043    0.44000000    2.69000006
   15.11444473  121.78500366    0.41999999    2.71000004
   15.11777782  123.27700043    0.40000001    2.71000004
   15.12111092  123.19100189    0.40000001    2.71000004
   15.12166691  118.12400055    0.40000001    2.71000004
   15.12472248  123.84600067    0.40000001    2.71000004
   15.13055611  123.84600067    0.40000001    2.71000004
   15.13472176  122.47499847    0.40000001    2.71000004
   15.13805580  120.16300201    0.40000001    2.71000004
   15.14111137  119.29000092    0.40000001    2.71000004
   15.14444447  120.84100342    0.41999999    2.71000004
   15.14777756  119.68199921    0.52999997    2.71000004
   15.15083313  123.56199646    0.58999997    2.71000004
   15.15416622  123.01300049    0.55000001    2.71000004
   15.15499973  123.94899750    0.52999997    2.71000004
   15.15777779  119.96900177    0.51999998    2.71000004
   15.16111088  124.30000305    0.50000000    2.71000004
   15.16444397  126.02799988    0.50000000    2.71000004
   15.16750050  117.85900116    0.47999999    2.71000004
   15.17361164  117.85900116    0.47999999    2.71000004
   15.17750072  116.99400330    0.44000000    2.71000004
   15.18083382  116.98400116    0.44000000    2.71000004
   15.18416691  124.09600067    0.44000000    2.71000004
   15.18722248  125.34300232    0.44000000    2.71000004
   15.18833351  119.31099701    0.44000000    2.71000004
   15.19083309  119.98699951    0.44000000    2.71000004
   15.19416714  117.88899994    0.41999999    2.71000004
   15.19722271  125.05300140    0.40000001    2.71000004
   15.20055580  119.41300201    0.40000001    2.71000004
   15.20388889  119.62999725    0.40000001    2.71000004
   15.20694447  124.97100067    0.40000001    2.71000004
   15.21027756  121.69400024    0.38000000    2.71000004
   15.21638870  121.69400024    0.40000001    2.71000004
   15.22055531  115.89199829    0.38000000    2.71000004
   15.22166634  112.15899658    0.38000000    2.71000004
   15.22388840  124.17500305    0.38000000    2.71000004
   15.22722149  118.80699921    0.38000000    2.71000004
   15.23027706  119.88999939    0.38000000    2.71000004
   15.23361111  114.09799957    0.38000000    2.71000004
   15.23694515  112.97499847    0.38000000    2.73000002
   15.24000072  133.13400269    0.38000000    2.73000002
   15.24333382  124.42800140    0.38000000    2.71000004
   15.24666691  120.96199799    0.38000000    2.71000004
   15.24972248  121.24299622    0.38000000    2.71000004
   15.25305557  123.86399841    0.36000001    2.71000004
   15.25500011  124.96399689    0.38000000    2.71000004
   15.25916672  124.96399689    0.38000000    2.71000004
   15.26333332  121.60299683    0.38000000    2.73000002
   15.26666641  123.33399963    0.38000000    2.73000002
   15.26972198  128.26600647    0.38000000    2.71000004
   15.27305508  122.73999786    0.38000000    2.71000004
   15.27638817  123.37400055    0.38000000    2.71000004
   15.27944374  116.14900208    0.36000001    2.71000004
   15.28277779  116.30100250    0.36000001    2.71000004
   15.28611183  118.30200195    0.38000000    2.71000004
   15.28833389  122.48999786    0.36000001    2.71000004
   15.28944492  126.55599976    0.36000001    2.71000004
   15.29277802  121.93000031    0.38000000    2.71000004
   15.29611111  122.29100037    0.38000000    2.71000004
   15.30194473  122.29100037    0.36000001    2.71000004
   15.30611134  120.75099945    0.36000001    2.71000004
   15.30944443  117.48000336    0.34000000    2.71000004
   15.31250000  121.32599640    0.34000000    2.71000004
   15.31583309  121.24700165    0.31999999    2.71000004
   15.31916618  119.07399750    0.31999999    2.71000004
   15.32166672  131.96899414    0.34000000    2.73000002
   15.32277775  124.90399933    0.34000000    2.73000002
   15.32611084  116.34200287    0.34000000    2.73000002
   15.32916641  124.62899780    0.34000000    2.71000004
   15.33249950  128.84899902    0.34000000    2.71000004
   15.33583260  120.24099731    0.36000001    2.73000002
   15.33888817  126.68299866    0.34000000    2.71000004
   15.34499931  126.68299866    0.36000001    2.73000002
   15.34888840  128.39500427    0.34000000    2.71000004
   15.35222244  123.07499695    0.36000001    2.71000004
   15.35500050  134.26699829    0.34000000    2.73000002
   15.35583401  138.39999390    0.36000001    2.71000004
   15.35916710  135.72500610    0.38000000    2.71000004
   15.36222267  123.82499695    0.36000001    2.71000004
   15.36555576  131.77999878    0.36000001    2.73000002
   15.36888885  127.19999695    0.36000001    2.71000004
   15.37222195  126.10399628    0.38000000    2.73000002
   15.37555599  134.63800049    0.36000001    2.71000004
   15.37861156  129.67599487    0.36000001    2.71000004
   15.38194466  121.38899994    0.36000001    2.71000004
   15.38777733  121.38899994    0.36000001    2.73000002
   15.40611076  120.88899994    0.38000000    2.73000002
   15.40944386  123.37200165    0.38000000    2.73000002
   15.41249943  129.71800232    0.36000001    2.71000004
   15.41583252  124.65000153    0.38000000    2.71000004
   15.41888905  130.74899292    0.36000001    2.71000004
   15.42222214  124.12500000    0.36000001    2.73000002
   15.42555618  123.27899933    0.38000000    2.73000002
   15.43083382  123.27899933    0.38000000    2.73000002
   15.43500042  127.40200043    0.40000001    2.71000004
   15.43805599  127.04799652    0.40000001    2.71000004
   15.43916702  128.13299561    0.40000001    2.73000002
   15.44194412  122.17299652    0.40000001    2.71000004
   15.44499969  116.35900116    0.40000001    2.73000002
   15.44833374  129.17700195    0.40000001    2.73000002
   15.45166683  129.75399780    0.40000001    2.73000002
   15.45472240  124.40899658    0.40000001    2.73000002
   15.45805550  127.56999969    0.40000001    2.73000002
   15.46111107  136.13099670    0.40000001    2.73000002
   15.46444416  124.34400177    0.41999999    2.73000002
   15.46777725  131.90499878    0.41999999    2.73000002
   15.47361088  131.90499878    0.41999999    2.73000002
   15.47777748  123.25199890    0.44000000    2.73000002
   15.48111057  121.61199951    0.41999999    2.73000002
   15.48416710  130.78199768    0.41999999    2.75000000
   15.48750019  128.23699951    0.40000001    2.73000002
   15.49055576  137.48199463    0.38000000    2.73000002
   15.49388885  126.85399628    0.38000000    2.73000002
   15.49722290  123.09600067    0.38000000    2.73000002
   15.50027752  122.78199768    0.38000000    2.73000002
   15.50361156  119.45200348    0.38000000    2.73000002
   15.50583363  122.39800262    0.38000000    2.75000000
   15.50722218  126.20400238    0.38000000    2.75000000
   15.61000061   -1.00000000   -1.00000000   -1.00000000
   15.70694447   -1.00000000   -1.00000000   -1.00000000
   15.81805515   -1.00000000   -1.00000000   -1.00000000
   15.84305477  135.60200500    0.61000001    2.73000002
   15.84638882  140.41999817    0.61000001    2.73000002
   15.84944439  149.00799561    0.63000000    2.73000002
   15.85277843  140.36500549    0.63000000    2.75000000
   15.85611153  142.70799255    0.63000000    2.75000000
   15.85916710  135.97200012    0.63000000    2.73000002
   15.86333370  135.97200012    0.63000000    2.73000002
   15.86750031  140.71299744    0.67000002    2.75000000
   15.87083340  142.04600525    0.67000002    2.73000002
   15.87388897  126.13700104    0.67000002    2.73000002
   15.87638855  126.19100189    0.67000002    2.75000000
   15.87750053  130.05599976    0.67000002    2.75000000
   15.88083363  128.41499329    0.69000000    2.73000002
   15.88416672  137.42500305    0.69000000    2.75000000
   15.88722229  121.97000122    0.69000000    2.73000002
   15.89055538  140.13999939    0.70999998    2.75000000
   15.89388847  132.59399414    0.75000000    2.73000002
   15.89694405  134.03599548    0.75000000    2.73000002
   15.90027714  134.13999939    0.76999998    2.73000002
   15.90611076  134.13999939    0.69000000    2.73000002
   15.91027737  140.94500732    0.69000000    2.73000002
   15.91361046  141.47000122    0.67000002    2.75000000
   15.91666698  141.87500000    0.69000000    2.73000002
   15.92000008  143.37100220    0.64999998    2.73000002
   15.92333412  134.52400208    0.63000000    2.75000000
   15.92638874  132.58399963    0.63000000    2.75000000
   15.92972279  126.16999817    0.63000000    2.75000000
   15.93305588  127.35099792    0.61000001    2.73000002
   15.93611145  130.83299255    0.61000001    2.73000002
   15.93944454  136.27299500    0.61000001    2.73000002
   15.94277763  130.96299744    0.58999997    2.75000000
   15.94305515  126.89700317    0.58999997    2.73000002
   15.94916630  126.89700317    0.58999997    2.73000002
   15.95333290  126.60900116    0.56999999    2.73000002
   15.95638847  134.06399536    0.55000001    2.73000002
   15.95972157  146.11199951    0.55000001    2.75000000
   15.96277714  137.44000244    0.55000001    2.75000000
   15.96611118  123.25499725    0.52999997    2.75000000
   15.96944427  138.49600220    0.52999997    2.73000002
   15.97249985  143.31599426    0.51999998    2.75000000
   15.97583294  138.92399597    0.52999997    2.75000000
   15.97666645  134.54400635    0.52999997    2.75000000
   15.97944355  123.94499969    0.52999997    2.73000002
   15.98277760  128.42399597    0.52999997    2.73000002
   15.98583317  131.13200378    0.52999997    2.73000002
   15.99194431  131.13200378    0.55000001    2.75000000
   15.99611092  134.32200623    0.55000001    2.75000000
   15.99916649  140.24000549    0.55000001    2.75000000
   16.00250053  133.64999390    0.55000001    2.75000000
   16.00583267  135.16099548    0.52999997    2.73000002
   16.00888824  134.22500610    0.52999997    2.75000000
   16.00972176  140.59100342    0.52999997    2.75000000
   16.01250076  135.67300415    0.52999997    2.73000002
   16.01583290  135.21600342    0.52999997    2.75000000
   16.01888847  137.02600098    0.52999997    2.73000002
   16.02222252  137.46800232    0.52999997    2.75000000
   16.02555466  129.18699646    0.52999997    2.75000000
   16.02861023  130.31700134    0.52999997    2.75000000
   16.03472137  130.31700134    0.52999997    2.75000000
   16.03888893  129.92900085    0.52999997    2.75000000
   16.04222107  134.61099243    0.52999997    2.75000000
   16.04333305  147.72799683    0.52999997    2.75000000
   16.04555511  141.63600159    0.51999998    2.75000000
   16.04888916  127.05200195    0.51999998    2.73000002
   16.05194283  139.65299988    0.51999998    2.73000002
   16.05527687  137.41799927    0.50000000    2.75000000
   16.05861092  130.19500732    0.50000000    2.75000000
   16.06166649  135.79200745    0.46000001    2.75000000
   16.06499863  140.19900513    0.46000001    2.75000000
   16.06833458  136.86900330    0.44000000    2.75000000
   16.07139015  135.11700439    0.47999999    2.75000000
   16.07750130  135.11700439    0.47999999    2.75000000
   16.08166695  125.55799866    0.44000000    2.75000000
   16.08500099  128.23399353    0.41999999    2.75000000
   16.08833313  149.35499573    0.41999999    2.75000000
   16.09138870  132.75199890    0.41999999    2.75000000
   16.09472275  148.22399902    0.40000001    2.75000000
   16.09805679  141.65800476    0.40000001    2.73000002
   16.10111237  134.05099487    0.40000001    2.75000000
   16.10444450  136.21499634    0.38000000    2.75000000
   16.10777855  136.04800415    0.38000000    2.75000000
   16.11000061  137.20399475    0.38000000    2.75000000
   16.11111069  133.55599976    0.38000000    2.75000000
   16.11444473  139.35699463    0.38000000    2.75000000
   16.12055588  139.35699463    0.38000000    2.75000000
   16.12472153  141.14999390    0.36000001    2.75000000
   16.12777710  129.52699280    0.36000001    2.75000000
   16.13111115  138.66200256    0.36000001    2.75000000
   16.13416672  141.55999756    0.34000000    2.75000000
   16.13750076  145.80799866    0.34000000    2.75000000
   16.14083290  140.97999573    0.34000000    2.75000000
   16.14333344  132.96400452    0.34000000    2.75000000
   16.14444351  142.73599243    0.34000000    2.75000000
   16.14777756  138.23199463    0.34000000    2.75000000
   16.15083313  143.48800659    0.36000001    2.76999998
   16.15416718  128.52900696    0.36000001    2.75000000
   16.15749931  139.81300354    0.34000000    2.75000000
   16.16333389  139.81300354    0.31999999    2.75000000
   16.16749954  136.48300171    0.31999999    2.76999998
   16.17055511  130.93400574    0.30000001    2.75000000
   16.17388916  132.69000244    0.30000001    2.75000000
   16.17666626  134.70500183    0.30000001    2.75000000
   16.17749977  120.24700165    0.30000001    2.75000000
   16.18083191  127.99400330    0.30000001    2.75000000
   16.18388748  132.86099243    0.30000001    2.75000000
   16.18722153  134.05299377    0.30000001    2.75000000
   16.19055557  130.46400452    0.28000000    2.75000000
   16.19361115  136.60200500    0.28000000    2.75000000
   16.19694328  133.79699707    0.28000000    2.75000000
   16.20027924  132.33399963    0.28000000    2.75000000
   16.20611191  132.33399963    0.28000000    2.75000000
   16.21027946  142.82499695    0.30000001    2.75000000
   16.21361160  134.99000549    0.30000001    2.75000000
   16.21666718  140.24899292    0.30000001    2.75000000
   16.22000122  129.88299561    0.30000001    2.75000000
   16.22333336  141.17500305    0.30000001    2.75000000
   16.22638893  129.25900269    0.30000001    2.75000000
   16.22972298  134.89100647    0.30000001    2.75000000
   16.23277855  126.64199829    0.30000001    2.75000000
   16.23611069  128.61399841    0.30000001    2.75000000
   16.23944473  130.28399658    0.28000000    2.75000000
   16.24250031  128.30099487    0.28000000    2.75000000
   16.24333382  126.65899658    0.28000000    2.75000000
   16.24888992  126.65899658    0.25999999    2.75000000
   16.25305557  129.46499634    0.25999999    2.75000000
   16.25638962  125.84200287    0.28000000    2.75000000
   16.25972176  127.51899719    0.25999999    2.75000000
   16.26277733  126.99600220    0.25999999    2.75000000
   16.26611137  125.34500122    0.28000000    2.75000000
   16.26916695  130.70799255    0.28000000    2.75000000
   16.27249908  119.68000031    0.25999999    2.75000000
   16.27583313  133.43899536    0.28000000    2.75000000
   16.27666664  126.29699707    0.28000000    2.75000000
   16.27916718  123.60900116    0.25999999    2.75000000
   16.28249931  139.77900696    0.25999999    2.75000000
   16.28583336  130.48800659    0.25999999    2.75000000
   16.29194450  130.48800659    0.28000000    2.75000000
   16.29583359  133.77799988    0.28000000    2.76999998
   16.29916573  136.98300171    0.25999999    2.75000000
   16.30249977  135.00500488    0.25999999    2.75000000
   16.30555534  136.79699707    0.25999999    2.75000000
   16.30888748  127.39900208    0.28000000    2.75000000
   16.30999947  132.91000366    0.28000000    2.75000000
   16.31250000  114.67700195    0.25999999    2.75000000
   16.31583214  121.97799683    0.28000000    2.75000000
   16.31916809  133.48399353    0.28000000    2.75000000
   16.32222366  116.94899750    0.28000000    2.75000000
   16.32555580  127.96399689    0.28000000    2.75000000
   16.32861137  114.22499847    0.28000000    2.75000000
   16.33472252  114.22499847    0.30000001    2.75000000
   16.33889008  123.29399872    0.30000001    2.73000002
   16.34194565  123.65699768    0.31999999    2.75000000
   16.34333420  128.49600220    0.31999999    2.75000000
   16.34555626  125.60099792    0.31999999    2.75000000
   16.34889030  132.88600159    0.34000000    2.75000000
   16.35222244  121.23200226    0.36000001    2.75000000
   16.35527802  113.60299683    0.34000000    2.75000000
   16.35861206  121.20300293    0.36000001    2.75000000
   16.36166763  123.30500031    0.36000001    2.75000000
   16.36499977  134.72599792    0.36000001    2.75000000
   16.36833382  128.76699829    0.36000001    2.75000000
   16.37138939  136.45799255    0.38000000    2.73000002
   16.37750053  136.45799255    0.38000000    2.75000000
   16.38166618  141.44000244    0.38000000    2.75000000
   16.38500023  143.59599304    0.38000000    2.75000000
   16.38805580  138.32499695    0.41999999    2.75000000
   16.39138794  133.77499390    0.46000001    2.75000000
   16.39472198  130.26699829    0.51999998    2.75000000
   16.39777756  131.23300171    0.51999998    2.75000000
   16.40111160  131.64799500    0.52999997    2.73000002
   16.40416718  129.30700684    0.52999997    2.75000000
   16.40749931  130.65800476    0.52999997    2.75000000
   16.40999985  137.12699890    0.52999997    2.75000000
   16.41110992  140.99400330    0.52999997    2.75000000
   16.41444397  124.31099701    0.55000001    2.75000000
   16.42027664  124.31099701    0.56999999    2.75000000
   16.42444420  120.81999969    0.56999999    2.75000000
   16.42777634  131.98500061    0.56999999    2.73000002
   16.43083191  116.99099731    0.56999999    2.75000000
   16.43416595  140.22799683    0.56999999    2.75000000
   16.43750000  126.97299957    0.55000001    2.73000002
   16.44055557  128.80599976    0.55000001    2.73000002
   16.44333267  127.57399750    0.55000001    2.75000000
   16.44416618  121.56600189    0.55000001    2.75000000
   16.44749832  128.09199524    0.55000001    2.73000002
   16.45083427  126.12899780    0.52999997    2.75000000
   16.45388985  128.61599731    0.55000001    2.75000000
   16.45722389  126.79199982    0.55000001    2.75000000
   16.46333504  126.79199982    0.56999999    2.75000000
   16.46722221  135.29699707    0.56999999    2.76999998
   16.47055626  131.89500427    0.55000001    2.73000002
   16.47389030  140.45300293    0.55000001    2.75000000
   16.47666740  132.69700623    0.52999997    2.75000000
   16.47722244  124.85700226    0.52999997    2.75000000
   16.48055649  128.15100098    0.55000001    2.75000000
   16.48388863  124.63700104    0.55000001    2.75000000
   16.48694420  134.77799988    0.52999997    2.75000000
   16.49027824  131.95700073    0.52999997    2.75000000
   16.49333382  130.24000549    0.50000000    2.75000000
   16.49666786  135.02900696    0.47999999    2.73000002
   16.50000000  131.01800537    0.47999999    2.75000000
   16.50611115  131.01800537    0.46000001    2.75000000
   16.51027870  123.62100220    0.46000001    2.75000000
   16.51333427  119.76899719    0.44000000    2.75000000
   16.51666641  126.90899658    0.44000000    2.75000000
   16.52000046  127.50299835    0.44000000    2.75000000
   16.52305603  119.61699677    0.41999999    2.75000000
   16.52638817  125.99299622    0.41999999    2.75000000
   16.52972221  123.98400116    0.41999999    2.75000000
   16.53277779  128.01499939    0.41999999    2.75000000
   16.53610992  129.23500061    0.41999999    2.75000000
   16.53916550  127.79100037    0.41999999    2.75000000
   16.54249954  132.65199280    0.44000000    2.75000000
   16.54333305  135.67300415    0.41999999    2.75000000
   16.54888916  135.67300415    0.44000000    2.75000000
   16.55305481  127.36499786    0.44000000    2.75000000
   16.55638885  136.48500061    0.44000000    2.75000000
   16.55944443  129.35299683    0.44000000    2.76999998
   16.56277657  129.46299744    0.44000000    2.75000000
   16.56611061  128.16400146    0.44000000    2.75000000
   16.56916809  132.97399902    0.41999999    2.75000000
   16.57250023  132.37100220    0.41999999    2.75000000
   16.57555580  126.12500000    0.41999999    2.75000000
   16.57666779  124.89299774    0.41999999    2.75000000
   16.57944489  131.47300720    0.41999999    2.75000000
   16.58250046  131.05999756    0.41999999    2.75000000
   16.58583450  133.98199463    0.41999999    2.75000000
   16.59166718  133.98199463    0.41999999    2.75000000
   16.59583473  119.92400360    0.41999999    2.75000000
   16.59916687  117.05899811    0.41999999    2.75000000
   16.60250092  121.39499664    0.44000000    2.75000000
   16.60555649  133.77699280    0.44000000    2.75000000
   16.60888863  120.25900269    0.44000000    2.75000000
   16.61000061  123.66799927    0.44000000    2.75000000
   16.61250114  126.04100037    0.47999999    2.75000000
   16.61583328  127.97399902    0.61000001    2.75000000
   16.61916733  131.43600464    0.56999999    2.75000000
   16.62222290  127.10900116    0.55000001    2.75000000
   16.62555504  132.14700317    0.55000001    2.76999998
   16.62888908  128.36199951    0.51999998    2.75000000
   16.63472176  128.36199951    0.47999999    2.75000000
   16.63888931  128.75300598    0.50000000    2.75000000
   16.64194489  125.25700378    0.40000001    2.75000000
   16.64333344  134.76699829    0.40000001    2.75000000
   16.64555550  131.72799683    0.38000000    2.75000000
   16.64888954  119.68800354    0.38000000    2.75000000
   16.65222168  117.50399780    0.38000000    2.73000002
   16.65527725  121.79900360    0.36000001    2.75000000
   16.65861130  121.23500061    0.36000001    2.75000000
   16.66194344  118.58100128    0.34000000    2.75000000
   16.66499901  129.39599609    0.31999999    2.75000000
   16.66833305  119.89499664    0.31999999    2.75000000
   16.67138863  127.53500366    0.31999999    2.75000000
   16.67749977  127.53500366    0.31999999    2.75000000
   16.68166542  135.81100464    0.31999999    2.75000000
   16.68472099  129.71800232    0.31999999    2.75000000
   16.68805504  132.76800537    0.34000000    2.75000000
   16.69138718  136.60200500    0.34000000    2.75000000
   16.69444275  133.20799255    0.31999999    2.75000000
   16.69777679  127.26699829    0.31999999    2.75000000
   16.70083427  127.01200104    0.31999999    2.76999998
   16.70416832  132.57000732    0.30000001    2.75000000
   16.70750046  116.13099670    0.30000001    2.75000000
   16.71000099  123.02899933    0.30000001    2.75000000
   16.71111107  113.60700226    0.30000001    2.75000000
   16.71416664  115.08399963    0.31999999    2.76999998
   16.72027779  115.08399963    0.31999999    2.75000000
   16.72444534  111.55799866    0.31999999    2.75000000
   16.72777748  122.08399963    0.31999999    2.76999998
   16.73083305  123.83899689    0.31999999    2.76999998
   16.73416710  114.09899902    0.34000000    2.75000000
   16.73722267  131.39100647    0.34000000    2.73000002
   16.74055672  129.50399780    0.36000001    2.75000000
   16.74333382  122.84300232    0.36000001    2.75000000
   16.74444389  124.16699982    0.36000001    2.75000000
   16.74749947  126.59899902    0.36000001    2.75000000
   16.75083351  128.78399658    0.36000001    2.75000000
   16.75416756  131.77999878    0.36000001    2.75000000
   16.75722313  127.30300140    0.36000001    2.75000000
   16.76305580  127.30300140    0.40000001    2.75000000
   16.76722145  137.66099548    0.38000000    2.76999998
   16.77055550  119.31300354    0.38000000    2.75000000
   16.77361107  133.12600708    0.38000000    2.75000000
   16.77666664  127.49400330    0.38000000    2.75000000
   16.77750015  124.74400330    0.40000001    2.75000000
   16.78055573  133.62300110    0.38000000    2.75000000
   16.78388786  134.57000732    0.38000000    2.75000000
   16.78694344  130.06199646    0.36000001    2.75000000
   16.79027748  124.27300262    0.36000001    2.76999998
   16.79361153  121.03099823    0.36000001    2.75000000
   16.79666710  126.84600067    0.34000000    2.75000000
   16.79999924  118.50000000    0.34000000    2.75000000
   16.80611038  118.50000000    0.31999999    2.75000000
   16.80999947  128.14799500    0.30000001    2.76999998
   16.81333351  132.86399841    0.30000001    2.75000000
   16.81666756  123.51399994    0.31999999    2.75000000
   16.81972313  123.88500214    0.31999999    2.76999998
   16.82305717  122.15599823    0.31999999    2.75000000
   16.82638931  131.78900146    0.31999999    2.75000000
   16.82944489  134.33500671    0.31999999    2.75000000
   16.83277893  142.91900635    0.31999999    2.75000000
   16.83611107  138.32299805    0.30000001    2.75000000
   16.83944511  126.79499817    0.30000001    2.75000000
   16.84250069  131.59599304    0.30000001    2.75000000
   16.84333420  140.26899719    0.30000001    2.75000000
   16.86388969  140.26899719    0.31999999    2.75000000
   16.86805534  132.56700134    0.31999999    2.75000000
   16.87138939  136.27400208    0.34000000    2.75000000
   16.87444496  134.07899475    0.34000000    2.75000000
   16.87666702  123.27200317    0.34000000    2.75000000
   16.87833405  140.98100281    0.34000000    2.75000000
   16.88138962  136.00999451    0.36000001    2.75000000
   16.88472176  130.24400330    0.36000001    2.75000000
   16.88805580  123.41600037    0.36000001    2.75000000
   16.89111137  131.03500366    0.36000001    2.75000000
   16.89444351  125.12200165    0.36000001    2.75000000
   16.89777756  134.94099426    0.36000001    2.75000000
   16.90083313  127.89600372    0.36000001    2.75000000
   16.90666580  127.89600372    0.38000000    2.75000000
   16.91083336  130.07200623    0.38000000    2.75000000
   16.91416550  131.20399475    0.38000000    2.75000000
   16.91722107  123.04799652    0.38000000    2.75000000
   16.92055511  131.07899475    0.36000001    2.75000000
   16.92388916  120.35099792    0.34000000    2.75000000
   16.92694473  132.51199341    0.34000000    2.75000000
   16.93027687  119.25000000    0.31999999    2.75000000
   16.93333244  126.25900269    0.30000001    2.75000000
   16.93666649  126.91200256    0.30000001    2.75000000
   16.93999863  106.43399811    0.30000001    2.75000000
   16.94305420  120.18699646    0.30000001    2.75000000
   16.94361115  118.64700317    0.30000001    2.75000000
   16.94944382  118.64700317    0.28000000    2.75000000
   16.95361137  119.40799713    0.28000000    2.75000000
   16.95694542  106.70700073    0.28000000    2.75000000
   16.96027946  116.29000092    0.28000000    2.75000000
   16.96333504  124.02700043    0.28000000    2.75000000
   16.96666718  114.87799835    0.28000000    2.75000000
   16.96972275  122.16999817    0.30000001    2.75000000
   16.97305679  120.40299988    0.28000000    2.75000000
   16.97638893  117.11199951    0.28000000    2.75000000
   16.97694588  126.80599976    0.30000001    2.75000000
   16.98000145  107.42099762    0.28000000    2.75000000
   16.98333359  114.36100006    0.30000001    2.75000000
   16.98638916  122.49800110    0.28000000    2.75000000
   16.99250031  122.49800110    0.31999999    2.75000000
   16.99666786  120.23799896    0.30000001    2.75000000
   16.99972153  129.72099304    0.30000001    2.75000000
   17.00305557  118.51599884    0.30000001    2.75000000
   17.00638962  125.77600098    0.30000001    2.75000000
   17.00944519  117.93599701    0.31999999    2.73000002
   17.01027870  116.66899872    0.31999999    2.73000002
   17.01305580  120.84500122    0.31999999    2.75000000
   17.01638794  123.60299683    0.31999999    2.75000000
   17.01944351  116.09999847    0.31999999    2.75000000
   17.02277756  121.95400238    0.36000001    2.75000000
   17.02583313  129.80999756    0.38000000    2.75000000
   17.02916718  122.01799774    0.36000001    2.75000000
   17.03527641  122.01799774    0.36000001    2.75000000
   17.03944397  134.85499573    0.36000001    2.75000000
   17.04249954  124.97699738    0.36000001    2.73000002
   17.04361153  129.57400513    0.34000000    2.75000000
   17.04638863  129.30299377    0.34000000    2.75000000
   17.04972076  117.61399841    0.34000000    2.75000000
   17.05277634  130.59100342    0.34000000    2.75000000
   17.05611038  124.68399811    0.34000000    2.73000002
   17.05916595  130.45300293    0.34000000    2.75000000
   17.06250000  121.58000183    0.31999999    2.75000000
   17.06583214  110.37599945    0.31999999    2.75000000
   17.06888962  125.88500214    0.31999999    2.75000000
   17.07222366  124.75800323    0.30000001    2.75000000
   17.07805634  124.75800323    0.30000001    2.73000002
   17.08222389  122.75000000    0.31999999    2.75000000
   17.08555603  105.87999725    0.31999999    2.75000000
   17.08861160  111.87799835    0.30000001    2.75000000
   17.09194565  119.87300110    0.30000001    2.75000000
   17.09527779  125.05999756    0.30000001    2.75000000
   17.09833336  116.71499634    0.30000001    2.75000000
   17.10166740  126.24800110    0.31999999    2.75000000
   17.10499954  133.44999695    0.30000001    2.75000000
   17.10805511  123.57199860    0.30000001    2.75000000
   17.11027908  131.60899353    0.30000001    2.75000000
   17.11166763  120.63899994    0.30000001    2.75000000
   17.11499977  119.08999634    0.30000001    2.75000000
   17.12083435  119.08999634    0.28000000    2.75000000
   17.12500000  117.45500183    0.28000000    2.75000000
   17.12833405  122.21099854    0.28000000    2.73000002
   17.13166618  124.65299988    0.28000000    2.75000000
   17.13472176  125.16100311    0.28000000    2.75000000
   17.13805580  134.42700195    0.28000000    2.75000000
   17.14111137  127.39299774    0.25999999    2.75000000
   17.14361191  126.31700134    0.25999999    2.75000000
   17.14500046  122.25499725    0.28000000    2.73000002
   17.14833260  127.48300171    0.28000000    2.75000000
   17.15138817  119.51499939    0.25999999    2.75000000
   17.15472221  133.66400146    0.25999999    2.75000000
   17.15777779  114.79499817    0.28000000    2.75000000
   17.16388893  114.79499817    0.25999999    2.75000000
   17.16805458  129.18299866    0.28000000    2.75000000
   17.17111015  129.69999695    0.25999999    2.75000000
   17.17444420  122.44100189    0.28000000    2.75000000
   17.17694473  127.64299774    0.25999999    2.75000000
   17.17805481  123.60399628    0.25999999    2.75000000
   17.18138885  121.17900085    0.28000000    2.75000000
   17.18444443  127.46900177    0.28000000    2.75000000
   17.18777657  119.21700287    0.28000000    2.75000000
   17.19111061  128.22599792    0.28000000    2.75000000
   17.19416618  124.42299652    0.28000000    2.75000000
   17.19749832  124.57900238    0.28000000    2.75000000
   17.20055580  116.44699860    0.30000001    2.73000002
   17.20666695  116.44699860    0.30000001    2.75000000
   17.21083450  121.76300049    0.30000001    2.75000000
   17.21389008  121.62400055    0.30000001    2.75000000
   17.21722221  117.60299683    0.30000001    2.75000000
   17.22055626  127.01399994    0.30000001    2.75000000
   17.22361183  115.96499634    0.30000001    2.75000000
   17.22694588  128.52200317    0.30000001    2.75000000
   17.23027802  127.56999969    0.30000001    2.75000000
   17.23333359  138.97200012    0.30000001    2.75000000
   17.23666763  126.51000214    0.28000000    2.75000000
   17.23999977  132.94500732    0.28000000    2.75000000
   17.24305534  131.81199646    0.28000000    2.75000000
   17.24361229  125.60299683    0.28000000    2.75000000
   17.24944496  125.60299683    0.30000001    2.75000000
   17.25361061  134.33299255    0.30000001    2.73000002
   17.25694466  124.81999969    0.30000001    2.73000002
   17.26000023  135.12600708    0.30000001    2.75000000
   17.26333427  119.82800293    0.30000001    2.75000000
   17.26666641  124.09899902    0.30000001    2.73000002
   17.26972198  125.59300232    0.30000001    2.75000000
   17.27305603  121.74299622    0.30000001    2.75000000
   17.27611160  122.09600067    0.30000001    2.73000002
   17.27694511  124.36599731    0.30000001    2.75000000
   17.27972221  120.72200012    0.30000001    2.73000002
   17.28305435  125.06099701    0.30000001    2.75000000
   17.28610992  130.66900635    0.31999999    2.75000000
   17.29222107  130.66900635    0.31999999    2.75000000
   17.29638863  117.93900299    0.31999999    2.75000000
   17.29972076  132.37899780    0.31999999    2.73000002
   17.30277634  121.86799622    0.31999999    2.75000000
   17.30611038  122.85800171    0.31999999    2.75000000
   17.30944443  131.12500000    0.31999999    2.75000000
   17.31027794  132.08099365    0.31999999    2.75000000
   17.31305504  128.56799316    0.31999999    2.75000000
   17.31638718  127.89600372    0.31999999    2.75000000
   17.31944466  128.43099976    0.30000001    2.75000000
   17.32277870  134.97000122    0.30000001    2.75000000
   17.32611275  133.70599365    0.30000001    2.73000002
   17.32916832  132.48399353    0.31999999    2.75000000
   17.33527756  132.48399353    0.30000001    2.75000000
   17.33916664  120.64900208    0.31999999    2.75000000
   17.34250069  130.21800232    0.30000001    2.75000000
   17.34361267  128.77499390    0.30000001    2.75000000
   17.34611130  135.05200195    0.30000001    2.75000000
   17.34944534  131.62699890    0.30000001    2.75000000
   17.35250092  127.41500092    0.30000001    2.75000000
   17.35583305  140.55799866    0.30000001    2.75000000
   17.35916710  137.13099670    0.30000001    2.75000000
   17.36222267  129.25799561    0.30000001    2.75000000
   17.36555672  133.88000488    0.30000001    2.75000000
   17.36861038  126.89499664    0.30000001    2.75000000
   17.37194443  129.88600159    0.30000001    2.73000002
   17.37805557  129.88600159    0.30000001    2.73000002
   17.38222313  139.69400024    0.30000001    2.75000000
   17.38527679  120.64199829    0.30000001    2.75000000
   17.38861084  129.10099792    0.30000001    2.75000000
   17.39194489  135.11999512    0.30000001    2.73000002
   17.39500046  132.76199341    0.30000001    2.73000002
   17.39833260  132.99899292    0.30000001    2.75000000
   17.40166664  128.23199463    0.30000001    2.75000000
   17.40472221  121.76300049    0.30000001    2.75000000
   17.40805435  128.65100098    0.30000001    2.73000002
   17.41027832  134.84899902    0.30000001    2.73000002
   17.41166687  128.10800171    0.30000001    2.73000002
   17.41499901  132.53799438    0.30000001    2.73000002
   17.42083359  132.53799438    0.30000001    2.75000000
   17.42499924  138.33900452    0.30000001    2.75000000
   17.42833328  127.98100281    0.30000001    2.73000002
   17.43138885  129.30499268    0.30000001    2.75000000
   17.43472099  131.80200195    0.30000001    2.75000000
   17.43777657  134.75399780    0.30000001    2.75000000
   17.44111061  128.73100281    0.30000001    2.75000000
   17.44361115  129.66400146    0.30000001    2.75000000
   17.44472122  125.40000153    0.30000001    2.75000000
   17.44805527  137.01800537    0.30000001    2.75000000
   17.45111275  126.22699738    0.30000001    2.73000002
   17.45444489  102.86699677    0.31999999    2.75000000
   17.45777893  119.21299744    0.30000001    2.75000000
   17.46361160  119.21299744    0.30000001    2.75000000
   17.46777916  128.60899353    0.30000001    2.75000000
   17.47111130  126.94699860    0.30000001    2.75000000
   17.47444534  117.49199677    0.30000001    2.75000000
   17.47694588  131.42199707    0.30000001    2.75000000
   17.47805595  116.65599823    0.30000001    2.75000000
   17.48139000  124.59100342    0.30000001    2.75000000
   17.48472214  131.40600586    0.30000001    2.73000002
   17.48777771  135.43499756    0.30000001    2.75000000
   17.49111176  134.07699585    0.28000000    2.73000002
   17.49416733  124.42700195    0.30000001    2.76999998
   17.49749947  135.91000366    0.30000001    2.76999998
   17.50083351  136.29899597    0.28000000    2.73000002
   17.50666618  136.29899597    0.31999999    2.75000000
   17.51055527  133.86000061    0.30000001    2.73000002
   17.51388931  130.52799988    0.30000001    2.75000000
   17.51722145  124.41000366    0.30000001    2.75000000
   17.52027702  124.24700165    0.30000001    2.75000000
   17.52361107  126.95300293    0.31999999    2.75000000
   17.52666664  128.30000305    0.31999999    2.75000000
   17.53000069  138.11300659    0.31999999    2.75000000
   17.53333282  134.55299377    0.31999999    2.75000000
   17.53638840  133.70700073    0.34000000    2.75000000
   17.53972244  134.34399414    0.34000000    2.75000000
   17.54305458  132.30900574    0.31999999    2.75000000
   17.54361153  135.81700134    0.31999999    2.73000002
   17.54944420  135.81700134    0.31999999    2.75000000
   17.55360985  129.55299377    0.31999999    2.73000002
   17.55666542  129.02200317    0.31999999    2.73000002
   17.55999947  138.88499451    0.34000000    2.73000002
   17.56305504  128.12699890    0.34000000    2.75000000
   17.56638718  131.50500488    0.34000000    2.75000000
   17.56972313  139.39599609    0.34000000    2.75000000
   17.57305717  134.74800110    0.34000000    2.75000000
   17.57611275  140.11099243    0.36000001    2.75000000
   17.57694626  128.26699829    0.36000001    2.75000000
   17.57972336  130.36599731    0.34000000    2.73000002
   17.58305550  143.15199280    0.34000000    2.73000002
   17.58611107  138.90199280    0.34000000    2.75000000
   17.59222221  138.90199280    0.31999999    2.75000000
   17.59638977  121.12400055    0.31999999    2.75000000
   17.59972191  146.26100159    0.34000000    2.75000000
   17.60277748  126.78600311    0.31999999    2.75000000
   17.60611153  141.41099548    0.31999999    2.73000002
   17.60916710  135.68099976    0.34000000    2.75000000
   17.61027908  124.57299805    0.34000000    2.75000000
   17.61277771  139.49699402    0.34000000    2.75000000
   17.61611176  136.00999451    0.38000000    2.73000002
   17.61916733  144.42500305    0.38000000    2.73000002
   17.62249947  140.66799927    0.38000000    2.75000000
   17.62583351  143.99800110    0.36000001    2.73000002
   17.62888908  137.36599731    0.36000001    2.75000000
   17.63500023  137.36599731    0.34000000    2.73000002
   17.63916588  136.46499634    0.34000000    2.75000000
   17.64249992  135.57000732    0.31999999    2.75000000
   17.64388847  142.84899902    0.31999999    2.75000000
   17.64611053  149.57000732    0.30000001    2.73000002
   17.64944458  138.55900574    0.30000001    2.73000002
   17.65250015  131.69599915    0.30000001    2.75000000
   17.65583229  139.34599304    0.31999999    2.73000002
   17.65916634  127.34700012    0.31999999    2.75000000
   17.66222191  140.39799500    0.30000001    2.73000002
   17.66555595  149.96699524    0.30000001    2.73000002
   17.66888809  137.05799866    0.28000000    2.73000002
   17.67194366  139.98100281    0.28000000    2.75000000
   17.67805481  139.98100281    0.28000000    2.75000000
   17.68194389  130.10800171    0.25999999    2.75000000
   17.68527603  129.24400330    0.28000000    2.75000000
   17.68861008  134.10200500    0.28000000    2.75000000
   17.69166565  142.21200562    0.28000000    2.73000002
   17.69499969  146.49499512    0.28000000    2.73000002
   17.69805527  137.93200684    0.28000000    2.75000000
   17.70138931  144.65499878    0.28000000    2.75000000
   17.70472336  138.74800110    0.30000001    2.73000002
   17.70777893  136.79499817    0.30000001    2.75000000
   17.71055603  128.74899292    0.30000001    2.75000000
   17.71138954  124.53800201    0.30000001    2.75000000
   17.71472359  126.38400269    0.30000001    2.75000000
   17.72083473  126.38400269    0.30000001    2.73000002
   17.72500038  136.69700623    0.30000001    2.73000002
   17.72805595  135.97700500    0.30000001    2.73000002
   17.73139000  135.51100159    0.28000000    2.73000002
   17.73444557  140.26800537    0.25999999    2.75000000
   17.73777771  139.64799500    0.25999999    2.75000000
   17.74111176  135.11099243    0.25999999    2.75000000
   17.74388885  137.23100281    0.25999999    2.73000002
   17.74472237  144.68200684    0.25999999    2.73000002
   17.74805641  128.28199768    0.25999999    2.75000000
   17.75138855  134.21000671    0.25999999    2.73000002
   17.75444412  124.25000000    0.25999999    2.75000000
   17.75777817  126.36699677    0.25999999    2.75000000
   17.76361084  126.36699677    0.25999999    2.75000000
   17.76777840  123.53399658    0.25999999    2.73000002
   17.77111053  129.67300415    0.25000000    2.75000000
   17.77416611  143.40199280    0.25999999    2.73000002
   17.77722168  120.97799683    0.25999999    2.75000000
   17.77777672  128.10699463    0.25999999    2.75000000
   17.78111076  120.44999695    0.25000000    2.75000000
   17.78444481  130.69700623    0.25000000    2.73000002
   17.78750038  111.78199768    0.25000000    2.73000002
   17.79083252  130.16999817    0.25000000    2.75000000
   17.79416656  117.66200256    0.25000000    2.75000000
   17.79722214  144.48300171    0.25000000    2.73000002
   17.80055428  128.04100037    0.25000000    2.73000002
   17.80638885  128.04100037    0.25000000    2.75000000
   17.81055450  125.19499969    0.25999999    2.73000002
   17.81388855  122.33399963    0.25999999    2.73000002
   17.81694603  130.36300659    0.25999999    2.73000002
   17.82027817  130.85499573    0.25999999    2.73000002
   17.82361221  130.78799438    0.25999999    2.75000000
   17.82666779  118.16799927    0.28000000    2.73000002
   17.83000183  131.94099426    0.25999999    2.73000002
   17.83305550  126.41300201    0.25999999    2.75000000
   17.83638954  139.03300476    0.25999999    2.73000002
   17.83972359  117.99199677    0.25999999    2.73000002
   17.84277916  132.52499390    0.28000000    2.73000002
   17.84388924  127.90200043    0.25999999    2.73000002
   17.84916687  127.90200043    0.25999999    2.73000002
   17.85333443  108.02799988    0.25999999    2.73000002
   17.85666656  134.10699463    0.28000000    2.73000002
   17.86000061  135.55299377    0.28000000    2.73000002
   17.87750053  125.02600098    0.30000001    2.73000002
   17.88000107  133.04699707    0.34000000    2.73000002
   17.88305473  131.85299683    0.34000000    2.73000002
   17.88638878  124.50000000    0.31999999    2.73000002
   17.89222145  124.50000000    0.31999999    2.75000000
   17.89638901  121.37899780    0.31999999    2.73000002
   17.89972115  122.75199890    0.30000001    2.73000002
   17.90305519  129.07099915    0.28000000    2.73000002
   17.90611076  131.56799316    0.28000000    2.73000002
   17.90944481  126.79499817    0.30000001    2.75000000
   17.91055489  132.02400208    0.28000000    2.73000002
   17.91305542  132.06199646    0.30000001    2.73000002
   17.91638756  135.95799255    0.31999999    2.73000002
   17.91972160  134.44599915    0.30000001    2.75000000
   17.92277718  126.25700378    0.30000001    2.73000002
   17.92611122  128.25000000    0.30000001    2.73000002
   17.92916679  127.22200012    0.28000000    2.73000002
   17.93527603  127.22200012    0.30000001    2.71000004
   17.93916512  133.03700256    0.28000000    2.73000002
   17.94249916  119.70300293    0.28000000    2.73000002
   17.94416618  136.23899841    0.28000000    2.73000002
   17.94638824  123.51799774    0.28000000    2.73000002
   17.94944382  132.21099854    0.28000000    2.73000002
   17.95277786  134.47799683    0.30000001    2.71000004
   17.95611191  120.80200195    0.28000000    2.73000002
   17.95944595  129.67300415    0.30000001    2.71000004
   17.96250153  121.76300049    0.30000001    2.71000004
   17.96583366  128.26100159    0.28000000    2.75000000
   17.96916771  122.97599792    0.28000000    2.71000004
   17.97222328  134.09399414    0.28000000    2.73000002
   17.97805595  134.09399414    0.30000001    2.73000002
   17.98222351  131.30999756    0.28000000    2.73000002
   17.98527718  138.28999329    0.30000001    2.73000002
   17.98861122  135.89999390    0.30000001    2.73000002
   17.99194527  123.94499969    0.30000001    2.73000002
   17.99500084  113.54299927    0.30000001    2.73000002
   17.99833298  131.63900757    0.30000001    2.73000002
   18.00166702  131.84399414    0.31999999    2.73000002
   18.00472260  122.23600006    0.31999999    2.73000002
   18.00805473  140.85800171    0.73000002    2.73000002
   18.01083374  132.66799927    0.56999999    2.71000004
   18.01166725  128.78799438    0.55000001    2.73000002
   18.01499939  131.96600342    0.41999999    2.71000004
   18.02083397  131.96600342    0.31999999    2.71000004
   18.02499962  129.40800476    0.31999999    2.71000004
   18.02833366  131.10699463    0.31999999    2.73000002
   18.03138924  133.26499939    0.31999999    2.73000002
   18.03472137  124.53199768    0.34000000    2.73000002
   18.03777695  130.11999512    0.34000000    2.73000002
   18.04111099  137.39700317    0.34000000    2.71000004
   18.04416656  131.52499390    0.36000001    2.71000004
   18.04472160  128.68600464    0.36000001    2.71000004
   18.04805565  129.72399902    0.36000001    2.71000004
   18.05111122  139.07600403    0.36000001    2.73000002
   18.05444336  134.25700378    0.34000000    2.73000002
   18.05777740  126.61299896    0.34000000    2.73000002
   18.06361008  126.61299896    0.34000000    2.73000002
   18.06777954  125.82900238    0.34000000    2.71000004
   18.07111168  140.18200684    0.34000000    2.71000004
   18.07444572  136.79600525    0.34000000    2.73000002
   18.07750130  126.01200104    0.34000000    2.73000002
   18.07777786  132.84599304    0.34000000    2.73000002
   18.08111191  133.36999512    0.34000000    2.73000002
   18.08416748  137.30900574    0.34000000    2.73000002
   18.08750153  133.41400146    0.36000001    2.73000002
   18.09083366  142.63600159    0.36000001    2.73000002
   18.09388924  123.78900146    0.36000001    2.73000002
   18.09722328  129.15699768    0.36000001    2.71000004
   18.10055542  133.97700500    0.40000001    2.73000002
   18.10666656  133.97700500    0.40000001    2.71000004
   18.11083412  115.35700226    0.40000001    2.71000004
   18.11111069  123.68000031    0.40000001    2.71000004
   18.11444473  114.70300293    0.40000001    2.71000004
   18.11750031  126.01599884    0.41999999    2.71000004
   18.12083435  124.90499878    0.40000001    2.71000004
   18.12416649  128.19799805    0.41999999    2.71000004
   18.12722206  124.16500092    0.40000001    2.73000002
   18.13055611  121.80699921    0.40000001    2.71000004
   18.13388824  124.11900330    0.40000001    2.73000002
   18.13694382  131.68600464    0.40000001    2.71000004
   18.14027786  124.82099915    0.41999999    2.71000004
   18.14361191  127.40899658    0.40000001    2.71000004
   18.14416695  130.27600098    0.40000001    2.71000004
   18.14944458  130.27600098    0.41999999    2.73000002
   18.15361023  126.96099854    0.40000001    2.71000004
   18.15666580  120.38999939    0.40000001    2.71000004
   18.15999985  123.41500092    0.40000001    2.71000004
   18.16333389  123.20400238    0.40000001    2.71000004
   18.16638756  123.00399780    0.40000001    2.71000004
   18.16972160  122.71800232    0.40000001    2.71000004
   18.17305565  122.30899811    0.40000001    2.71000004
   18.17611122  127.78199768    0.40000001    2.71000004
   18.17749977  107.46900177    0.38000000    2.71000004
   18.17972183  122.13600159    0.38000000    2.71000004
   18.18305397  126.38700104    0.38000000    2.71000004
   18.18638802  127.19899750    0.38000000    2.71000004
   18.19222069  127.19899750    0.38000000    2.71000004
   18.19638824  119.47399902    0.40000001    2.71000004
   18.19972038  120.42600250    0.41999999    2.71000004
   18.20277786  124.01200104    0.41999999    2.71000004
   18.20611191  124.01000214    0.40000001    2.71000004
   18.20916748  118.05000305    0.40000001    2.71000004
   18.21083450  129.33500671    0.38000000    2.73000002
   18.21277809  120.10500336    0.38000000    2.71000004
   18.21611214  127.44200134    0.38000000    2.71000004
   18.21944427  117.65399933    0.38000000    2.69000006
   18.22249985  120.34100342    0.38000000    2.73000002
   18.22583389  117.91500092    0.38000000    2.71000004
   18.22888947  131.44099426    0.38000000    2.71000004
   18.23500061  131.44099426    0.40000001    2.71000004
   18.23916626  128.65199280    0.41999999    2.71000004
   18.24250031  128.08700562    0.41999999    2.71000004
   18.24416733  130.08799744    0.41999999    2.71000004
   18.24611092  133.59500122    0.41999999    2.71000004
   18.24944496  119.78299713    0.41999999    2.71000004
   18.25277710  131.48199463    0.38000000    2.71000004
   18.25583267  128.19500732    0.38000000    2.71000004
   18.25916672  115.38300323    0.38000000    2.71000004
   18.26250076  123.70200348    0.38000000    2.71000004
   18.26555634  129.09500122    0.38000000    2.71000004
   18.26888847  124.99600220    0.38000000    2.71000004
   18.27194405  125.41000366    0.40000001    2.71000004
   18.27805519  125.41000366    0.40000001    2.71000004
   18.28194427  133.11700439    0.40000001    2.71000004
   18.28527641  123.66899872    0.38000000    2.71000004
   18.28861046  130.60899353    0.38000000    2.71000004
   18.29166603  129.95399475    0.38000000    2.71000004
   18.29500008  129.14300537    0.38000000    2.71000004
   18.29833221  135.68499756    0.38000000    2.71000004
   18.30138779  126.91400146    0.36000001    2.71000004
   18.30472183  149.80900574    0.36000001    2.71000004
   18.30805397  129.92599487    0.36000001    2.71000004
   18.31083298  123.07700348    0.36000001    2.71000004
   18.31138802  138.61000061    0.36000001    2.71000004
   18.31472206  136.81399536    0.36000001    2.71000004
   18.32083511  136.81399536    0.34000000    2.71000004
   18.32500076  133.31599426    0.36000001    2.71000004
   18.32805634  123.77700043    0.34000000    2.71000004
   18.33139038  126.76699829    0.36000001    2.69000006
   18.33472252  125.12899780    0.38000000    2.71000004
   18.33777809  124.74700165    0.36000001    2.71000004
   18.34111214  141.73100281    0.36000001    2.71000004
   18.34416771  135.90800476    0.38000000    2.71000004
   18.34472275  131.69599915    0.38000000    2.71000004
   18.34805679  137.53599548    0.38000000    2.71000004
   18.35138893  131.74200439    0.36000001    2.71000004
   18.35444450  125.65499878    0.38000000    2.71000004
   18.35777855  130.19700623    0.38000000    2.71000004
   18.36361122  130.19700623    0.38000000    2.69000006
   18.36777878  133.96299744    0.38000000    2.69000006
   18.37111092  127.23100281    0.38000000    2.71000004
   18.37416649  140.55499268    0.38000000    2.71000004
   18.37750053  136.06100464    0.38000000    2.69000006
   18.37777710  136.65499878    0.38000000    2.69000006
   18.38111115  128.28399658    0.36000001    2.71000004
   18.38444519  129.07800293    0.38000000    2.71000004
   18.38750076  127.14800262    0.38000000    2.71000004
   18.39083290  131.39700317    0.38000000    2.71000004
   18.39388847  122.39099884    0.38000000    2.69000006
   18.39722252  127.98300171    0.38000000    2.71000004
   18.40055466  140.23599243    0.36000001    2.69000006
   18.40638924  140.23599243    0.40000001    2.71000004
   18.41055489  134.87699890    0.41999999    2.71000004
   18.41110992  132.27600098    0.41999999    2.71000004
   18.41444397  124.83599854    0.41999999    2.69000006
   18.41749954  129.60299683    0.44000000    2.69000006
   18.42083359  128.13900757    0.44000000    2.69000006
   18.42416573  123.36100006    0.41999999    2.69000006
   18.42722130  122.42600250    0.41999999    2.69000006
   18.43055534  124.41300201    0.44000000    2.69000006
   18.43388748  143.32400513    0.44000000    2.69000006
   18.43694305  131.58099365    0.44000000    2.69000006
   18.44027710  123.61499786    0.41999999    2.71000004
   18.44333267  126.72799683    0.41999999    2.69000006
   18.44444275  129.74099731    0.40000001    2.71000004
   18.44944382  129.74099731    0.40000001    2.69000006
   18.45333481  133.06500244    0.40000001    2.71000004
   18.45666695  131.08299255    0.40000001    2.71000004
   18.46000099  114.73300171    0.40000001    2.71000004
   18.46305656  136.64199829    0.40000001    2.71000004
   18.46638870  126.49900055    0.41999999    2.69000006
   18.46972275  121.57700348    0.41999999    2.69000006
   18.47277832  127.67800140    0.41999999    2.69000006
   18.47611237  134.98199463    0.41999999    2.69000006
   18.47777748  121.57900238    0.41999999    2.69000006
   18.47972298  126.61799622    0.41999999    2.69000006
   18.48305511  128.71699524    0.41999999    2.69000006
   18.48611069  118.40899658    0.44000000    2.69000006
   18.49222183  118.40899658    0.40000001    2.69000006
   18.49638939  141.98199463    0.38000000    2.69000006
   18.49944496  126.48000336    0.36000001    2.69000006
   18.50277710  124.66000366    0.38000000    2.69000006
   18.50611115  132.87699890    0.38000000    2.69000006
   18.50916672  130.72300720    0.36000001    2.71000004
   18.51111031  133.83099365    0.36000001    2.71000004
   18.51305580  130.33000183    0.36000001    2.69000006
   18.51611137  131.80700684    0.36000001    2.69000006
   18.51944351  140.53399658    0.36000001    2.69000006
   18.52277756  137.20799255    0.36000001    2.69000006
   18.52583313  134.69900513    0.38000000    2.69000006
   18.52916718  126.73899841    0.36000001    2.71000004
   18.53499985  126.73899841    0.38000000    2.69000006
   18.53916550  125.44100189    0.36000001    2.69000006
   18.54249954  126.51499939    0.36000001    2.69000006
   18.54444313  129.73199463    0.36000001    2.69000006
   18.54611015  127.28099823    0.36000001    2.69000006
   18.54916573  133.01699829    0.36000001    2.67000008
   18.55249977  134.83299255    0.36000001    2.69000006
   18.55583191  128.88900757    0.36000001    2.69000006
   18.55888748  128.71499634    0.34000000    2.69000006
   18.56222153  123.23100281    0.34000000    2.69000006
   18.56555557  124.28399658    0.34000000    2.69000006
   18.56861115  133.11099243    0.36000001    2.69000006
   18.57194519  125.23699951    0.34000000    2.69000006
   18.57777786  125.23699951    0.34000000    2.69000006
   18.58194542  137.05499268    0.34000000    2.69000006
   18.58527756  127.81199646    0.34000000    2.69000006
   18.58833313  130.89199829    0.34000000    2.69000006
   18.59166718  138.19299316    0.36000001    2.69000006
   18.59500122  139.88699341    0.36000001    2.69000006
   18.59805679  139.10899353    0.38000000    2.69000006
   18.60138893  124.76000214    0.38000000    2.69000006
   18.60444450  123.28299713    0.40000001    2.69000006
   18.60777855  132.41999817    0.38000000    2.69000006
   18.61111069  126.17299652    0.38000000    2.69000006
   18.61277771  132.28399658    0.38000000    2.69000006
   18.61472321  138.55299377    0.38000000    2.69000006
   18.62083435  138.55299377    0.38000000    2.69000006
   18.62472153  124.01399994    0.38000000    2.67000008
   18.62805557  135.67300415    0.40000001    2.69000006
   18.63138962  139.91000366    0.38000000    2.69000006
   18.63444519  134.77900696    0.38000000    2.69000006
   18.63777733  127.59300232    0.40000001    2.67000008
   18.64111137  126.52400208    0.40000001    2.67000008
   18.64416695  128.44099426    0.38000000    2.67000008
   18.64611053  123.71800232    0.38000000    2.67000008
   18.64777756  135.63299561    0.40000001    2.69000006
   18.65111160  138.73699951    0.40000001    2.67000008
   18.65416718  131.24899292    0.40000001    2.67000008
   18.65749931  132.49000549    0.40000001    2.67000008
   18.66361046  132.49000549    0.40000001    2.69000006
   18.66777802  123.08999634    0.40000001    2.67000008
   18.67083359  135.04400635    0.40000001    2.67000008
   18.67416573  128.77600098    0.44000000    2.69000006
   18.67722130  127.46099854    0.44000000    2.69000006
   18.67972183  122.78299713    0.44000000    2.67000008
   18.68111038  129.43400574    0.44000000    2.67000008
   18.68416595  127.62400055    0.44000000    2.67000008
   18.68750000  129.15800476    0.44000000    2.69000006
   18.69083214  127.00800323    0.44000000    2.67000008
   18.69388771  134.72399902    0.44000000    2.67000008
   18.69722176  132.36700439    0.41999999    2.69000006
   18.70055580  119.85399628    0.44000000    2.67000008
   18.70639038  119.85399628    0.41999999    2.67000008
   18.71055603  139.81900024    0.41999999    2.67000008
   18.71305656  150.11099243    0.41999999    2.67000008
   18.71416664  129.07800293    0.41999999    2.67000008
   18.71750069  131.08099365    0.41999999    2.67000008
   18.72055626  131.95199585    0.44000000    2.67000008
   18.72389030  128.49299622    0.44000000    2.67000008
   18.72694588  126.44400024    0.44000000    2.67000008
   18.73027802  120.13099670    0.44000000    2.67000008
   18.73361206  125.53700256    0.44000000    2.67000008
   18.73666763  129.18099976    0.46000001    2.69000006
   18.73999977  135.84800720    0.46000001    2.67000008
   18.74333382  127.86900330    0.46000001    2.67000008
   18.74916649  127.86900330    0.46000001    2.67000008
   18.75333405  128.53199768    0.41999999    2.67000008
   18.75666618  126.11399841    0.44000000    2.67000008
   18.75972176  120.18599701    0.44000000    2.67000008
   18.76305580  130.30000305    0.44000000    2.67000008
   18.76638794  127.26499939    0.46000001    2.67000008
   18.76944351  133.47099304    0.44000000    2.67000008
   18.77277756  136.49600220    0.44000000    2.69000006
   18.77583313  132.90100098    0.44000000    2.69000006
   18.77916718  137.08000183    0.44000000    2.69000006
   18.78000069  125.28800201    0.41999999    2.67000008
   18.78277779  139.80499268    0.41999999    2.67000008
   18.78610992  131.23699951    0.40000001    2.67000008
   18.79194450  131.23699951    0.38000000    2.67000008
   18.79611015  124.40100098    0.34000000    2.67000008
   18.79944420  132.22599792    0.34000000    2.67000008
   18.80277634  139.03900146    0.36000001    2.67000008
   18.80583191  125.55599976    0.34000000    2.67000008
   18.80916595  127.72499847    0.34000000    2.67000008
   18.81222153  121.79299927    0.34000000    2.67000008
   18.81333351  126.02400208    0.34000000    2.67000008
   18.81583214  121.94400024    0.34000000    2.67000008
   18.81916809  128.48899841    0.36000001    2.67000008
   18.82222366  126.75499725    0.38000000    2.67000008
   18.82555580  126.52999878    0.38000000    2.67000008
   18.82888985  127.72599792    0.38000000    2.67000008
   18.83500099  127.72599792    0.36000001    2.67000008
   18.83916664  130.53900146    0.36000001    2.67000008
   18.84222221  128.95899963    0.38000000    2.67000008
   18.84555626  130.33799744    0.38000000    2.66000009
   18.84694481  131.36999512    0.38000000    2.66000009
   18.84916687  126.82399750    0.40000001    2.66000009
   18.85250092  138.08900452    0.41999999    2.67000008
   18.85555649  136.72799683    0.41999999    2.67000008
   18.85888863  125.87500000    0.44000000    2.66000009
   18.86194420  124.30100250    0.44000000    2.66000009
   18.86527824  125.71299744    0.44000000    2.67000008
   18.86861038  128.96000671    0.44000000    2.67000008
   18.87166595  126.20600128    0.41999999    2.67000008
   18.87805557  126.20600128    0.41999999    2.67000008
   18.89638901  122.14399719    0.46000001    2.66000009
   18.89944458  127.55999756    0.46000001    2.66000009
   18.90277672  126.71099854    0.47999999    2.66000009
   18.90611076  134.10499573    0.47999999    2.66000009
   18.90916634  129.55999756    0.50000000    2.67000008
   18.91250038  134.71699524    0.50000000    2.67000008
   18.91583252  119.40399933    0.46000001    2.67000008
   18.92083359  119.40399933    0.50000000    2.66000009
   18.92499924  123.26999664    0.50000000    2.66000009
   18.92805481  136.88200378    0.55000001    2.66000009
   18.92944336  127.47399902    0.55000001    2.66000009
   18.93166542  135.27999878    0.55000001    2.66000009
   18.93499947  130.04800415    0.56999999    2.66000009
   18.93833160  138.32400513    0.56999999    2.66000009
   18.94138718  120.48400116    0.55000001    2.67000008
   18.94472122  127.28600311    0.52999997    2.66000009
   18.94805527  124.94400024    0.52999997    2.66000009
   18.95111275  128.05499268    0.51999998    2.66000009
   18.95444489  121.28399658    0.52999997    2.66000009
   18.95777893  131.07400513    0.47999999    2.66000009
   18.96361160  131.07400513    0.47999999    2.66000009
   18.96777916  128.18099976    0.46000001    2.66000009
   18.97083473  112.99500275    0.46000001    2.66000009
   18.97416687  124.68000031    0.46000001    2.66000009
   18.97750092  131.35400391    0.46000001    2.66000009
   18.98055649  144.40699768    0.46000001    2.64000010
   18.98388863  134.76300049    0.46000001    2.64000010
   18.98722267  131.82699585    0.50000000    2.66000009
   18.99027824  132.05700684    0.50000000    2.66000009
   18.99361229  126.91300201    0.50000000    2.64000010
   18.99611092  130.17599487    0.51999998    2.66000009
   18.99694443  129.91200256    0.51999998    2.66000009
   19.00027847  126.57499695    0.51999998    2.66000009
   19.00638962  126.57499695    0.56999999    2.66000009
   19.01055527  139.51199341    0.64999998    2.64000010
   19.01388931  140.95700073    0.64999998    2.64000010
   19.01694489  136.65299988    0.63000000    2.64000010
   19.02027702  133.08799744    0.58999997    2.64000010
   19.02361107  133.77999878    0.56999999    2.64000010
   19.02666664  124.81999969    0.55000001    2.66000009
   19.02944374  128.20799255    0.51999998    2.66000009
   19.03027725  123.33499908    0.51999998    2.64000010
   19.03361130  129.74499512    0.51999998    2.64000010
   19.03694344  134.50399780    0.51999998    2.64000010
   19.03999901  130.56300354    0.51999998    2.64000010
   19.04333305  134.07400513    0.51999998    2.64000010
   19.04944420  134.07400513    0.55000001    2.64000010
   19.05333328  124.31300354    0.63000000    2.64000010
   19.05666542  132.49899292    0.67000002    2.64000010
   19.05999947  129.50300598    0.67000002    2.64000010
   19.06277657  130.63999939    0.61000001    2.64000010
   19.06361008  130.67799377    0.63000000    2.64000010
   19.06666756  130.23199463    0.63000000    2.64000010
   19.07000160  128.98500061    0.64999998    2.64000010
   19.07305717  126.51300049    0.61000001    2.64000010
   19.07638931  129.04600525    0.63000000    2.64000010
   19.07972336  124.87300110    0.58999997    2.64000010
   19.08277893  127.95600128    0.56999999    2.64000010
   19.08611107  123.50700378    0.52999997    2.64000010
   19.09222221  123.50700378    0.58999997    2.64000010
   19.09638977  122.82399750    0.63000000    2.64000010
   19.09944534  116.69300079    0.63000000    2.64000010
   19.10277748  127.57499695    0.67000002    2.64000010
   19.10611153  126.86599731    0.63000000    2.64000010
   19.10916710  137.72000122    0.63000000    2.61999989
   19.11250114  135.21699524    0.63000000    2.64000010
   19.11583328  126.31600189    0.63000000    2.64000010
   19.11888885  125.54799652    0.63000000    2.64000010
   19.12222290  132.93099976    0.64999998    2.64000010
   19.12527847  125.23799896    0.70999998    2.64000010
   19.12861061  130.87699890    0.70999998    2.64000010
   19.12944412  129.09100342    0.70999998    2.64000010
   19.13500023  129.09100342    0.73000002    2.61999989
   19.13916588  124.55899811    0.73000002    2.64000010
   19.14249992  132.32499695    0.76999998    2.61999989
   19.14555550  129.02699280    0.75000000    2.64000010
   19.14888954  131.89900208    0.75000000    2.64000010
   19.15194321  129.55000305    0.70999998    2.64000010
   19.15527725  129.77200317    0.69000000    2.61999989
   19.15861130  127.47299957    0.69000000    2.64000010
   19.16166687  131.47500610    0.69000000    2.61999989
   19.16277695  129.80900574    0.69000000    2.61999989
   19.16555595  132.03500366    0.69000000    2.61999989
   19.16860962  132.84199524    0.70999998    2.64000010
   19.17194366  133.33700562    0.73000002    2.61999989
   19.17777634  133.33700562    0.70999998    2.61999989
   19.18194389  121.53600311    0.70999998    2.61999989
   19.18527603  124.63800049    0.75000000    2.64000010
   19.18833160  128.12500000    0.75000000    2.64000010
   19.19166565  125.91999817    0.75000000    2.61999989
   19.19499969  115.43800354    0.79000002    2.61999989
   19.19610977  130.78700256    0.79000002    2.61999989
   19.19861031  126.62400055    0.80000001    2.61999989
   19.20166779  118.04399872    0.80000001    2.61999989
   19.20499992  132.71000671    0.80000001    2.61999989
   19.20805550  145.25199890    0.80000001    2.61999989
   19.21138954  134.90400696    0.80000001    2.61999989
   19.21472359  141.80000305    0.80000001    2.61999989
   19.22083473  141.80000305    0.75000000    2.61999989
   19.22472191  141.82000732    0.73000002    2.61999989
   19.22805595  135.39599609    0.69000000    2.61999989
   19.22944450  142.53599548    0.69000000    2.61999989
   19.23194504  141.13400269    0.63000000    2.61999989
   19.23500061  138.89999390    0.63000000    2.61999989
   19.23833275  141.85000610    0.58999997    2.61999989
   19.24138832  140.19700623    0.56999999    2.61999989
   19.24472237  142.18600464    0.55000001    2.61999989
   19.24805641  137.08900452    0.55000001    2.61999989
   19.25111198  140.95899963    0.55000001    2.61999989
   19.25444412  145.74800110    0.55000001    2.61999989
   19.25777817  130.06500244    0.55000001    2.64000010
   19.26361084  130.06500244    0.55000001    2.61999989
   19.26777840  144.25399780    0.55000001    2.61999989
   19.27083397  134.39300537    0.55000001    2.61999989
   19.27416611  142.55799866    0.55000001    2.61999989
   19.27750015  128.40600586    0.56999999    2.61999989
   19.28055573  134.83799744    0.55000001    2.61999989
   19.28388786  132.16900635    0.55000001    2.59999990
   19.28722191  138.96299744    0.55000001    2.59999990
   19.29027748  139.52000427    0.55000001    2.59999990
   19.29361153  134.41900635    0.55000001    2.61999989
   19.29611015  144.88900757    0.52999997    2.61999989
   19.29722214  135.29499817    0.52999997    2.61999989
   19.30027771  110.61100006    0.55000001    2.61999989
   19.30638885  110.61100006    0.52999997    2.61999989
   19.31055450  143.66299438    0.52999997    2.59999990
   19.31388855  128.39700317    0.50000000    2.61999989
   19.31694603  140.30900574    0.47999999    2.61999989
   19.32027817  135.39900208    0.47999999    2.61999989
   19.32333374  141.34500122    0.46000001    2.59999990
   19.32666779  146.85600281    0.46000001    2.61999989
   19.32944489  129.54800415    0.46000001    2.61999989
   19.33055687  134.83799744    0.46000001    2.61999989
   19.33361244  138.64199829    0.44000000    2.59999990
   19.33694458  126.56099701    0.44000000    2.59999990
   19.34027863  133.17199707    0.44000000    2.59999990
   19.34333420  139.52400208    0.44000000    2.59999990
   19.34916687  139.52400208    0.40000001    2.59999990
   19.35333443  141.39500427    0.40000001    2.59999990
   19.35666656  143.14599609    0.38000000    2.59999990
   19.35972214  139.13000488    0.40000001    2.59999990
   19.36277771  139.73699951    0.38000000    2.61999989
   19.36361122  140.66999817    0.38000000    2.61999989
   19.36666679  137.95700073    0.38000000    2.59999990
   19.37000084  134.90800476    0.38000000    2.59999990
   19.37333298  144.74000549    0.38000000    2.59999990
   19.37638855  139.85499573    0.36000001    2.59999990
   19.37972260  135.58099365    0.36000001    2.59999990
   19.38277817  139.42700195    0.36000001    2.59999990
   19.38611031  119.37999725    0.36000001    2.59999990
   19.39222145  119.37999725    0.36000001    2.59999990
   19.39611053  136.54299927    0.34000000    2.59999990
   19.39944458  141.38499451    0.34000000    2.59999990
   19.40277672  130.27900696    0.34000000    2.59999990
   19.40583229  136.92399597    0.34000000    2.57999992
   19.40916634  133.68899536    0.34000000    2.59999990
   19.41250038  131.91299438    0.34000000    2.59999990
   19.41555595  130.24000549    0.34000000    2.57999992
   19.41888809  145.28700256    0.34000000    2.59999990
   19.42194366  150.94299316    0.34000000    2.57999992
   19.42527771  135.95399475    0.34000000    2.59999990
   19.42860985  144.32899475    0.34000000    2.59999990
   19.42944336  150.18099976    0.34000000    2.59999990
   19.43499947  150.18099976    0.34000000    2.59999990
   19.43916512  140.34800720    0.34000000    2.57999992
   19.44222069  139.01800537    0.34000000    2.57999992
   19.44555473  143.34100342    0.36000001    2.59999990
   19.44861031  139.34100342    0.36000001    2.57999992
   19.45194435  141.89300537    0.34000000    2.57999992
   19.45527840  148.80599976    0.34000000    2.57999992
   19.45861244  142.13999939    0.36000001    2.57999992
   19.46166801  142.52400208    0.36000001    2.57999992
   19.46277809  140.55400085    0.36000001    2.57999992
   19.46555710  145.24000549    0.36000001    2.57999992
   19.46861076  145.36599731    0.36000001    2.57999992
   19.47194481  137.60099792    0.38000000    2.57999992
   19.47777748  137.60099792    0.36000001    2.57999992
   19.48194504  131.79100037    0.36000001    2.57999992
   19.48500061  136.02999878    0.36000001    2.57999992
   19.48833275  133.89399719    0.36000001    2.57999992
   19.49166679  141.35200500    0.36000001    2.57999992
   19.49472237  140.07499695    0.38000000    2.57999992
   19.49611092  134.99699402    0.38000000    2.57999992
   19.49861145  129.38200378    0.38000000    2.57999992
   19.50166702  141.22200012    0.38000000    2.55999994
   19.50499916  134.61700439    0.38000000    2.57999992
   19.50833321  144.07600403    0.40000001    2.59999990
   19.51138878  142.07400513    0.40000001    2.59999990
   19.51472282  136.08099365    0.40000001    2.57999992
   19.52055550  136.08099365    0.40000001    2.57999992
   19.52472115  124.97899628    0.40000001    2.57999992
   19.52805519  124.49199677    0.40000001    2.57999992
   19.52944374  129.15800476    0.40000001    2.57999992
   19.53166580  129.60800171    0.40000001    2.57999992
   19.53472137  134.31500244    0.40000001    2.57999992
   19.53805542  138.91200256    0.38000000    2.57999992
   19.54138756  134.21400452    0.38000000    2.55999994
   19.54444313  135.92199707    0.40000001    2.57999992
   19.54777718  131.07000732    0.40000001    2.55999994
   19.55083275  137.13999939    0.40000001    2.55999994
   19.55416679  128.38499451    0.41999999    2.55999994
   19.55749893  135.07099915    0.41999999    2.55999994
   19.56333351  135.07099915    0.47999999    2.57999992
   19.56750107  129.77400208    0.47999999    2.55999994
   19.57083511  139.15499878    0.50000000    2.55999994
   19.57416725  144.62899780    0.51999998    2.55999994
   19.57722282  138.99400330    0.51999998    2.55999994
   19.58055687  147.74800110    0.51999998    2.55999994
   19.58361244  135.28799438    0.52999997    2.55999994
   19.58694458  137.86999512    0.47999999    2.55999994
   19.59027863  138.64799500    0.47999999    2.55999994
   19.59361267  142.10800171    0.47999999    2.55999994
   19.59611130  152.87300110    0.47999999    2.55999994
   19.59722328  144.66299438    0.47999999    2.55999994
   19.60027885  141.17500305    0.47999999    2.55999994
   19.60639000  141.17500305    0.46000001    2.55999994
   19.61055565  136.92700195    0.46000001    2.55999994
   19.61361122  138.95700073    0.46000001    2.55999994
   19.61694527  152.05400085    0.47999999    2.55999994
   19.62000084  168.74200439    0.47999999    2.55999994
   19.62333298  194.29899597    0.47999999    2.53999996
   19.62666702  197.23100281    0.47999999    2.53999996
   19.62944412  210.64100647    0.50000000    2.53999996
   19.63027763  215.59599304    0.50000000    2.53999996
   19.63333321  264.82501221    0.51999998    2.53999996
   19.63666725  279.65200806    0.50000000    2.53999996
   19.63999939  311.65701294    0.50000000    2.53999996
   19.64305496  205.03999329    0.50000000    2.55999994
   19.64916611  205.03999329    0.47999999    2.53999996
   19.65333366   -1.00000000    0.47999999    2.53999996
   19.65666580   -1.00000000    0.47999999    2.53999996
   19.65999985   -1.00000000    0.46000001    2.53999996
   19.66333389   -1.00000000    0.44000000    2.53999996
   19.66666603   -1.00000000    0.44000000    2.53999996
   19.67000008   -1.00000000    0.44000000    2.53999996
   19.67305565   -1.00000000    0.46000001    2.53999996
   19.67638779   -1.00000000    0.47999999    2.53999996
   19.67972183   -1.00000000    0.47999999    2.55999994
   19.68277740   -1.00000000    0.47999999    2.55999994
   19.68610954   -1.00000000    0.50000000    2.53999996
   19.69610977   -1.00000000    0.56999999    2.51999998
