    HOUR (UT)   FLARE FACTOR    SKY TESTER    SUN TESTER
   11.19611073   -1.00000000   -1.00000000   -1.00000000
   11.23111057  173.83700562    1.09000003    2.64000010
   11.23444462  201.18600464    1.09000003    2.64000010
   11.23750019  199.30299377    1.09000003    2.64000010
   11.24083328  188.78900146    1.09000003    2.64000010
   11.24416733  175.51600647    1.09000003    2.64000010
   11.24722290  165.62399292    1.09000003    2.64000010
   11.25138855  165.62399292    1.09000003    2.66000009
   11.25555515  169.88400269    1.09000003    2.66000009
   11.25888920  183.41499329    1.09000003    2.66000009
   11.26194477  176.91000366    1.09000003    2.66000009
   11.26416683  209.41999817    1.07000005    2.66000009
   11.26555538  195.02200317    1.09000003    2.64000010
   11.26888847  167.25199890    1.09000003    2.66000009
   11.27222157  212.80299377    1.07000005    2.66000009
   11.27527714  152.89500427    1.07000005    2.66000009
   11.27861118  186.16200256    1.07000005    2.66000009
   11.28166676  199.08399963    1.09000003    2.66000009
   11.28500080  187.51899719    1.09000003    2.66000009
   11.28833389  205.22099304    1.09000003    2.66000009
   11.29416752  205.22099304    1.09000003    2.66000009
   11.29833412  203.92799377    1.09000003    2.66000009
   11.30166721  194.37100220    1.09000003    2.66000009
   11.30472279  193.87100220    1.09000003    2.66000009
   11.30805588  199.34599304    1.09000003    2.66000009
   11.31138897  219.46899414    1.09000003    2.66000009
   11.31472206  198.90800476    1.09000003    2.66000009
   11.31777763  189.00199890    1.09000003    2.67000008
   11.32111073  204.36300659    1.07000005    2.67000008
   11.32416630  184.33500671    1.07000005    2.66000009
   11.32777786  186.34800720    1.07000005    2.67000008
   11.33083344  178.00000000    1.07000005    2.67000008
   11.33138847  179.25500488    1.07000005    2.66000009
   11.33722210  179.25500488    1.05999994    2.67000008
   11.34111118  189.52200317    1.07000005    2.66000009
   11.34444427  185.07200623    1.07000005    2.66000009
   11.34777737  182.76600647    1.07000005    2.67000008
   11.35083389  186.72300720    1.05999994    2.67000008
   11.35444450  168.95500183    1.05999994    2.69000006
   11.35777855  183.45799255    1.07000005    2.67000008
   11.36083412  195.49600220    1.05999994    2.67000008
   11.36416721  188.46099854    1.05999994    2.67000008
   11.36444473  209.29299927    1.05999994    2.67000008
   11.36777782  217.61399841    1.05999994    2.67000008
   11.37111092  208.01400757    1.05999994    2.67000008
   11.37416649  184.00300598    1.05999994    2.69000006
   11.38000011  184.00300598    1.05999994    2.67000008
   11.38416672  165.92399597    1.05999994    2.67000008
   11.38749981  203.70300293    1.03999996    2.67000008
   11.39055538  178.11300659    1.03999996    2.69000006
   11.39388847  188.64799500    1.05999994    2.67000008
   11.39722252  190.21400452    1.03999996    2.69000006
   11.39777756  144.42900085    1.03999996    2.69000006
   11.40083313  182.90800476    1.03999996    2.69000006
   11.40416622  166.95599365    1.03999996    2.69000006
   11.40749931  149.61000061    1.03999996    2.69000006
   11.41055489  162.80200195    1.03999996    2.69000006
   11.41388893  145.66600037    1.03999996    2.69000006
   11.41694450  132.40100098    1.03999996    2.69000006
   11.42277813  132.40100098    1.03999996    2.69000006
   11.42694473  136.15199280    1.03999996    2.69000006
   11.43027782  150.71899414    1.03999996    2.69000006
   11.43111134  135.64999390    1.03999996    2.69000006
   11.43361092  126.82700348    1.03999996    2.69000006
   11.43694496  134.36700439    1.01999998    2.69000006
   11.44027805  132.81399536    1.01999998    2.71000004
   11.44333363  153.95599365    1.01999998    2.71000004
   11.44666672  130.86500549    1.01999998    2.67000008
   11.44972229  134.46800232    1.01999998    2.69000006
   11.45305538  155.63999939    1.01999998    2.69000006
   11.45638847  129.88299561    1.01999998    2.69000006
   11.45944405  131.69400024    1.01999998    2.69000006
   11.46555519  131.69400024    1.01999998    2.69000006
   11.46972179  132.43699646    1.01999998    2.71000004
   11.47305489  144.68499756    1.01999998    2.71000004
   11.47611046  136.73899841    1.01999998    2.69000006
   11.47944355  139.71699524    1.01999998    2.71000004
   11.48277760  146.75000000    1.01999998    2.71000004
   11.48583317  133.00000000    1.01999998    2.71000004
   11.48916721  135.69799805    1.01999998    2.71000004
   11.49222279  125.35600281    1.01999998    2.69000006
   11.49555588  140.70599365    1.00000000    2.71000004
   11.49777794  142.85400391    1.00000000    2.71000004
   11.49916649  140.67399597    1.00000000    2.71000004
   11.50249958  139.47000122    1.00000000    2.71000004
   11.50861073  139.47000122    0.98000002    2.71000004
   11.51249981  140.96000671    0.98000002    2.69000006
   11.51583290  134.97099304    0.95999998    2.71000004
   11.51916599  135.43400574    0.98000002    2.71000004
   11.52222157  128.17799377    0.95999998    2.71000004
   11.52555561  130.84100342    0.95999998    2.71000004
   11.52861118  131.87399292    0.95999998    2.71000004
   11.53111076  133.27099609    0.98000002    2.71000004
   11.53222179  131.48500061    0.95999998    2.71000004
   11.53555584  131.77299500    0.95999998    2.71000004
   11.53888893  145.89999390    0.95999998    2.71000004
   11.54194450  138.32499695    0.95999998    2.73000002
   11.54527855  146.28399658    0.98000002    2.71000004
   11.55138874  146.28399658    0.98000002    2.71000004
   11.55555534  136.40800476    0.98000002    2.73000002
   11.55861092  136.02499390    0.98000002    2.71000004
   11.56194496  136.31100464    0.98000002    2.73000002
   11.56444454  134.25999451    0.98000002    2.73000002
   11.56555557  132.33700562    0.98000002    2.73000002
   11.56888866  138.54200745    0.98000002    2.73000002
   11.57222176  128.61199951    0.98000002    2.71000004
   11.57527733  127.36000061    0.98000002    2.73000002
   11.57861137  129.92700195    0.98000002    2.73000002
   11.58166695  149.27200317    0.98000002    2.73000002
   11.58500004  132.72599792    0.98000002    2.71000004
   11.58833313  143.90699768    0.98000002    2.73000002
   11.59416676  143.90699768    0.98000002    2.73000002
   11.59833336  139.92100525    0.98000002    2.71000004
   11.60138893  132.64999390    0.98000002    2.71000004
   11.60472298  152.61399841    0.98000002    2.73000002
   11.60805607  135.02099609    0.98000002    2.73000002
   11.61111164  139.92900085    0.98000002    2.75000000
   11.61444473  140.50500488    0.98000002    2.75000000
   11.61777782  134.61500549    1.00000000    2.73000002
   11.62083340  142.72300720    0.98000002    2.73000002
   11.62416649  142.17700195    0.98000002    2.73000002
   11.62750053  130.53999329    0.98000002    2.73000002
   11.63055611  122.55699921    0.98000002    2.73000002
   11.63111115  142.41900635    0.98000002    2.73000002
   11.63694477  142.41900635    0.95999998    2.73000002
   11.64111137  134.30400085    0.98000002    2.75000000
   11.64444447  142.70300293    0.95999998    2.73000002
   11.64750004  142.08399963    0.95999998    2.75000000
   11.65083313  154.68899536    0.95999998    2.75000000
   11.65416622  130.59800720    0.95999998    2.75000000
   11.65722179  141.72799683    0.95999998    2.73000002
   11.66055489  134.81900024    0.94000000    2.75000000
   11.66361046  141.20700073    0.94000000    2.75000000
   11.66444397  128.77900696    0.94000000    2.75000000
   11.66750050  129.54899597    0.94000000    2.73000002
   11.67055607  132.12500000    0.94000000    2.73000002
   11.67388916  144.78799438    0.94000000    2.75000000
   11.68000031  144.78799438    0.94000000    2.75000000
   11.68388939  125.66699982    0.94000000    2.75000000
   11.68722248  129.73300171    0.94000000    2.75000000
   11.69055557  133.17799377    0.94000000    2.75000000
   11.69361115  125.20099640    0.92000002    2.75000000
   11.69694424  136.26800537    0.92000002    2.75000000
   11.69777775  116.94200134    0.92000002    2.75000000
   11.70055580  121.78500366    0.92000002    2.75000000
   11.70388889  134.98699951    0.92000002    2.75000000
   11.70722198  118.20400238    0.92000002    2.75000000
   11.71027756  132.55400085    0.92000002    2.75000000
   11.71361065  122.60299683    0.92000002    2.76999998
   11.71694374  125.33399963    0.92000002    2.75000000
   11.72277737  125.33399963    0.92000002    2.75000000
   11.72694397  126.91100311    0.92000002    2.75000000
   11.72999954  129.27699280    0.92000002    2.75000000
   11.73111057  129.41700745    0.92000002    2.76999998
   11.73361111  138.72799683    0.92000002    2.76999998
   11.73666668  121.34899902    0.92000002    2.76999998
   11.74000072  129.72900391    0.92000002    2.75000000
   11.74333382  122.63400269    0.92000002    2.75000000
   11.74638939  130.47200012    0.92000002    2.76999998
   11.74972248  130.79899597    0.94000000    2.76999998
   11.75305557  137.52999878    0.94000000    2.75000000
   11.75611115  138.95100403    0.94000000    2.76999998
   11.75944424  123.47699738    0.94000000    2.76999998
   11.76555538  123.47699738    0.94000000    2.76999998
   11.76972198  125.12699890    0.94000000    2.76999998
   11.77277756  122.98300171    0.94000000    2.76999998
   11.77611065  126.10399628    0.94000000    2.76999998
   11.77944374  126.54699707    0.94000000    2.76999998
   11.78249931  126.50599670    0.94000000    2.78999996
   11.78583336  121.51799774    0.94000000    2.76999998
   11.78916740  124.27200317    0.94000000    2.76999998
   11.79222298  127.67800140    0.92000002    2.76999998
   11.79555607  125.80500031    0.94000000    2.75000000
   11.79777813  126.69499969    0.94000000    2.78999996
   11.79916668  129.10200500    0.94000000    2.78999996
   11.80249977  124.57399750    0.94000000    2.76999998
   11.80833340  124.57399750    0.92000002    2.76999998
   11.81250000  124.19000244    0.92000002    2.76999998
   11.81583309  122.06500244    0.92000002    2.76999998
   11.81888866  123.60099792    0.92000002    2.76999998
   11.82222176  128.59500122    0.92000002    2.76999998
   11.82555580  122.26499939    0.89999998    2.78999996
   11.82861137  122.78399658    0.89999998    2.76999998
   11.83111095  132.57400513    0.89999998    2.76999998
   11.83222198  131.07499695    0.89999998    2.78999996
   11.83527756  122.54399872    0.89999998    2.78999996
   11.83861065  124.69400024    0.92000002    2.78999996
   11.84194374  123.06600189    0.89999998    2.76999998
   11.84499931  122.77200317    0.89999998    2.76999998
   11.85138893  122.77200317    0.89999998    2.78999996
   11.85527802  122.74900055    0.89999998    2.78999996
   11.85861111  124.25499725    0.89999998    2.78999996
   11.86194515  131.49699402    0.89999998    2.76999998
   11.86444473  124.58000183    0.89999998    2.76999998
   11.86555576  124.68900299    0.89999998    2.78999996
   11.86888885  121.97000122    0.89999998    2.78999996
   11.87194443  124.09600067    0.89999998    2.78999996
   11.87527752  126.36199951    0.89999998    2.78999996
   11.87833309  125.14900208    0.89999998    2.78999996
   11.88166714  122.33599854    0.89999998    2.78999996
   11.88500023  119.98999786    0.89999998    2.76999998
   11.88805580  129.29400635    0.89999998    2.78999996
   11.89416695  129.29400635    0.89999998    2.78999996
   11.89833355  126.91400146    0.89999998    2.78999996
   11.90138817  126.30100250    0.89999998    2.78999996
   11.90472221  126.40899658    0.89999998    2.78999996
   11.90805531  123.18499756    0.89999998    2.76999998
   11.91111088  125.04199982    0.89999998    2.80999994
   11.91444397  124.55300140    0.89999998    2.78999996
   11.91750050  125.02600098    0.89999998    2.78999996
   11.92083359  122.33000183    0.89999998    2.78999996
   11.92416668  126.14299774    0.89999998    2.78999996
   11.92722225  121.86499786    0.89999998    2.78999996
   11.93055630  125.77300262    0.89999998    2.80999994
   11.93111134  127.90499878    0.89999998    2.80999994
   11.93694496  127.90499878    0.88000000    2.78999996
   11.94111156  132.04499817    0.88000000    2.78999996
   11.94416714  129.23699951    0.88000000    2.78999996
   11.94750023  130.19500732    0.88000000    2.80999994
   11.95083332  140.87399292    0.88000000    2.78999996
   11.95388889  133.95500183    0.88000000    2.78999996
   11.95722198  132.15400696    0.88000000    2.78999996
   11.96055508  134.96000671    0.86000001    2.80999994
   11.96361065  130.16700745    0.86000001    2.80999994
   11.96472168  128.54100037    0.88000000    2.80999994
   11.96749973  130.93899536    0.88000000    2.80999994
   11.97055531  132.88200378    0.88000000    2.80999994
   11.97388840  130.98100281    0.88000000    2.80999994
   11.97972202  130.98100281    0.88000000    2.80999994
   11.98388958  134.96299744    0.88000000    2.78999996
   11.98722267  131.01499939    0.88000000    2.80999994
   11.99027824  129.53900146    0.86000001    2.80999994
   11.99361134  130.52699280    0.86000001    2.80999994
   11.99694443  133.49699402    0.86000001    2.80999994
   11.99777794  135.09100342    0.83999997    2.80999994
   12.00055599  135.04499817    0.83999997    2.80999994
   12.00388908  133.46299744    0.86000001    2.80999994
   12.00694466  136.45100403    0.86000001    2.80999994
   12.01027775  137.66600037    0.86000001    2.80999994
   12.01361084  136.59100342    0.88000000    2.80999994
   12.01666641  133.89500427    0.88000000    2.78999996
   12.02277756  133.89500427    0.88000000    2.80999994
   12.02666664  137.69500732    0.88000000    2.80999994
   12.02999973  133.03700256    0.88000000    2.82999992
   12.03111076  136.93099976    0.88000000    2.82999992
   12.03361130  140.30900574    0.88000000    2.82999992
   12.03694534  145.16200256    0.89999998    2.80999994
   12.04000092  134.51199341    0.89999998    2.80999994
   12.04333401  130.90400696    0.88000000    2.80999994
   12.04638958  137.80200195    0.88000000    2.80999994
   12.04972267  137.39599609    0.88000000    2.80999994
   12.05305576  136.73300171    0.88000000    2.80999994
   12.05611134  140.74600220    0.88000000    2.80999994
   12.05944443  134.07400513    0.88000000    2.82999992
   12.06555557  134.07400513    0.88000000    2.80999994
   12.06972218  143.88999939    0.88000000    2.80999994
   12.07277775  140.60200500    0.86000001    2.80999994
   12.07611084  138.34800720    0.86000001    2.82999992
   12.07944393  147.08500671    0.86000001    2.82999992
   12.08249950  134.74800110    0.83999997    2.80999994
   12.08583260  154.74499512    0.83999997    2.82999992
   12.08888817  140.28300476    0.83999997    2.82999992
   12.09222221  147.48699951    0.83999997    2.80999994
   12.09555531  142.27000427    0.83999997    2.82999992
   12.09805489  136.84399414    0.83999997    2.82999992
   12.09944439  143.51899719    0.83999997    2.82999992
   12.10249996  142.82499695    0.83999997    2.82999992
   12.10833359  142.82499695    0.83999997    2.82999992
   12.11250019  132.59100342    0.83999997    2.82999992
   12.11555576  131.01199341    0.83999997    2.82999992
   12.11888885  132.58500671    0.81999999    2.82999992
   12.12222195  141.22900391    0.81999999    2.82999992
   12.12527752  137.88800049    0.81999999    2.82999992
   12.12861156  146.16499329    0.83999997    2.82999992
   12.13111115  138.52499390    0.81999999    2.82999992
   12.13222218  142.06700134    0.81999999    2.82999992
   12.13555527  134.59899902    0.81999999    2.84999990
   12.13861084  136.21299744    0.81999999    2.82999992
   12.14194393  141.80599976    0.81999999    2.82999992
   12.14499950  129.62100220    0.81999999    2.82999992
   12.15111065  129.62100220    0.80000001    2.82999992
   12.15527725  138.50000000    0.80000001    2.82999992
   12.15861034  136.17100525    0.80000001    2.82999992
   12.16166592  139.54899597    0.80000001    2.82999992
   12.16444397  137.56599426    0.80000001    2.84999990
   12.16527748  143.07800293    0.80000001    2.84999990
   12.16861153  141.70700073    0.80000001    2.84999990
   12.17166710  140.82800293    0.80000001    2.82999992
   12.17500019  144.72700500    0.81999999    2.84999990
   12.17805576  144.48399353    0.81999999    2.84999990
   12.18138885  138.62899780    0.80000001    2.84999990
   12.18472195  141.35400391    0.80000001    2.82999992
   12.18777752  133.17900085    0.80000001    2.82999992
   12.19416714  133.17900085    0.80000001    2.84999990
   12.19833374  142.86300659    0.81999999    2.82999992
   12.20138836  145.81100464    0.81999999    2.82999992
   12.20472240  141.60400391    0.80000001    2.84999990
   12.20805550  140.21699524    0.81999999    2.82999992
   12.21138859  137.08799744    0.81999999    2.82999992
   12.21444416  136.88600159    0.80000001    2.84999990
   12.21777725  138.27099609    0.80000001    2.84999990
   12.22083282  137.67300415    0.80000001    2.84999990
   12.22416592  144.22200012    0.80000001    2.82999992
   12.22749996  144.82899475    0.80000001    2.82999992
   12.23055553  144.60800171    0.80000001    2.84999990
   12.23111057  144.09199524    0.80000001    2.84999990
   12.25194454  144.09199524    0.80000001    2.84999990
   12.25611115  139.99699402    0.80000001    2.84999990
   12.25916672  149.77000427    0.81999999    2.84999990
   12.26249981  145.39100647    0.80000001    2.84999990
   12.26444435  151.45899963    0.80000001    2.84999990
   12.26611137  142.60200500    0.80000001    2.84999990
   12.26944447  141.11900330    0.79000002    2.84999990
   12.27250004  145.36700439    0.79000002    2.84999990
   12.27583313  145.48399353    0.79000002    2.86999989
   12.27916622  141.60800171    0.76999998    2.84999990
   12.28222179  144.12600708    0.76999998    2.84999990
   12.28555584  143.97500610    0.76999998    2.84999990
   12.28888893  139.46400452    0.76999998    2.86999989
   12.29472256  139.46400452    0.76999998    2.84999990
   12.29888916  139.36300659    0.76999998    2.84999990
   12.30194473  145.80200195    0.76999998    2.84999990
   12.30527782  144.54299927    0.76999998    2.84999990
   12.30861092  145.51499939    0.79000002    2.84999990
   12.31166649  144.29600525    0.76999998    2.86999989
   12.31500053  141.54699707    0.76999998    2.84999990
   12.31805515  144.08399963    0.76999998    2.84999990
   12.32138920  141.64799500    0.76999998    2.84999990
   12.32472229  155.25300598    0.76999998    2.84999990
   12.32777786  149.33700562    0.76999998    2.86999989
   12.33111095  147.24200439    0.76999998    2.86999989
   12.33166695  142.04200745    0.76999998    2.86999989
   12.33749962  142.04200745    0.76999998    2.86999989
   12.34166622  140.28199768    0.76999998    2.84999990
   12.34499931  140.87100220    0.76999998    2.84999990
   12.34805489  143.15400696    0.76999998    2.84999990
   12.35138893  144.86999512    0.76999998    2.86999989
   12.35472298  146.59399414    0.76999998    2.86999989
   12.35777855  140.47999573    0.79000002    2.86999989
   12.36111164  141.38299561    0.76999998    2.86999989
   12.36416721  143.87600708    0.76999998    2.86999989
   12.36500072  144.89700317    0.76999998    2.86999989
   12.36805534  147.16200256    0.76999998    2.86999989
   12.37111092  153.80900574    0.76999998    2.86999989
   12.37444496  149.72200012    0.76999998    2.86999989
   12.38027763  149.72200012    0.76999998    2.86999989
   12.38444424  143.36300659    0.76999998    2.86999989
   12.38777733  146.41900635    0.75000000    2.86999989
   12.39083290  150.08000183    0.75000000    2.86999989
   12.39416695  143.06900024    0.76999998    2.86999989
   12.39750004  141.52499390    0.76999998    2.86999989
   12.39833355  156.61099243    0.76999998    2.86999989
   12.40111065  148.22099304    0.76999998    2.86999989
   12.40416622  153.57099915    0.76999998    2.86999989
   12.40749931  144.20500183    0.75000000    2.84999990
   12.41055489  141.45500183    0.75000000    2.84999990
   12.41388893  149.62899780    0.76999998    2.86999989
   12.41722298  144.96200562    0.76999998    2.86999989
   12.42333412  144.96200562    0.75000000    2.86999989
   12.42750072  148.71099854    0.75000000    2.86999989
   12.43055630  150.49099731    0.75000000    2.86999989
   12.43166733  145.40100098    0.75000000    2.86999989
   12.43444443  140.85800171    0.75000000    2.89000010
   12.43750000  139.54400635    0.75000000    2.86999989
   12.44083309  145.57699585    0.75000000    2.86999989
   12.44388866  145.32299805    0.75000000    2.86999989
   12.44722271  150.11700439    0.75000000    2.86999989
   12.45055580  153.12300110    0.75000000    2.89000010
   12.45361137  137.10699463    0.75000000    2.86999989
   12.45694447  139.81100464    0.75000000    2.86999989
   12.46027756  145.89700317    0.75000000    2.86999989
   12.46611118  145.89700317    0.75000000    2.89000010
   12.47027779  140.51199341    0.75000000    2.86999989
   12.47333336  145.44599915    0.75000000    2.86999989
   12.47666645  145.43600464    0.76999998    2.86999989
   12.47999954  139.46400452    0.75000000    2.86999989
   12.48305511  140.81900024    0.75000000    2.89000010
   12.48638916  141.08599854    0.75000000    2.86999989
   12.48944473  140.54200745    0.75000000    2.89000010
   12.49277782  143.90299988    0.75000000    2.86999989
   12.49611092  143.59599304    0.75000000    2.86999989
   12.49833393  138.59599304    0.75000000    2.86999989
   12.49972248  136.43800354    0.75000000    2.86999989
   12.50277805  147.56599426    0.75000000    2.86999989
   12.50888920  147.56599426    0.75000000    2.89000010
   12.51333332  144.57800293    0.75000000    2.89000010
   12.51638889  144.77200317    0.75000000    2.89000010
   12.51972198  143.30400085    0.75000000    2.89000010
   12.52277756  143.52200317    0.75000000    2.89000010
   12.52611065  145.75199890    0.75000000    2.86999989
   12.52944374  138.00399780    0.73000002    2.89000010
   12.53166676  149.92199707    0.73000002    2.89000010
   12.53305531  138.16600037    0.73000002    2.86999989
   12.53611183  150.95199585    0.73000002    2.86999989
   12.53944492  142.26400757    0.75000000    2.89000010
   12.54277802  139.31500244    0.73000002    2.89000010
   12.54583359  139.69200134    0.73000002    2.89000010
   12.55166721  139.69200134    0.73000002    2.89000010
   12.55583382  142.15600586    0.73000002    2.91000009
   12.55916691  140.40600586    0.73000002    2.91000009
   12.56222248  137.97900391    0.73000002    2.89000010
   12.56500053  144.56300354    0.73000002    2.86999989
   12.56611156  134.67799377    0.73000002    2.89000010
   12.56916618  140.22200012    0.73000002    2.89000010
   12.57250023  136.71800232    0.73000002    2.91000009
   12.57555580  126.74500275    0.73000002    2.89000010
   12.57888889  144.07400513    0.73000002    2.89000010
   12.58222198  141.07800293    0.73000002    2.89000010
   12.58555508  134.98199463    0.73000002    2.89000010
   12.58861065  141.85200500    0.73000002    2.89000010
   12.59472179  141.85200500    0.73000002    2.89000010
   12.59861088  136.41200256    0.75000000    2.91000009
   12.60194492  142.55799866    0.73000002    2.89000010
   12.60527802  141.08999634    0.73000002    2.91000009
   12.60833359  138.80299377    0.73000002    2.91000009
   12.61166668  130.94099426    0.75000000    2.91000009
   12.61500072  138.76400757    0.75000000    2.89000010
   12.61805534  135.42100525    0.75000000    2.89000010
   12.62138939  132.86099243    0.75000000    2.89000010
   12.62444496  142.37899780    0.75000000    2.89000010
   12.62777805  141.21200562    0.75000000    2.89000010
   12.63111115  139.13600159    0.75000000    2.89000010
   12.63166714  141.08700562    0.75000000    2.89000010
   12.63749981  141.08700562    0.75000000    2.89000010
   12.64166641  143.80000305    0.75000000    2.91000009
   12.64472198  139.69000244    0.75000000    2.91000009
   12.64805508  147.97500610    0.75000000    2.89000010
   12.65138817  139.32899475    0.75000000    2.89000010
   12.65444374  140.71400452    0.76999998    2.89000010
   12.65777779  140.91900635    0.75000000    2.89000010
   12.66083336  144.07099915    0.79000002    2.91000009
   12.66416645  146.40800476    0.76999998    2.91000009
   12.66499996  141.31900024    0.76999998    2.91000009
   12.66777802  139.13600159    0.76999998    2.89000010
   12.67083359  141.31700134    0.75000000    2.91000009
   12.67416668  136.89199829    0.75000000    2.91000009
   12.68027782  136.89199829    0.73000002    2.93000007
   12.68444443  144.80900574    0.73000002    2.89000010
   12.68750000  144.46200562    0.73000002    2.91000009
   12.69083309  144.72700500    0.73000002    2.91000009
   12.69416714  133.35400391    0.75000000    2.89000010
   12.69722271  137.41000366    0.73000002    2.91000009
   12.69833374  131.15899658    0.73000002    2.91000009
   12.70111084  130.58900452    0.73000002    2.91000009
   12.70416641  142.50999451    0.73000002    2.91000009
   12.70749950  140.28999329    0.73000002    2.91000009
   12.71083355  144.88800049    0.73000002    2.89000010
   12.71388912  140.32299805    0.75000000    2.91000009
   12.71722221  136.98500061    0.76999998    2.91000009
   12.72305489  136.98500061    0.76999998    2.91000009
   12.72722149  137.80599976    0.79000002    2.91000009
   12.73055553  132.05299377    0.79000002    2.91000009
   12.73166656  143.67100525    0.79000002    2.91000009
   12.73416710  136.36000061    0.79000002    2.91000009
   12.73722267  146.03399658    0.79000002    2.91000009
   12.74055576  152.32899475    0.76999998    2.91000009
   12.74388885  135.49699402    0.76999998    2.91000009
   12.74694443  142.60499573    0.75000000    2.91000009
   12.75027752  138.94000244    0.75000000    2.93000007
   12.75361156  137.16900635    0.73000002    2.91000009
   12.75666714  139.37300110    0.70999998    2.91000009
   12.76000023  135.70500183    0.70999998    2.91000009
   12.76583290  135.70500183    0.73000002    2.91000009
   12.76999950  135.56199646    0.73000002    2.91000009
   12.77333355  137.28799438    0.70999998    2.91000009
   12.77666664  133.08299255    0.70999998    2.91000009
   12.77972221  140.75000000    0.73000002    2.89000010
   12.78305531  131.90899658    0.70999998    2.91000009
   12.78611183  143.41900635    0.70999998    2.91000009
   12.78944492  137.00300598    0.70999998    2.93000007
   12.79277802  146.04600525    0.70999998    2.93000007
   12.79583359  136.65899658    0.70999998    2.93000007
   12.79833412  145.33000183    0.70999998    2.93000007
   12.79972267  143.25199890    0.70999998    2.93000007
   12.80277824  143.76800537    0.70999998    2.91000009
   12.80888939  143.76800537    0.70999998    2.91000009
   12.81305599  137.60800171    0.70999998    2.91000009
   12.81611156  135.60499573    0.70999998    2.91000009
   12.81944466  148.62199402    0.70999998    2.91000009
   12.82250023  146.49099731    0.70999998    2.93000007
   12.82583332  145.21899414    0.70999998    2.91000009
   12.82916641  141.12699890    0.70999998    2.91000009
   12.83166695  140.04200745    0.70999998    2.91000009
   12.83277798  136.04400635    0.70999998    2.91000009
   12.83611107  134.04600525    0.70999998    2.93000007
   12.83916664  139.27900696    0.69000000    2.93000007
   12.84249973  134.22799683    0.69000000    2.91000009
   12.84555531  138.07800293    0.69000000    2.91000009
   12.85166740  138.07800293    0.70999998    2.93000007
   12.85583401  133.80700684    0.69000000    2.93000007
   12.85888958  148.25399780    0.69000000    2.93000007
   12.86222267  154.29499817    0.70999998    2.91000009
   12.86500072  164.45700073    0.69000000    2.91000009
   12.86583328  170.97799683    0.69000000    2.91000009
   12.86888885  166.68099976    0.69000000    2.91000009
   12.87222195  158.55099487    0.67000002    2.91000009
   12.87555599  169.88099670    0.69000000    2.93000007
   12.87861156  154.18800354    0.69000000    2.94000006
   12.88194466  133.10600281    0.67000002    2.93000007
   12.88527775  133.20799255    0.67000002    2.93000007
   12.88833332  157.39500427    0.67000002    2.91000009
   12.89444447  157.39500427    0.67000002    2.93000007
   12.89861107  142.49899292    0.64999998    2.94000006
   12.90194416  133.15100098    0.67000002    2.93000007
   12.90499973  139.55400085    0.64999998    2.93000007
   12.90833282  140.31500244    0.64999998    2.93000007
   12.91166592  138.09300232    0.64999998    2.93000007
   12.91472149  142.58900452    0.64999998    2.93000007
   12.91805553  150.04699707    0.64999998    2.93000007
   12.92111111  146.28599548    0.64999998    2.93000007
   12.92444515  154.74099731    0.64999998    2.93000007
   12.92777824  148.77799988    0.64999998    2.93000007
   12.93083382  144.79600525    0.64999998    2.93000007
   12.93166733  152.79499817    0.64999998    2.93000007
   12.93722248  152.79499817    0.64999998    2.93000007
   12.94138908  133.42500305    0.64999998    2.93000007
   12.94472218  155.21299744    0.64999998    2.93000007
   12.94805527  159.90299988    0.64999998    2.93000007
   12.95111084  156.38499451    0.64999998    2.94000006
   12.95444393  153.64599609    0.64999998    2.93000007
   12.95749950  144.71400452    0.64999998    2.93000007
   12.96111107  155.35899353    0.64999998    2.94000006
   12.96416664  167.29899597    0.64999998    2.93000007
   12.96500015  150.43800354    0.64999998    2.93000007
   12.96777725  146.19099426    0.64999998    2.93000007
   12.97083282  159.96200562    0.64999998    2.93000007
   12.97416592  145.85499573    0.64999998    2.93000007
   12.98027706  145.85499573    0.64999998    2.93000007
   12.98444462  152.06100464    0.64999998    2.93000007
   12.98750019  145.19400024    0.64999998    2.94000006
   12.99083328  151.52000427    0.63000000    2.93000007
   12.99388885  149.05099487    0.64999998    2.94000006
   12.99722290  147.51699829    0.64999998    2.93000007
   12.99833393  159.83999634    0.64999998    2.93000007
   13.00083351  147.47900391    0.64999998    2.93000007
   13.00388908  140.04100037    0.64999998    2.93000007
   13.00722218  151.91799927    0.63000000    2.93000007
   13.01055527  149.19700623    0.63000000    2.94000006
   13.01361084  148.88400269    0.64999998    2.93000007
   13.01694393  166.66099548    0.64999998    2.94000006
   13.02305508  166.66099548    0.63000000    2.93000007
   13.02722168  139.73599243    0.63000000    2.93000007
   13.03027725  145.50799561    0.63000000    2.93000007
   13.03166676  140.39900208    0.63000000    2.93000007
   13.03416729  145.05099487    0.63000000    2.93000007
   13.03722286  138.74000549    0.63000000    2.93000007
   13.04055595  145.92700195    0.63000000    2.93000007
   13.04388905  144.32000732    0.63000000    2.96000004
   13.04694462  142.58299255    0.63000000    2.93000007
   13.05027771  154.20100403    0.63000000    2.94000006
   13.05361176  140.67399597    0.63000000    2.94000006
   13.05666733  144.69700623    0.63000000    2.94000006
   13.06000042  139.16600037    0.63000000    2.94000006
   13.06583309  139.16600037    0.63000000    2.94000006
   13.06999969  143.55000305    0.63000000    2.94000006
   13.07333374  141.69900513    0.63000000    2.94000006
   13.07638836  138.78300476    0.63000000    2.94000006
   13.07972240  144.30000305    0.63000000    2.94000006
   13.08305550  129.27600098    0.64999998    2.94000006
   13.08611107  141.18699646    0.64999998    2.93000007
   13.08944416  136.07200623    0.64999998    2.94000006
   13.09277725  140.50199890    0.64999998    2.94000006
   13.09583282  141.76899719    0.64999998    2.94000006
   13.09833336  148.50599670    0.64999998    2.94000006
   13.09944439  139.30000305    0.64999998    2.93000007
   13.10249996  136.11599731    0.64999998    2.93000007
   13.10861111  136.11599731    0.64999998    2.94000006
   13.11277771  145.60099792    0.64999998    2.93000007
   13.11611176  150.46099854    0.64999998    2.93000007
   13.11944485  136.07000732    0.63000000    2.93000007
   13.12250042  142.60200500    0.64999998    2.94000006
   13.12583351  144.85899353    0.63000000    2.94000006
   13.12888908  145.78599548    0.64999998    2.94000006
   13.13166714  143.46200562    0.63000000    2.94000006
   13.13277817  142.69700623    0.63000000    2.93000007
   13.13611126  147.21299744    0.63000000    2.94000006
   13.13916683  144.72200012    0.63000000    2.94000006
   13.14249992  134.02400208    0.63000000    2.94000006
   13.14555550  142.40400696    0.63000000    2.94000006
   13.15166664  142.40400696    0.63000000    2.94000006
   13.15583324  140.10899353    0.63000000    2.94000006
   13.15888882  145.26899719    0.63000000    2.94000006
   13.16222191  140.54699707    0.63000000    2.94000006
   13.16499996  145.42399597    0.63000000    2.94000006
   13.16583252  142.30099487    0.63000000    2.94000006
   13.16916656  133.55999756    0.63000000    2.94000006
   13.17222214  144.22200012    0.63000000    2.94000006
   13.17555618  140.21000671    0.63000000    2.94000006
   13.17861176  138.39900208    0.63000000    2.94000006
   13.18194485  136.97900391    0.63000000    2.94000006
   13.18527794  134.37699890    0.63000000    2.94000006
   13.18833351  142.15199280    0.63000000    2.94000006
   13.19444466  142.15199280    0.63000000    2.94000006
   13.19861126  140.67199707    0.64999998    2.94000006
   13.20166683  142.73800659    0.64999998    2.94000006
   13.20499992  140.53100586    0.64999998    2.94000006
   13.20833302  136.14999390    0.64999998    2.94000006
   13.21138859  137.77600098    0.64999998    2.94000006
   13.21472168  134.96000671    0.64999998    2.93000007
   13.21805477  140.20899963    0.64999998    2.96000004
   13.22111034  147.38400269    0.64999998    2.94000006
   13.22444439  151.76899719    0.64999998    2.94000006
   13.22749996  141.09599304    0.64999998    2.96000004
   13.23083305  141.59300232    0.64999998    2.94000006
   13.23166656  151.80200195    0.64999998    2.94000006
   13.23722267  151.80200195    0.64999998    2.94000006
   13.24138927  133.57699585    0.67000002    2.94000006
   13.24472237  134.95899963    0.64999998    2.94000006
   13.24777794  140.89100647    0.64999998    2.93000007
   13.26555538  149.12600708    0.64999998    2.96000004
   13.26777744  144.90499878    0.64999998    2.94000006
   13.27111053  140.28900146    0.64999998    2.94000006
   13.27444458  146.28999329    0.64999998    2.94000006
   13.28027725  146.28999329    0.63000000    2.96000004
   13.28444481  142.26600647    0.63000000    2.94000006
   13.28777790  144.12199402    0.63000000    2.94000006
   13.29083347  151.12300110    0.64999998    2.94000006
   13.29416752  154.12800598    0.63000000    2.94000006
   13.29722309  135.64900208    0.63000000    2.94000006
   13.29861164  136.72599792    0.63000000    2.94000006
   13.30111122  139.43600464    0.63000000    2.94000006
   13.30444431  140.96200562    0.63000000    2.94000006
   13.30749989  143.52000427    0.63000000    2.94000006
   13.31083393  135.45799255    0.61000001    2.94000006
   13.31416702  144.83999634    0.61000001    2.94000006
   13.31722260  147.06399536    0.61000001    2.94000006
   13.32305527  147.06399536    0.61000001    2.96000004
   13.32722187  145.11999512    0.61000001    2.96000004
   13.33055592  139.04600525    0.61000001    2.96000004
   13.33194447  138.98100281    0.61000001    2.94000006
   13.33416653  152.80900574    0.61000001    2.96000004
   13.33749962  147.26699829    0.61000001    2.94000006
   13.34055519  136.23899841    0.61000001    2.96000004
   13.34388828  145.71000671    0.61000001    2.96000004
   13.34722233  136.12800598    0.58999997    2.96000004
   13.35027790  138.17199707    0.58999997    2.96000004
   13.35361195  133.31599426    0.58999997    2.96000004
   13.35694504  144.53199768    0.58999997    2.96000004
   13.36000061  142.97300720    0.58999997    2.96000004
   13.36611176  142.97300720    0.58999997    2.96000004
   13.36999989  146.09399414    0.58999997    2.96000004
   13.37333393  144.33500671    0.58999997    2.96000004
   13.37666702  137.75799561    0.61000001    2.96000004
   13.37972260  139.43899536    0.61000001    2.96000004
   13.38305569  146.35400391    0.61000001    2.96000004
   13.38638878  144.69299316    0.58999997    2.96000004
   13.38944435  147.50999451    0.58999997    2.96000004
   13.39277744  152.82699585    0.58999997    2.96000004
   13.39583302  140.27999878    0.58999997    2.96000004
   13.39861107  144.39900208    0.58999997    2.98000002
   13.39944458  150.48199463    0.58999997    2.98000002
   13.40277767  150.88699341    0.58999997    2.94000006
   13.40888882  150.88699341    0.61000001    2.98000002
   13.41305542  144.46899414    0.61000001    2.96000004
   13.41611099  132.44599915    0.61000001    2.94000006
   13.41944504  140.04600525    0.61000001    2.94000006
   13.42277813  133.51800537    0.58999997    2.96000004
   13.42583370  137.62800598    0.58999997    2.96000004
   13.42916679  145.33599854    0.58999997    2.96000004
   13.43194485  139.70100403    0.61000001    2.96000004
   13.43277836  149.60299683    0.61000001    2.96000004
   13.43611145  134.86099243    0.58999997    2.96000004
   13.43916702  148.69099426    0.61000001    2.96000004
   13.44250011  142.84500122    0.61000001    2.96000004
   13.44583321  148.50399780    0.58999997    2.96000004
   13.45194435  148.50399780    0.58999997    2.94000006
   13.45611095  142.52400208    0.58999997    2.96000004
   13.45916653  143.88800049    0.58999997    2.96000004
   13.46249962  144.71299744    0.58999997    2.96000004
   13.46527767  147.92999268    0.58999997    2.96000004
   13.46611118  144.71499634    0.61000001    2.96000004
   13.46944427  141.78999329    0.61000001    2.96000004
   13.47249985  141.73500061    0.61000001    2.96000004
   13.47583294  148.79299927    0.58999997    2.96000004
   13.47916603  134.03900146    0.58999997    2.98000002
   13.48222160  137.07400513    0.58999997    2.96000004
   13.48555565  144.59700012    0.61000001    2.96000004
   13.48888874  139.19799805    0.58999997    2.96000004
   13.49444485  139.19799805    0.58999997    2.96000004
   13.49888897  144.43600464    0.61000001    2.98000002
   13.49916649  148.21699524    0.61000001    2.98000002
   13.50249958  129.27400208    0.58999997    2.98000002
   13.50555515  133.81900024    0.58999997    2.98000002
   13.50888920  137.35499573    0.58999997    2.98000002
   13.51222229  134.20500183    0.58999997    2.96000004
   13.51527786  140.86399841    0.58999997    2.94000006
   13.51861095  130.46000671    0.58999997    2.98000002
   13.52194405  138.47500610    0.58999997    2.96000004
   13.52499962  138.93499756    0.58999997    2.94000006
   13.52833271  144.55499268    0.61000001    2.96000004
   13.53166676  138.35699463    0.61000001    2.96000004
   13.53222179  139.52799988    0.58999997    2.96000004
   13.53750038  139.52799988    0.61000001    2.98000002
   13.54138947  146.70899963    0.58999997    2.96000004
   13.54472256  141.97900391    0.58999997    2.96000004
   13.54805565  145.69700623    0.61000001    2.98000002
   13.55111122  138.57499695    0.58999997    2.98000002
   13.55444431  138.57800293    0.58999997    2.96000004
   13.55777836  138.00100708    0.61000001    2.96000004
   13.56083393  140.48800659    0.58999997    2.96000004
   13.56416702  134.55999756    0.58999997    2.96000004
   13.56527805  138.77200317    0.58999997    2.98000002
   13.56777763  128.50199890    0.58999997    2.98000002
   13.57111073  132.66200256    0.58999997    2.96000004
   13.57416630  134.94299316    0.58999997    2.98000002
   13.58027744  134.94299316    0.58999997    2.96000004
   13.58444405  131.48599243    0.58999997    2.98000002
   13.58749962  135.60800171    0.58999997    2.98000002
   13.59083271  138.66499329    0.61000001    2.98000002
   13.59416676  132.79899597    0.58999997    2.96000004
   13.59722233  130.72900391    0.58999997    2.96000004
   13.59861088  141.12699890    0.58999997    2.96000004
   13.60083389  144.93800354    0.58999997    2.96000004
   13.60416698  137.97300720    0.58999997    2.98000002
   13.60750008  139.60400391    0.58999997    2.96000004
   13.61055565  138.42799377    0.58999997    2.96000004
   13.61388969  138.19799805    0.58999997    2.96000004
   13.61694431  129.94500732    0.58999997    2.98000002
   13.62305546  129.94500732    0.58999997    2.98000002
   13.62722206  137.80099487    0.56999999    2.98000002
   13.63055611  138.89300537    0.56999999    2.98000002
   13.63194466  133.20700073    0.56999999    2.96000004
   13.63388920  134.56300354    0.56999999    2.96000004
   13.63722229  137.76699829    0.56999999    2.96000004
   13.64027786  139.04699707    0.56999999    2.98000002
   13.64361095  136.49299622    0.56999999    2.98000002
   13.64694405  133.06399536    0.56999999    2.98000002
   13.64999962  137.48100281    0.56999999    2.98000002
   13.65333271  142.11199951    0.56999999    2.98000002
   13.65666676  138.51800537    0.56999999    2.98000002
   13.65972137  134.00599670    0.56999999    2.98000002
   13.66583252  134.00599670    0.56999999    2.96000004
   13.67000008  142.12800598    0.58999997    2.98000002
   13.67333412  144.93299866    0.58999997    2.96000004
   13.67638874  146.86700439    0.58999997    2.96000004
   13.67972279  138.01899719    0.61000001    2.98000002
   13.68305588  144.96200562    0.61000001    2.98000002
   13.68611145  139.52999878    0.61000001    2.98000002
   13.68944454  128.18400574    0.58999997    2.96000004
   13.69277763  134.75700378    0.58999997    2.98000002
   13.69583321  133.56599426    0.56999999    2.98000002
   13.69861126  135.83599854    0.58999997    2.96000004
   13.69944477  139.00999451    0.58999997    2.98000002
   13.70277786  136.05200195    0.58999997    2.96000004
   13.70888901  136.05200195    0.58999997    2.98000002
   13.71277714  127.96800232    0.58999997    2.98000002
   13.71611118  134.60000610    0.61000001    2.98000002
   13.71944427  139.51800537    0.58999997    2.98000002
   13.72249985  139.83399963    0.61000001    2.98000002
   13.72583294  136.28700256    0.61000001    2.98000002
   13.72916603  139.05799866    0.63000000    2.98000002
   13.73222160  142.28999329    0.61000001    2.98000002
   13.73249912  139.51600647    0.61000001    2.98000002
   13.73583317  137.88999939    0.61000001    2.96000004
   13.73888874  137.46600342    0.61000001    2.98000002
   13.74222279  137.93099976    0.61000001    2.98000002
   13.74555588  140.86199951    0.61000001    2.98000002
   13.75166702  140.86199951    0.61000001    2.98000002
   13.75583363  148.51499939    0.61000001    2.98000002
   13.75888920  142.29200745    0.61000001    2.98000002
   13.76222229  141.57499695    0.61000001    3.00000000
   13.76555538  151.64399719    0.61000001    2.96000004
   13.76583290  140.91400146    0.61000001    2.96000004
   13.76916599  143.42199707    0.61000001    2.98000002
   13.77222157  140.71600342    0.61000001    2.98000002
   13.77555561  143.75500488    0.61000001    2.96000004
   13.77888870  141.60899353    0.61000001    2.98000002
   13.78194427  139.58500671    0.61000001    2.98000002
   13.78527832  144.19099426    0.58999997    2.98000002
   13.78861141  143.90699768    0.58999997    2.98000002
   13.79444504  143.90699768    0.58999997    2.98000002
   13.79861164  140.94599915    0.58999997    2.98000002
   13.79916668  136.26699829    0.58999997    2.98000002
   13.80249977  144.76800537    0.58999997    2.98000002
   13.80555534  140.11399841    0.58999997    2.98000002
   13.80888939  136.65499878    0.58999997    2.98000002
   13.81194496  140.00500488    0.56999999    2.98000002
   13.81527805  140.36000061    0.56999999    2.98000002
   13.81861115  138.77400208    0.56999999    2.98000002
   13.82166672  143.34599304    0.56999999    2.98000002
   13.82499981  141.64999390    0.56999999    2.98000002
   13.82833290  138.05700684    0.58999997    3.00000000
   13.83138847  149.00799561    0.58999997    3.00000000
   13.83249950  143.27200317    0.58999997    3.00000000
   13.83722210  143.27200317    0.56999999    3.00000000
   13.84138870  139.91999817    0.56999999    2.98000002
   13.84472179  140.37500000    0.56999999    2.98000002
   13.84777737  138.40800476    0.56999999    2.98000002
   13.85111141  142.93099976    0.56999999    2.98000002
   13.85444450  138.63299561    0.56999999    2.98000002
   13.85777855  133.60000610    0.56999999    2.98000002
   13.86083412  140.76699829    0.56999999    2.98000002
   13.86416721  139.51300049    0.56999999    2.98000002
   13.86583328  136.27999878    0.56999999    2.98000002
   13.86777782  140.03799438    0.56999999    2.98000002
   13.87083340  141.24800110    0.56999999    2.98000002
   13.87416649  142.18200684    0.56999999    3.00000000
   13.88027763  142.18200684    0.58999997    2.98000002
   13.88416672  144.06100464    0.58999997    2.98000002
   13.88749981  141.45599365    0.61000001    2.98000002
   13.89083290  139.93099976    0.58999997    2.98000002
   13.89388847  137.39999390    0.58999997    2.98000002
   13.89722252  143.03399658    0.56999999    2.98000002
   13.89916611  137.31199646    0.58999997    2.98000002
   13.90083313  146.12500000    0.56999999    2.98000002
   13.90388870  143.84199524    0.56999999    3.00000000
   13.90722179  145.52299500    0.55000001    3.00000000
   13.91027737  138.45500183    0.55000001    2.98000002
   13.91361046  139.96099854    0.55000001    2.98000002
   13.91694450  133.39399719    0.55000001    2.98000002
   13.92305565  133.39399719    0.55000001    2.98000002
   13.92722225  136.24600220    0.55000001    2.96000004
   13.93027782  140.50500488    0.55000001    2.98000002
   13.93249989  136.46400452    0.55000001    2.98000002
   13.93416691  137.95799255    0.52999997    3.00000000
   13.93722248  135.47399902    0.55000001    3.00000000
   13.94055557  138.38499451    0.52999997    3.00000000
   13.94388866  139.98100281    0.52999997    3.00000000
   13.94694424  134.15199280    0.52999997    2.98000002
   13.95027733  139.87300110    0.52999997    2.98000002
   13.95333290  139.01400757    0.52999997    2.98000002
   13.95666695  138.57299805    0.52999997    2.98000002
   13.96000004  138.68299866    0.55000001    2.98000002
   13.96583271  138.68299866    0.52999997    3.00000000
   13.96999931  131.72900391    0.52999997    3.00000000
   13.97333336  134.12800598    0.52999997    3.00000000
   13.97638798  141.22099304    0.52999997    3.00000000
   13.97972202  134.52900696    0.52999997    3.00000000
   13.98277760  151.22500610    0.52999997    2.98000002
   13.98611164  145.72500610    0.52999997    3.00000000
   13.98944473  135.86500549    0.52999997    3.00000000
   13.99250031  140.35800171    0.52999997    2.98000002
   13.99583340  133.88499451    0.52999997    3.00000000
   13.99916649  133.32099915    0.55000001    3.00000000
   14.00083351  134.75199890    0.55000001    3.00000000
   14.00277805  134.55599976    0.55000001    3.00000000
   14.00861073  134.55599976    0.55000001    2.96000004
   14.01277733  138.06300354    0.52999997    3.00000000
   14.01611137  138.73800659    0.52999997    3.00000000
   14.01916599  139.32200623    0.52999997    3.00000000
   14.02250004  123.90899658    0.52999997    3.00000000
   14.02583313  127.62100220    0.55000001    3.00000000
   14.02888870  137.70799255    0.55000001    2.98000002
   14.03222179  136.73899841    0.55000001    2.98000002
   14.03416729  126.17400360    0.55000001    2.98000002
   14.03583336  140.02299500    0.52999997    2.98000002
   14.03916740  137.69700623    0.52999997    3.00000000
   14.04222298  124.79599762    0.52999997    3.00000000
   14.04555607  133.87500000    0.55000001    2.98000002
   14.05166721  133.87500000    0.55000001    3.00000000
   14.05555534  130.90100098    0.52999997    3.00000000
   14.05888939  142.53799438    0.55000001    3.00000000
   14.06222248  141.39300537    0.55000001    3.00000000
   14.06527805  136.73500061    0.58999997    3.00000000
   14.06777763  142.12399292    0.55000001    3.00000000
   14.06916618  133.53399658    0.55000001    3.00000000
   14.07222176  139.04299927    0.55000001    3.00000000
   14.07555580  132.57800293    0.55000001    3.00000000
   14.07888889  139.69000244    0.55000001    3.00000000
   14.08194447  135.45899963    0.55000001    3.00000000
   14.08527756  134.06700134    0.56999999    3.00000000
   14.08833313  128.22200012    0.56999999    3.00000000
   14.09444427  128.22200012    0.56999999    3.00000000
   14.09861088  138.75500488    0.56999999    3.00000000
   14.10111141  139.36000061    0.56999999    3.00000000
   14.10222244  136.87100220    0.56999999    3.00000000
   14.10527802  133.99099731    0.58999997    3.00000000
   14.10861111  138.48199463    0.58999997    3.00000000
   14.11194515  138.69599915    0.58999997    3.00000000
   14.11500072  135.47900391    0.58999997    3.00000000
   14.11833382  135.35899353    0.61000001    3.01999998
   14.12138939  128.06100464    0.61000001    2.98000002
   14.12472248  141.78700256    0.61000001    3.00000000
   14.12805557  138.44200134    0.61000001    3.00000000
   14.13111115  137.46400452    0.61000001    3.00000000
   14.13722229  137.46400452    0.63000000    3.00000000
   14.14138889  142.45399475    0.61000001    2.98000002
   14.14472198  135.98699951    0.61000001    2.98000002
   14.14777756  130.14500427    0.61000001    2.98000002
   14.15111065  139.49200439    0.61000001    3.00000000
   14.15416622  140.66099548    0.61000001    3.00000000
   14.15749931  133.42300415    0.63000000    3.00000000
   14.16083336  140.53500366    0.63000000    3.00000000
   14.16388893  139.97099304    0.64999998    3.00000000
   14.16722298  137.71899414    0.64999998    2.98000002
   14.16805553  141.79400635    0.64999998    2.98000002
   14.17083359  143.11000061    0.63000000    2.98000002
   14.17416668  147.88900757    0.64999998    3.00000000
   14.18000031  147.88900757    0.67000002    3.00000000
   14.18416691  143.65100098    0.67000002    3.00000000
   14.18750000  142.60800171    0.67000002    3.00000000
   14.19083309  142.75900269    0.67000002    2.98000002
   14.19388866  154.69000244    0.73000002    3.00000000
   14.19722271  141.26100159    0.75000000    3.00000000
   14.20027733  147.17199707    0.75000000    3.00000000
   14.20138836  139.50500488    0.75000000    3.00000000
   14.20416641  136.37699890    0.75000000    3.00000000
   14.20749950  138.58500671    0.76999998    2.98000002
   14.21055508  141.95599365    0.76999998    3.00000000
   14.21388912  141.69200134    0.79000002    3.00000000
   14.21694374  141.30900574    0.79000002    3.00000000
   14.22305489  141.30900574    0.76999998    2.98000002
   14.22694397  140.54600525    0.76999998    3.00000000
   14.23027706  140.86099243    0.75000000    2.98000002
   14.23361111  142.85600281    0.75000000    3.00000000
   14.23500061  143.89500427    0.73000002    3.00000000
   14.23722267  141.11300659    0.75000000    3.00000000
   14.24027824  133.46499634    0.75000000    3.00000000
   14.24361134  142.61700439    0.75000000    3.00000000
   14.24694443  146.65699768    0.73000002    3.00000000
   14.25000000  137.92100525    0.70999998    3.00000000
   14.25333309  135.73399353    0.70999998    3.00000000
   14.25638866  131.40899658    0.70999998    3.00000000
   14.25972176  141.18699646    0.70999998    3.00000000
   14.26583290  141.18699646    0.73000002    3.01999998
   14.28416729  148.65800476    0.64999998    3.00000000
   14.28750038  141.00500488    0.63000000    3.00000000
   14.29055595  142.90299988    0.61000001    3.00000000
   14.29388905  140.89700317    0.61000001    3.00000000
   14.29694462  142.82699585    0.61000001    3.01999998
   14.30027771  145.28700256    0.58999997    3.00000000
   14.30361176  138.02299500    0.56999999    3.01999998
   14.30888939  138.02299500    0.56999999    3.00000000
   14.31305599  136.42300415    0.56999999    3.01999998
   14.31611156  143.89100647    0.56999999    3.01999998
   14.31722260  141.93899536    0.56999999    3.00000000
   14.31999969  142.96699524    0.56999999    3.00000000
   14.32305527  147.47900391    0.55000001    3.00000000
   14.32638836  145.65800476    0.56999999    3.00000000
   14.32944393  142.94200134    0.56999999    3.00000000
   14.33277798  145.69500732    0.56999999    3.01999998
   14.33611107  138.69400024    0.56999999    3.00000000
   14.33916664  138.04100037    0.56999999    3.01999998
   14.34249973  137.35600281    0.56999999    3.01999998
   14.34583282  139.61999512    0.58999997    3.00000000
   14.35166740  139.61999512    0.56999999    3.00000000
   14.35583401  136.13900757    0.56999999    3.00000000
   14.35916710  143.43099976    0.58999997    3.00000000
   14.36222267  149.68600464    0.58999997    3.00000000
   14.36555576  144.34100342    0.58999997    3.00000000
   14.36888885  139.80400085    0.63000000    3.00000000
   14.37194443  133.67300415    0.63000000    3.00000000
   14.37527752  130.44599915    0.63000000    3.01999998
   14.37861156  138.49800110    0.63000000    3.00000000
   14.38166714  145.23899841    0.63000000    3.00000000
   14.38388920  145.96000671    0.63000000    3.00000000
   14.38555527  144.79499817    0.63000000    3.00000000
   14.38861084  144.64799500    0.63000000    3.00000000
   14.39444447  144.64799500    0.63000000    3.00000000
   14.39861107  147.27699280    0.64999998    2.98000002
   14.40194416  142.74200439    0.64999998    3.00000000
   14.40527725  150.69799805    0.67000002    3.00000000
   14.40833282  143.13000488    0.67000002    3.00000000
   14.41166592  147.24499512    0.67000002    3.00000000
   14.41472149  142.24699402    0.67000002    3.00000000
   14.41722298  139.43099976    0.67000002    3.00000000
   14.41861153  136.61999512    0.64999998    3.00000000
   14.42166710  129.90100098    0.64999998    3.00000000
   14.42500019  147.46400452    0.64999998    3.00000000
   14.42833328  156.11000061    0.64999998    3.00000000
   14.43138885  145.99000549    0.63000000    3.00000000
   14.43750000  145.99000549    0.64999998    3.00000000
   14.44138908  141.62399292    0.64999998    3.00000000
   14.44472218  145.06900024    0.64999998    3.00000000
   14.44805527  140.48399353    0.63000000    3.00000000
   14.45055580  145.53799438    0.63000000    3.00000000
   14.45166683  144.47900391    0.58999997    3.00000000
   14.45472240  131.75999451    0.58999997    3.01999998
   14.45805550  145.64300537    0.58999997    3.01999998
   14.46138859  141.96899414    0.61000001    3.00000000
   14.46444416  141.07400513    0.61000001    3.00000000
   14.46777725  141.56900024    0.63000000    3.00000000
   14.47111034  137.35800171    0.61000001    3.00000000
   14.47416592  135.05499268    0.61000001    3.00000000
   14.48027706  135.05499268    0.64999998    3.01999998
   14.48444462  141.52000427    0.64999998    3.01999998
   14.48750019  141.06399536    0.63000000    3.00000000
   14.49083328  140.46299744    0.64999998    3.00000000
   14.49416733  130.50100708    0.69000000    3.00000000
   14.49722290  135.32400513    0.69000000    3.00000000
   14.50055599  139.38699341    0.70999998    3.00000000
   14.50361156  135.22500610    0.70999998    3.00000000
   14.50694466  136.12899780    0.70999998    3.00000000
   14.51027775  133.87500000    0.70999998    3.00000000
   14.51333332  131.46899414    0.73000002    3.00000000
   14.51666641  141.00399780    0.73000002    3.00000000
   14.51722240  141.51100159    0.69000000    3.00000000
   14.52305508  141.51100159    0.67000002    3.01999998
   14.52722168  145.76800537    0.67000002    3.01999998
   14.53055573  140.61000061    0.64999998    3.00000000
   14.53361130  137.77000427    0.64999998    3.00000000
   14.53694534  142.67799377    0.64999998    3.00000000
   14.54027843  137.19900513    0.64999998    3.00000000
   14.54333401  132.79499817    0.64999998    3.01999998
   14.54666710  140.54800415    0.64999998    3.00000000
   14.55000019  139.84100342    0.64999998    3.00000000
   14.55055618  139.03700256    0.64999998    3.00000000
   14.55361176  136.85499573    0.64999998    3.00000000
   14.55666733  142.29800415    0.64999998    3.00000000
   14.56000042  137.36199951    0.64999998    3.00000000
   14.56583309  137.36199951    0.67000002    3.00000000
   14.56999969  139.96499634    0.64999998    3.00000000
   14.57333374  143.62199402    0.64999998    3.00000000
   14.57666683  139.23699951    0.64999998    3.00000000
   14.57972240  123.09300232    0.64999998    3.00000000
   14.58305550  143.07099915    0.64999998    3.00000000
   14.58388901  141.35800171    0.64999998    3.00000000
   14.58666611  144.37699890    0.64999998    3.00000000
   14.58972168  136.37899780    0.64999998    3.00000000
   14.59305477  134.60600281    0.64999998    3.00000000
   14.59638882  138.42999268    0.67000002    3.01999998
   14.59944439  130.51699829    0.64999998    3.01999998
   14.60277843  132.10499573    0.64999998    3.00000000
   14.60888958  132.10499573    0.64999998    3.00000000
   14.61305618  129.73800659    0.64999998    3.00000000
   14.61611176  141.56399536    0.64999998    3.00000000
   14.61722279  136.12699890    0.64999998    3.00000000
   14.61972237  143.55599976    0.64999998    3.00000000
   14.62277794  133.41700745    0.67000002    3.01999998
   14.62611103  133.34599304    0.67000002    3.00000000
   14.62944412  138.64199829    0.67000002    3.00000000
   14.63249969  137.86000061    0.67000002    3.00000000
   14.63583279  139.27600098    0.67000002    3.00000000
   14.63916683  135.14700317    0.67000002    3.01999998
   14.64222240  135.98500061    0.64999998    3.00000000
   14.64555550  144.39300537    0.64999998    3.00000000
   14.65166664  144.39300537    0.64999998    3.00000000
   14.65583324  136.78799438    0.64999998    3.00000000
   14.65888882  141.67700195    0.64999998    3.00000000
   14.66222191  142.41400146    0.64999998    3.00000000
   14.66555500  135.21200562    0.64999998    3.00000000
   14.66861153  140.84700012    0.64999998    3.01999998
   14.67194462  137.38600159    0.64999998    3.00000000
   14.67527771  131.87300110    0.64999998    3.00000000
   14.67833328  132.32699585    0.63000000    3.01999998
   14.68166733  149.05499268    0.61000001    3.00000000
   14.68388939  130.55299377    0.61000001    3.00000000
   14.68527794  148.58299255    0.61000001    3.01999998
   14.68833351  152.61199951    0.61000001    3.00000000
   14.69444466  152.61199951    0.61000001    3.00000000
   14.69861126  144.77200317    0.61000001    3.01999998
   14.70166683  141.23899841    0.63000000    3.00000000
   14.70499992  140.93099976    0.63000000    3.00000000
   14.70833302  146.12199402    0.63000000    3.01999998
   14.71138859  146.74699402    0.64999998    3.00000000
   14.71472168  141.46800232    0.64999998    3.00000000
   14.71722221  142.30000305    0.64999998    3.00000000
   14.71833324  138.20799255    0.64999998    3.00000000
   14.72138882  135.78300476    0.64999998    3.00000000
   14.72472191  140.76600647    0.64999998    3.00000000
   14.72805500  146.83200073    0.69000000    3.00000000
   14.73111057  137.81900024    0.73000002    3.00000000
   14.73722267  137.81900024    0.75000000    3.01999998
   14.74138927  138.08200073    0.75000000    2.98000002
   14.74472237  145.18099976    0.76999998    3.00000000
   14.74777794  141.17300415    0.79000002    3.00000000
   14.75055599  153.74000549    0.79000002    3.00000000
   14.75166702  143.42399597    0.79000002    3.00000000
   14.75472260  148.30999756    0.79000002    3.00000000
   14.75805569  147.45899963    0.80000001    3.01999998
   14.76138878  146.80799866    0.81999999    3.00000000
   14.76444435  141.44200134    0.81999999    3.00000000
   14.76777744  139.63699341    0.81999999    3.00000000
   14.77111053  137.93499756    0.81999999    3.01999998
   14.77416611  137.30000305    0.81999999    3.00000000
   14.78027725  137.30000305    0.79000002    3.00000000
   14.78416729  145.30299377    0.76999998    3.00000000
   14.78750038  143.68200684    0.76999998    3.00000000
   14.79083347  150.82000732    0.75000000    3.01999998
   14.79388905  141.03799438    0.75000000    3.01999998
   14.79722309  136.91200256    0.75000000    3.01999998
   14.80055618  134.11099243    0.73000002    3.00000000
   14.80361176  136.99400330    0.73000002    3.01999998
   14.80694485  140.20899963    0.73000002    3.01999998
   14.81027794  146.02600098    0.73000002    3.00000000
   14.81333351  142.45100403    0.70999998    3.00000000
   14.81666660  140.56100464    0.69000000    3.00000000
   14.81722260  147.03399658    0.69000000    3.01999998
   14.82305527  147.03399658    0.67000002    3.01999998
   14.82722187  136.29100037    0.69000000    3.00000000
   14.83027744  135.38200378    0.67000002    3.00000000
   14.83361053  130.91900635    0.67000002    3.01999998
   14.83666611  140.62899780    0.67000002    3.00000000
   14.84000015  134.22900391    0.67000002    3.00000000
   14.84333324  138.90499878    0.67000002    3.01999998
   14.84638882  135.10000610    0.67000002    3.01999998
   14.84972191  145.11000061    0.64999998    3.00000000
   14.85055637  140.16600037    0.64999998    3.00000000
   14.85333347  141.34300232    0.64999998    3.00000000
   14.85638905  135.55000305    0.64999998    3.00000000
   14.85972214  151.80799866    0.64999998    3.00000000
   14.86583328  151.80799866    0.64999998    3.01999998
   14.86999989  144.02600098    0.64999998    3.01999998
   14.87333393  146.09100342    0.61000001    3.00000000
   14.87638855  140.00399780    0.61000001    3.01999998
   14.87972260  155.95500183    0.61000001    3.01999998
   14.88277817  148.84399414    0.63000000    3.01999998
   14.88388920  148.19500732    0.58999997    3.00000000
   14.88666630  150.99600220    0.56999999    3.01999998
   14.88972187  143.75599670    0.56999999    3.00000000
   14.89305496  143.05900574    0.56999999    3.01999998
   14.89638901  131.63000488    0.56999999    3.01999998
   14.89944458  145.64500427    0.55000001    3.01999998
   14.90277767  146.63099670    0.55000001    3.01999998
   14.90861034  146.63099670    0.55000001    3.01999998
   14.91277695  147.96899414    0.55000001    3.01999998
   14.91611099  139.14599609    0.52999997    3.01999998
   14.91722298  137.33900452    0.52999997    3.01999998
   15.02250004   -1.00000000   -1.00000000   -1.00000000
   15.16166592   -1.00000000   -1.00000000   -1.00000000
   15.51249981   -1.00000000   -1.00000000   -1.00000000
   15.54611111  161.68299866    0.52999997    3.01999998
   15.54916668  155.25700378    0.52999997    3.03999996
   15.55249977  161.57000732    0.52999997    3.03999996
   15.55583382  160.68899536    0.55000001    3.01999998
   15.55888939  150.95199585    0.55000001    3.01999998
   15.56222248  163.80499268    0.55000001    3.01999998
   15.56638908  163.80499268    0.55000001    3.01999998
   15.57055569  155.27299500    0.55000001    3.03999996
   15.57361126  149.15400696    0.55000001    3.03999996
   15.57694435  157.76400757    0.56999999    3.01999998
   15.57916641  149.32800293    0.56999999    3.01999998
   15.58055592  156.22599792    0.56999999    3.01999998
   15.58361053  146.71200562    0.58999997    3.01999998
   15.58694458  159.66600037    0.58999997    3.03999996
   15.59027767  147.05200195    0.61000001    3.01999998
   15.59333324  148.90600586    0.58999997    3.01999998
   15.59666634  149.47799683    0.58999997    3.01999998
   15.60000038  149.28599548    0.58999997    3.01999998
   15.60305595  145.14599609    0.58999997    3.01999998
   15.60916710  145.14599609    0.58999997    3.01999998
   15.61333370  148.82699585    0.58999997    3.03999996
   15.61638927  145.18499756    0.58999997    3.03999996
   15.61972237  139.56799316    0.58999997    3.03999996
   15.62305546  153.15299988    0.61000001    3.01999998
   15.62611103  144.85800171    0.63000000    3.03999996
   15.62944412  146.06300354    0.63000000    3.03999996
   15.63277817  141.26499939    0.63000000    3.01999998
   15.63583279  145.86099243    0.64999998    3.05999994
   15.63916683  148.53300476    0.64999998    3.03999996
   15.64222240  140.56500244    0.64999998    3.03999996
   15.64555550  158.06700134    0.64999998    3.01999998
   15.64611053  160.48699951    0.64999998    3.01999998
   15.65194416  160.48699951    0.63000000    3.01999998
   15.65611076  153.74699402    0.63000000    3.01999998
   15.65944386  167.36500549    0.63000000    3.01999998
   15.66249943  172.91999817    0.63000000    3.01999998
   15.66583252  151.12800598    0.63000000    3.01999998
   15.66916656  150.58900452    0.63000000    3.01999998
   15.67222214  167.86900330    0.64999998    3.03999996
   15.67555618  165.36599731    0.63000000    3.01999998
   15.67861176  168.68400574    0.61000001    3.01999998
   15.67944431  151.87100220    0.61000001    3.01999998
   15.68249989  158.32400513    0.61000001    3.01999998
   15.68555546  169.58500671    0.63000000    3.01999998
   15.68888855  163.32699585    0.63000000    3.01999998
   15.69472218  163.32699585    0.63000000    3.01999998
   15.69888878  162.32600403    0.63000000    3.01999998
   15.70222187  156.28599548    0.63000000    3.01999998
   15.70555496  150.74499512    0.61000001    3.01999998
   15.70861053  159.47999573    0.61000001    3.01999998
   15.71194458  159.05499268    0.61000001    3.03999996
   15.71277714  167.31300354    0.61000001    3.03999996
   15.71555519  152.90600586    0.63000000    3.03999996
   15.71861076  150.27900696    0.61000001    3.01999998
   15.72194386  159.10200500    0.61000001    3.03999996
   15.72527695  147.94999695    0.61000001    3.03999996
   15.72833252  155.71800232    0.61000001    3.01999998
   15.73166656  156.89799500    0.61000001    3.03999996
   15.73777771  156.89799500    0.56999999    3.03999996
   15.74194431  149.91200256    0.56999999    3.03999996
   15.74499989  155.44700623    0.55000001    3.03999996
   15.74611092  155.37899780    0.52999997    3.03999996
   15.74888897  160.50599670    0.52999997    3.03999996
   15.75194454  155.90600586    0.52999997    3.03999996
   15.75527763  155.44700623    0.52999997    3.03999996
   15.75861073  150.78999329    0.52999997    3.03999996
   15.76166630  150.03999329    0.52999997    3.03999996
   15.76500034  162.53999329    0.52999997    3.01999998
   15.76805496  156.86799622    0.52999997    3.01999998
   15.77138901  160.93499756    0.52999997    3.01999998
   15.77472210  149.97999573    0.52999997    3.01999998
   15.78055573  149.97999573    0.52999997    3.03999996
   15.78472233  159.24499512    0.52999997    3.01999998
   15.78805637  160.71400452    0.52999997    3.03999996
   15.79111195  157.35600281    0.52999997    3.03999996
   15.79444504  150.02799988    0.52999997    3.03999996
   15.79750061  158.24899292    0.51999998    3.03999996
   15.80083370  157.11500549    0.51999998    3.03999996
   15.80416679  169.31399536    0.51999998    3.03999996
   15.80722237  162.70799255    0.52999997    3.03999996
   15.81055546  157.46400452    0.52999997    3.01999998
   15.81277752  155.43699646    0.52999997    3.03999996
   15.81416702  162.77400208    0.55000001    3.01999998
   15.81722260  165.45599365    0.52999997    3.03999996
   15.82333374  165.45599365    0.52999997    3.01999998
   15.82750034  166.19400024    0.52999997    3.03999996
   15.83083344  163.08299255    0.55000001    3.03999996
   15.83388901  159.41200256    0.55000001    3.03999996
   15.83722210  163.46099854    0.55000001    3.03999996
   15.84055519  151.21000671    0.55000001    3.03999996
   15.84361076  162.39300537    0.55000001    3.03999996
   15.84611034  162.19999695    0.55000001    3.03999996
   15.84749985  160.27900696    0.55000001    3.03999996
   15.85055637  157.23100281    0.55000001    3.03999996
   15.85388947  154.96099854    0.55000001    3.03999996
   15.85722256  157.69299316    0.56999999    3.03999996
   15.86027813  148.96099854    0.58999997    3.03999996
   15.86611176  148.96099854    0.56999999    3.03999996
   15.87027836  154.25300598    0.56999999    3.03999996
   15.87361145  147.62199402    0.56999999    3.03999996
   15.87694454  145.63400269    0.58999997    3.03999996
   15.87944412  151.24899292    0.56999999    3.03999996
   15.88055611  142.31100464    0.58999997    3.03999996
   15.88361073  142.81300354    0.58999997    3.03999996
   15.88694477  150.84500122    0.58999997    3.01999998
   15.89027786  155.18299866    0.58999997    3.03999996
   15.89333344  148.61999512    0.58999997    3.03999996
   15.89666653  144.90600586    0.58999997    3.03999996
   15.89999962  157.57499695    0.58999997    3.03999996
   15.90305519  155.01400757    0.58999997    3.01999998
   15.90916634  155.01400757    0.58999997    3.03999996
   15.91333294  158.62399292    0.58999997    3.03999996
   15.91638851  156.74000549    0.58999997    3.01999998
   15.91972256  159.26100159    0.61000001    3.03999996
   15.92277813  139.38600159    0.61000001    3.03999996
   15.92611122  154.84100342    0.61000001    3.01999998
   15.92944431  147.59100342    0.61000001    3.01999998
   15.93249989  148.92100525    0.61000001    3.03999996
   15.93583298  157.82099915    0.61000001    3.03999996
   15.93916702  146.53399658    0.61000001    3.03999996
   15.94222260  144.34500122    0.61000001    3.03999996
   15.94555569  143.44000244    0.61000001    3.01999998
   15.94611073  149.50999451    0.61000001    3.01999998
   15.95194435  149.50999451    0.61000001    3.05999994
   15.95611095  143.71699524    0.61000001    3.03999996
   15.95916653  144.02900696    0.61000001    3.03999996
   15.96249962  157.33799744    0.63000000    3.03999996
   15.96583271  144.78100586    0.61000001    3.01999998
   15.96888828  148.00799561    0.61000001    3.01999998
   15.97222137  151.83599854    0.61000001    3.01999998
   15.97527695  146.19700623    0.61000001    3.03999996
   15.97861099  140.28999329    0.58999997    3.01999998
   15.97944355  138.18200684    0.58999997    3.01999998
   15.98222160  142.53300476    0.58999997    3.03999996
   15.98527813  144.28999329    0.61000001    3.03999996
   15.98861122  144.59199524    0.61000001    3.01999998
   15.99472237  144.59199524    0.61000001    3.03999996
   15.99916649  146.88600159    0.56999999    3.03999996
   16.00222206  146.10099792    0.56999999    3.03999996
   16.00555611  141.53500366    0.56999999    3.03999996
   16.00888824  150.35699463    0.55000001    3.03999996
   16.01194382  150.30499268    0.55000001    3.07999992
   16.01277733  154.67599487    0.55000001    3.07999992
   16.01555634  141.61099243    0.55000001    3.03999996
   16.01861000  151.04600525    0.55000001    3.01999998
   16.02194405  151.68899536    0.55000001    3.03999996
   16.02527809  150.02000427    0.55000001    3.03999996
   16.02833366  144.60000610    0.55000001    3.01999998
   16.03166580  152.55499268    0.52999997    3.03999996
   16.03777695  152.55499268    0.52999997    3.01999998
   16.04166603  233.56599426    0.52999997    3.01999998
   16.04500008  146.21899414    0.52999997    3.01999998
   16.04611015  142.09399414    0.52999997    3.03999996
   16.04861069  152.84599304    0.52999997    3.03999996
   16.05194283  144.33200073    0.52999997    3.03999996
   16.05499840  153.30799866    0.51999998    3.03999996
   16.05833244  152.53599548    0.52999997    3.01999998
   16.06166649  150.89199829    0.52999997    3.03999996
   16.06472206  143.50900269    0.52999997    3.01999998
   16.06805611  146.25300598    0.55000001    3.03999996
   16.07111168  145.12399292    0.55000001    3.03999996
   16.07444572  147.11399841    0.56999999    3.01999998
   16.08055687  147.11399841    0.56999999    3.03999996
   16.08472252  155.36799622    0.56999999    3.03999996
   16.08777809  151.29699707    0.56999999    3.01999998
   16.09111214  149.89900208    0.56999999    3.03999996
   16.09416771  147.65499878    0.56999999    3.01999998
   16.09749985  151.48699951    0.58999997    3.01999998
   16.10083389  143.33000183    0.58999997    3.01999998
   16.10388947  143.37300110    0.61000001    3.01999998
   16.10722351  146.91000366    0.63000000    3.01999998
   16.11055565  153.02799988    0.63000000    3.03999996
   16.11277771  144.48500061    0.63000000    3.03999996
   16.11416626  144.16799927    0.67000002    3.05999994
   16.11722183  141.38299561    0.67000002    3.05999994
   16.12333298  141.38299561    0.67000002    3.01999998
   16.12750053  149.48199463    0.64999998    3.03999996
   16.13055611  140.48500061    0.64999998    3.03999996
   16.13388824  142.11099243    0.61000001    3.05999994
   16.13722229  151.42100525    0.58999997    3.01999998
   16.14055634  149.28100586    0.58999997    3.03999996
   16.14361191  148.55400085    0.58999997    3.00000000
   16.14611053  145.34500122    0.58999997    3.01999998
   16.14722252  144.57400513    0.61000001    3.01999998
   16.15027809  150.40299988    0.61000001    3.03999996
   16.15361023  147.34500122    0.61000001    3.03999996
   16.15694427  144.77699280    0.61000001    3.03999996
   16.15999985  145.74000549    0.58999997    3.03999996
   16.16611099  145.74000549    0.58999997    3.01999998
   16.17027664  143.70100403    0.61000001    3.01999998
   16.17361069  152.10000610    0.61000001    3.01999998
   16.17666626  149.00000000    0.63000000    3.01999998
   16.17944336  145.67100525    0.63000000    3.01999998
   16.18055534  155.81700134    0.63000000    3.01999998
   16.18361092  152.22999573    0.63000000    3.01999998
   16.18694305  141.79800415    0.64999998    3.03999996
   16.19027710  147.07099915    0.67000002    3.03999996
   16.19333267  145.41799927    0.64999998    3.01999998
   16.19666672  153.04100037    0.64999998    3.01999998
   16.20000076  144.12899780    0.64999998    3.01999998
   16.20305634  144.23199463    0.67000002    3.03999996
   16.20916748  144.23199463    0.67000002    3.03999996
   16.21305656  142.55299377    0.67000002    3.01999998
   16.21638870  142.83700562    0.67000002    3.01999998
   16.21972275  139.17599487    0.67000002    3.03999996
   16.22277832  148.86599731    0.69000000    3.01999998
   16.22611237  141.63299561    0.67000002    3.01999998
   16.22944450  141.59500122    0.69000000    3.01999998
   16.23250008  136.53599548    0.67000002    3.03999996
   16.23583412  136.20899963    0.67000002    3.01999998
   16.23916626  141.77299500    0.69000000    3.01999998
   16.24222183  140.33900452    0.67000002    3.01999998
   16.24555588  139.83200073    0.69000000    3.01999998
   16.24611092  139.51100159    0.69000000    3.01999998
   16.25194359  139.51100159    0.67000002    3.01999998
   16.25611115  152.31300354    0.69000000    3.01999998
   16.25916672  148.34700012    0.69000000    3.03999996
   16.26250076  143.31599426    0.70999998    3.01999998
   16.26555634  156.00399780    0.69000000    3.01999998
   16.26888847  140.56399536    0.69000000    3.01999998
   16.27222252  147.74000549    0.70999998    3.01999998
   16.27527809  149.27000427    0.70999998    3.01999998
   16.27861023  142.20799255    0.75000000    3.01999998
   16.27944374  142.77799988    0.75000000    3.01999998
   16.28222275  150.57200623    0.79000002    3.01999998
   16.28555489  143.02299500    0.75000000    3.03999996
   16.28861046  153.15600586    0.76999998    3.03999996
   16.29472160  153.15600586    0.75000000    3.01999998
   16.29888916  146.31100464    0.73000002    3.01999998
   16.30194283  145.32200623    0.75000000    3.01999998
   16.30527687  152.38299561    0.73000002    3.01999998
   16.30861092  142.89599609    0.73000002    3.03999996
   16.31166649  148.94400024    0.73000002    3.01999998
   16.31277657  149.92399597    0.73000002    3.01999998
   16.31527710  148.79400635    0.73000002    3.01999998
   16.31861115  144.97099304    0.75000000    3.03999996
   16.32166672  137.86799622    0.79000002    3.01999998
   16.32500076  147.41400146    0.76999998    3.01999998
   16.32805634  145.89199829    0.75000000    3.03999996
   16.33139038  142.51600647    0.70999998    3.03999996
   16.33750153  142.51600647    0.69000000    3.03999996
   16.34166718  141.13800049    0.67000002    3.01999998
   16.34500122  155.54899597    0.70999998    3.01999998
   16.34611130  152.79800415    0.70999998    3.01999998
   16.34861183  149.31500244    0.70999998    3.03999996
   16.35194397  144.80700684    0.73000002    3.03999996
   16.35499954  148.77499390    0.75000000    3.01999998
   16.35833359  144.73500061    0.75000000    3.03999996
   16.36138916  151.42900085    0.73000002    3.01999998
   16.36472321  139.65299988    0.70999998    3.01999998
   16.36805534  147.38400269    0.69000000    3.03999996
   16.37111092  143.98599243    0.67000002    3.01999998
   16.37444496  143.62500000    0.69000000    3.03999996
   16.38027763  143.62500000    4.90999985    3.21000004
   16.38444519  148.68899536    0.07000000    0.55000001
   16.38777733  151.09100342    0.05000000    0.25000000
   16.39111137  147.38099670    0.05000000    0.25000000
   16.39416695  150.24000549    0.05000000    0.25000000
   16.39749908  145.95100403    0.05000000    0.25000000
   16.40055466  156.27400208    0.05000000    0.25000000
   16.40388870  149.87100220    0.05000000    0.25000000
   16.40722275  147.83200073    0.05000000    0.25000000
   16.41027832  151.33099365    0.05000000    0.25000000
   16.41277695  146.64500427    0.05000000    0.25000000
   16.41388893  152.06500244    0.05000000    0.25000000
   16.41722107  144.48399353    0.05000000    0.25000000
   16.42333221  144.48399353    0.05000000    0.25000000
   16.42749977  142.80599976    0.05000000    0.25000000
   16.43055534  149.12500000    0.05000000    0.25000000
   16.43388748  142.06700134    0.05000000    0.25000000
   16.43694305  147.31700134    0.05000000    0.25000000
   16.44027710  148.19599915    0.05000000    0.25000000
   16.44361115  148.83399963    0.05000000    0.25000000
   16.44610977  150.86799622    0.05000000    0.25000000
   16.44722176  145.50500488    0.05000000    0.25000000
   16.45055580  149.85699463    0.05000000    0.25000000
   16.45361137  141.67599487    0.05000000    0.25000000
   16.45694542  147.84300232    0.05000000    0.25000000
   16.46000099  143.38600159    0.05000000    0.25000000
   16.46611214  143.38600159    0.05000000    0.25000000
   16.47027779  141.15400696    0.05000000    0.25000000
   16.47333336  147.87399292    0.05000000    0.25000000
   16.47666740  153.50700378    0.05000000    0.25000000
   16.47944450  142.16200256    0.05000000    0.25000000
   16.48027802  155.50799561    0.05000000    0.25000000
   16.48361206  157.14700317    0.05000000    0.25000000
   16.48666763  142.80299377    0.05000000    0.25000000
   16.48999977  143.94599915    0.05000000    0.25000000
   16.49305534  149.24200439    0.05000000    0.25000000
   16.49638939  144.43499756    0.05000000    0.25000000
   16.49972153  149.64399719    0.05000000    0.25000000
   16.50277710  151.89700317    0.05000000    0.25000000
   16.50888824  151.89700317    0.05000000    0.25000000
   16.51305580  156.75700378    0.05000000    0.25000000
   16.51638794  150.85099792    0.05000000    0.25000000
   16.51944351  152.08200073    0.05000000    0.25000000
   16.52277756  150.30000305    0.05000000    0.25000000
   16.52611160  148.64799500    0.05000000    0.25000000
   16.52916718  147.61399841    0.05000000    0.25000000
   16.53249931  144.90400696    0.05000000    0.25000000
   16.53555489  148.12899780    0.05000000    0.25000000
   16.53888893  139.21800232    0.05000000    0.25000000
   16.54222107  151.44200134    0.05000000    0.25000000
   16.54527664  143.95599365    0.05000000    0.25000000
   16.54611015  138.36199951    0.05000000    0.25000000
   16.56694603  138.36199951    0.05000000    0.25000000
   16.57111168  145.27200317    0.05000000    0.25000000
   16.57416725  147.35800171    0.05000000    0.25000000
   16.57750130  139.83000183    0.05000000    0.25000000
   16.57944489  145.76300049    0.05000000    0.25000000
   16.58111191  146.61000061    0.05000000    0.25000000
   16.58444595  149.85600281    0.05000000    0.25000000
   16.58750153  144.72900391    0.05000000    0.25000000
   16.59083366  148.65600586    0.05000000    0.25000000
   16.59416771  153.69400024    0.05000000    0.25000000
   16.59722328  158.78399658    0.05000000    0.25000000
   16.60055542  155.76400757    0.05000000    0.25000000
   16.60361099  157.03799438    0.05000000    0.25000000
   16.60972214  157.03799438    0.05000000    0.25000000
   16.61388969  155.79899597    0.05000000    0.25000000
   16.61694527  156.24099731    0.05000000    0.25000000
   16.62027740  168.19900513    0.05000000    0.25000000
   16.62361145  162.41499329    0.05000000    0.25000000
   16.62666702  153.15699768    0.05000000    0.25000000
   16.63000107  167.61999512    0.05000000    0.25000000
   16.63305473  149.27600098    0.05000000    0.25000000
   16.63638878  152.49600220    0.05000000    0.25000000
   16.63972282  148.72599792    0.05000000    0.25000000
   16.64277840  156.58700562    0.05000000    0.25000000
   16.64611053  151.78799438    0.05000000    0.25000000
   16.64666748  153.28100586    0.05000000    0.25000000
   16.65250015  153.28100586    0.05000000    0.25000000
   16.65666580  152.57499695    0.05000000    0.25000000
   16.65999985  143.66900635    0.05000000    0.25000000
   16.66305542  146.24200439    0.05000000    0.25000000
   16.66638756  149.60000610    0.05000000    0.25000000
   16.66944313  145.23599243    0.05000000    0.25000000
   16.67277718  143.39799500    0.05000000    0.25000000
   16.67611122  148.14300537    0.05000000    0.25000000
   16.67916679  148.92399597    0.05000000    0.25000000
   16.68000031  148.65899658    0.05000000    0.25000000
   16.68305397  142.17399597    0.05000000    0.25000000
   16.68610954  140.13600159    0.05000000    0.25000000
   16.68944359  142.69299316    0.05000000    0.25000000
   16.69527626  142.69299316    0.05000000    0.25000000
   16.69944382  138.26699829    0.05000000    0.25000000
   16.70277786  144.79299927    0.05000000    0.25000000
   16.70583344  142.52600098    0.05000000    0.25000000
   16.70916748  149.25799561    0.05000000    0.25000000
   16.71250153  155.32400513    0.05000000    0.25000000
   16.71333504  146.16499329    0.05000000    0.25000000
   16.71611214  155.05099487    0.05000000    0.25000000
   16.71916771  147.70100403    0.05000000    0.25000000
   16.72249985  140.45799255    0.05000000    0.25000000
   16.72555542  146.74699402    0.05000000    0.25000000
   16.72888947  144.78799438    0.05000000    0.25000000
   16.73222351  149.23399353    0.05000000    0.25000000
   16.73833275  149.23399353    0.05000000    0.25000000
   16.74222183  149.90600586    0.05000000    0.25000000
   16.74555588  146.49800110    0.05000000    0.25000000
   16.74666786  147.01499939    0.05000000    0.25000000
   16.74944496  144.61300659    0.05000000    0.25000000
   16.75250053  142.95399475    0.05000000    0.25000000
   16.75583267  150.45199585    0.05000000    0.25000000
   16.75888824  143.56399536    0.05000000    0.25000000
   16.76222229  144.29299927    0.05000000    0.25000000
   16.76555634  150.96699524    0.05000000    0.25000000
   16.76861000  151.09199524    0.05000000    0.25000000
   16.77194405  142.74899292    0.05000000    0.25000000
   16.77527809  144.73599243    0.05000000    0.25000000
   16.78111076  144.73599243    0.05000000    0.25000000
   16.78527641  153.56900024    0.05000000    0.25000000
   16.78833199  148.45500183    0.05000000    0.25000000
   16.79166603  148.34700012    0.05000000    0.25000000
   16.79500008  144.26899719    0.05000000    0.25000000
   16.79805565  140.32699585    0.05000000    0.25000000
   16.80138779  146.60499573    0.05000000    0.25000000
   16.80444336  145.66900635    0.05000000    0.25000000
   16.80777740  155.16099548    0.05000000    0.25000000
   16.81110954  145.22200012    0.05000000    0.25000000
   16.81333351  142.93600464    0.05000000    0.25000000
   16.81472206  150.05499268    0.05000000    0.25000000
   16.81777954  144.92199707    0.05000000    0.25000000
   16.82389069  144.92199707    0.05000000    0.25000000
   16.82805634  142.79600525    0.05000000    0.25000000
   16.83139038  144.75799561    0.05000000    0.25000000
   16.83444595  149.78599548    0.05000000    0.25000000
   16.83777809  163.40499878    0.05000000    0.25000000
   16.84083366  183.41499329    0.05000000    0.25000000
   16.84416771  199.57499695    0.05000000    0.25000000
   16.84666824  199.13900757    0.05000000    0.25000000
   16.84805679  170.73300171    0.05000000    0.25000000
   16.85111237  176.06100464    0.05000000    0.25000000
   16.85444450  222.81300354    0.05000000    0.25000000
   16.85750008  174.71899414    0.05000000    0.25000000
   16.86083412  212.68699646    0.05000000    0.25000000
   16.86666679  212.68699646    0.05000000    0.25000000
   16.87083435  169.53900146    0.05000000    0.25000000
   16.87416649  168.89199829    0.05000000    0.25000000
   16.87722206  179.67199707    0.05000000    0.25000000
   16.88000107  160.51600647    0.05000000    0.25000000
   16.88111115  150.28599548    0.05000000    0.25000000
   16.88416672  170.17300415    0.05000000    0.25000000
   16.88750076  154.34800720    0.05000000    0.25000000
   16.89055634  160.29400635    0.05000000    0.25000000
   16.89388847  161.94400024    0.05000000    0.25000000
   16.89722252  147.19700623    0.05000000    0.25000000
   16.90055466  154.38600159    0.05000000    0.25000000
   16.90361023  150.19999695    0.05000000    0.25000000
   16.90972137  150.19999695    0.05000000    0.25000000
   16.91361046  156.39799500    0.05000000    0.25000000
   16.91694450  138.12399292    0.05000000    0.25000000
   16.92027664  140.32099915    0.05000000    0.25000000
   16.92333221  147.56799316    0.05000000    0.25000000
   16.92666626  155.79299927    0.05000000    0.25000000
   16.93000031  145.93699646    0.05000000    0.25000000
   16.93305397  144.58700562    0.05000000    0.25000000
   16.93638802  149.77900696    0.05000000    0.25000000
   16.93944359  147.45500183    0.05000000    0.25000000
   16.94277763  153.95799255    0.05000000    0.25000000
   16.94610977  150.60000610    0.05000000    0.25000000
   16.94666672  147.17999268    0.05000000    0.25000000
   16.95250130  147.17999268    0.05000000    0.25000000
   16.95666695  148.08700562    0.05000000    0.25000000
   16.95972252  150.19000244    0.05000000    0.25000000
   16.96305656  159.23300171    0.05000000    0.25000000
   16.96638870  142.67999268    0.05000000    0.25000000
   16.96944427  145.04400635    0.05000000    0.25000000
   16.97277832  151.59599304    0.05000000    0.25000000
   16.97583389  153.62899780    0.05000000    0.25000000
   16.97916794  146.84399414    0.05000000    0.25000000
   16.98000145  153.23399353    0.05000000    0.25000000
   16.98277855  150.17500305    0.05000000    0.25000000
   16.98583412  151.14599609    0.05000000    0.25000000
   16.98916626  144.11900330    0.05000000    0.25000000
   16.99527740  144.11900330    0.05000000    0.25000000
   16.99944496  148.29100037    0.05000000    0.25000000
   17.00277710  152.88400269    0.05000000    0.25000000
   17.00583267  147.56900024    0.05000000    0.25000000
   17.00916672  143.60299683    0.05000000    0.25000000
   17.01222229  149.43299866    0.05000000    0.25000000
   17.01333427  157.03500366    0.05000000    0.25000000
   17.01611137  152.16900635    0.05000000    0.25000000
   17.01916695  157.35800171    0.05000000    0.25000000
   17.02249908  152.75399780    0.05000000    0.25000000
   17.02583313  149.15499878    0.05000000    0.25000000
   17.02888870  153.61999512    0.05000000    0.25000000
   17.03222275  152.41900635    0.05000000    0.25000000
   17.03805542  152.41900635    0.05000000    0.25000000
   17.04222107  155.88900757    0.05000000    0.25000000
   17.04555511  159.34399414    0.05000000    0.25000000
   17.04666710  155.57800293    0.05000000    0.25000000
   17.04916573  149.52900696    0.05000000    0.25000000
   17.05222130  159.05900574    0.05000000    0.25000000
   17.05555534  149.60299683    0.05000000    0.25000000
   17.05888748  146.40800476    0.05000000    0.25000000
   17.06194305  152.55099487    0.05000000    0.25000000
   17.06527710  148.60800171    0.05000000    0.25000000
   17.06861115  151.26400757    0.05000000    0.25000000
   17.07166672  146.93899536    0.05000000    0.25000000
   17.07500076  152.16000366    0.05000000    0.25000000
   17.08111191  152.16000366    0.05000000    0.25000000
   17.08500099  157.73500061    0.05000000    0.25000000
   17.08833313  152.14900208    0.05000000    0.25000000
   17.09166718  150.35800171    0.05000000    0.25000000
   17.09472275  156.32699585    0.05000000    0.25000000
   17.09805679  162.12199402    0.05000000    0.25000000
   17.10111237  150.62500000    0.05000000    0.25000000
   17.10444450  156.41499329    0.05000000    0.25000000
   17.10777855  155.53100586    0.05000000    0.25000000
   17.11083412  148.57800293    0.05000000    0.25000000
   17.11333466  150.07699585    0.05000000    0.25000000
   17.11472321  147.74499512    0.05000000    0.25000000
   17.11777878  148.80299377    0.05000000    0.25000000
   17.12388992  148.80299377    0.05000000    0.25000000
   17.12805557  150.03700256    0.05000000    0.25000000
   17.13111115  151.21200562    0.05000000    0.25000000
   17.13444519  146.74800110    0.05000000    0.25000000
   17.13750076  156.84399414    0.05000000    0.25000000
   17.14083290  159.81199646    0.05000000    0.25000000
   17.14416695  159.16400146    0.05000000    0.25000000
   17.14666748  155.13000488    0.05000000    0.25000000
   17.14777756  150.45399475    0.05000000    0.25000000
   17.15111160  154.33700562    0.05000000    0.25000000
   17.15416718  150.75199890    0.05000000    0.25000000
   17.15749931  152.36500549    0.05000000    0.25000000
   17.16055489  155.54299927    0.05000000    0.25000000
   17.16666603  155.54299927    0.05000000    0.25000000
   17.17083359  154.66600037    0.05000000    0.25000000
   17.17388916  158.79800415    0.05000000    0.25000000
   17.17722130  149.24200439    0.05000000    0.25000000
   17.18000031  159.81700134    0.05000000    0.25000000
   17.18083191  154.75599670    0.05000000    0.25000000
   17.18388748  161.44400024    0.05000000    0.25000000
   17.18722153  151.73300171    0.05000000    0.25000000
   17.19055557  147.67599487    0.05000000    0.25000000
   17.19361115  147.33999634    0.05000000    0.25000000
   17.19694328  148.18800354    0.05000000    0.25000000
   17.20000076  157.07699585    0.05000000    0.25000000
   17.20333481  159.54899597    0.05000000    0.25000000
   17.20944595  159.54899597    0.05000000    0.25000000
   17.21361160  151.19099426    0.05000000    0.25000000
   17.21694565  154.19099426    0.05000000    0.25000000
   17.22000122  153.13099670    0.05000000    0.25000000
   17.22333336  150.84700012    0.05000000    0.25000000
   17.22666740  156.66000366    0.05000000    0.25000000
   17.22972298  150.20399475    0.05000000    0.25000000
   17.23305511  145.55999756    0.05000000    0.25000000
   17.23611069  154.13999939    0.05000000    0.25000000
   17.23944473  146.31199646    0.05000000    0.25000000
   17.24277878  154.26499939    0.05000000    0.25000000
   17.24583435  152.00300598    0.05000000    0.25000000
   17.24666786  149.54600525    0.05000000    0.25000000
   17.25222206  149.54600525    0.05000000    0.25000000
   17.25638962  151.52200317    0.05000000    0.25000000
   17.25972176  151.39900208    0.05000000    0.25000000
   17.26305580  155.40400696    0.05000000    0.25000000
   17.26611137  152.77600098    0.05000000    0.25000000
   17.26944351  155.89300537    0.05000000    0.25000000
   17.27249908  147.87800598    0.05000000    0.25000000
   17.27583313  155.95500183    0.05000000    0.25000000
   17.27916718  154.04600525    0.05000000    0.25000000
   17.28000069  150.28199768    0.05000000    0.25000000
   17.28277779  152.11199951    0.05000000    0.25000000
   17.28583336  153.72900391    0.05000000    0.25000000
   17.28916550  161.02999878    0.05000000    0.25000000
   17.29527664  161.02999878    0.05000000    0.25000000
   17.29944420  160.17999268    0.05000000    0.25000000
   17.30249977  147.97200012    0.05000000    0.25000000
   17.30583191  152.24600220    0.05000000    0.25000000
   17.30888748  151.27299500    0.05000000    0.25000000
   17.31222153  153.55400085    0.05000000    0.25000000
   17.31333351  148.91600037    0.05000000    0.25000000
   17.31583214  158.70300293    0.05000000    0.25000000
   17.31888962  150.15100098    0.05000000    0.25000000
   17.32222366  149.74000549    0.05000000    0.25000000
   17.32555580  149.89500427    0.05000000    0.25000000
   17.32861137  155.99600220    0.05000000    0.25000000
   17.33194542  152.45100403    0.05000000    0.25000000
   17.33805656  152.45100403    0.05000000    0.25000000
   17.34222221  148.64300537    0.05000000    0.25000000
   17.34527779  149.69500732    0.05000000    0.25000000
   17.34666824  152.11300659    0.05000000    0.25000000
   17.34916687  151.22799683    0.05000000    0.25000000
   17.35222244  150.14100647    0.05000000    0.25000000
   17.35555649  147.38600159    0.05000000    0.25000000
   17.35888863  152.41600037    0.05000000    0.25000000
   17.36194420  153.06300354    0.05000000    0.25000000
   17.36527824  157.22300720    0.05000000    0.25000000
   17.36861038  149.27799988    0.05000000    0.25000000
   17.37166595  150.63800049    0.05000000    0.25000000
   17.37500000  160.97700500    0.05000000    0.25000000
   17.38083267  160.97700500    0.05000000    0.25000000
   17.38500023  155.81500244    0.05000000    0.25000000
   17.38833237  153.47000122    0.05000000    0.25000000
   17.39138794  157.34599304    0.05000000    0.25000000
   17.39472198  158.35400391    0.05000000    0.25000000
   17.39805603  154.24200439    0.05000000    0.25000000
   17.40111160  156.71299744    0.05000000    0.25000000
   17.40444374  159.68299866    0.05000000    0.25000000
   17.40777779  160.34100342    0.05000000    0.25000000
   17.41083336  156.43499756    0.05000000    0.25000000
   17.41333389  155.84899902    0.05000000    0.25000000
   17.41444397  152.12100220    0.05000000    0.25000000
   17.41749954  157.31199646    0.05000000    0.25000000
   17.42361069  157.31199646    0.05000000    0.25000000
   17.42777634  156.73800659    0.05000000    0.25000000
   17.43111038  157.57200623    0.05000000    0.25000000
   17.43444443  154.46000671    0.05000000    0.25000000
   17.43750000  153.14700317    0.05000000    0.25000000
   17.44083214  158.02000427    0.05000000    0.25000000
   17.44388771  150.66700745    0.05000000    0.25000000
   17.44666672  150.48699951    0.05000000    0.25000000
   17.44777679  154.24499512    0.05000000    0.25000000
   17.45111275  146.69999695    0.05000000    0.25000000
   17.45416832  154.46699524    0.05000000    0.25000000
   17.45750046  155.07200623    0.05000000    0.25000000
   17.46055603  160.23800659    0.05000000    0.25000000
   17.46666718  160.23800659    0.05000000    0.25000000
   17.47083473  155.83999634    0.05000000    0.25000000
   17.47389030  153.03399658    0.05000000    0.25000000
   17.47722244  149.31799316    0.05000000    0.25000000
   17.48000145  154.56500244    0.05000000    0.25000000
   17.48083305  158.33399963    0.05000000    0.25000000
   17.48416710  163.92599487    0.05000000    0.25000000
   17.48722267  157.08900452    0.05000000    0.25000000
   17.49055672  161.34599304    0.05000000    0.25000000
   17.49361229  163.44099426    0.05000000    0.25000000
   17.49694443  168.99000549    0.05000000    0.25000000
   17.50027847  169.65499878    0.05000000    0.25000000
   17.50333405  151.40800476    0.05000000    0.25000000
   17.50944519  151.40800476    0.05000000    0.25000000
   17.51361084  169.60600281    0.05000000    0.25000000
   17.51666641  171.30000305    0.05000000    0.25000000
   17.52000046  153.85499573    0.05000000    0.25000000
   17.52333260  162.12699890    0.05000000    0.25000000
   17.52638817  178.82800293    0.05000000    0.25000000
   17.52972221  166.28100586    0.05000000    0.25000000
   17.53305435  169.23500061    0.05000000    0.25000000
   17.53610992  159.19700623    0.05000000    0.25000000
   17.53944397  174.43800354    0.05000000    0.25000000
   17.54249954  171.25999451    0.05000000    0.25000000
   17.54583359  167.83000183    0.05000000    0.25000000
   17.54666710  173.10000610    0.05000000    0.25000000
   17.55222130  173.10000610    0.05000000    0.25000000
   17.55638885  173.66099548    0.05000000    0.25000000
   17.55972099  161.43899536    0.05000000    0.25000000
   17.56277657  175.15699768    0.05000000    0.25000000
   17.58055687  156.95199585    0.05000000    0.25000000
   17.58277893  159.71699524    0.05000000    0.25000000
   17.58611107  174.60600281    0.05000000    0.25000000
   17.58944511  168.99299622    0.05000000    0.25000000
   17.59527779  168.99299622    0.05000000    0.25000000
   17.59944534  172.63999939    0.05000000    0.25000000
   17.60277748  167.83900452    0.05000000    0.25000000
   17.60583305  169.00399780    0.05000000    0.25000000
   17.60916710  173.31599426    0.05000000    0.25000000
   17.61222267  184.15499878    0.05000000    0.25000000
   17.61361122  176.91700745    0.05000000    0.25000000
   17.61611176  171.76400757    0.05000000    0.25000000
   17.61944389  180.60299683    0.05000000    0.25000000
   17.62249947  183.34100342    0.05000000    0.25000000
   17.62583351  167.45300293    0.05000000    0.25000000
   17.62916756  166.69099426    0.05000000    0.25000000
   17.63222313  179.14300537    0.05000000    0.25000000
   17.63805580  179.14300537    0.05000000    0.25000000
   17.64222145  167.57099915    0.05000000    0.25000000
   17.64555550  172.67199707    0.05000000    0.25000000
   17.64694405  182.53199768    0.05000000    0.25000000
   17.64916611  161.96600342    0.05000000    0.25000000
   17.65250015  178.71699524    0.05000000    0.25000000
   17.65555573  173.45899963    0.05000000    0.25000000
   17.65888786  175.59399414    0.05000000    0.25000000
   17.66222191  175.14900208    0.05000000    0.25000000
   17.66527748  168.88200378    0.05000000    0.25000000
   17.66860962  166.90299988    0.05000000    0.25000000
   17.67194366  171.17500305    0.05000000    0.25000000
   17.67499924  158.22700500    0.05000000    0.25000000
   17.68111038  158.22700500    0.05000000    0.25000000
   17.68499947  167.53500366    0.05000000    0.25000000
   17.68833160  169.98800659    0.05000000    0.25000000
   17.69166565  184.05999756    0.05000000    0.25000000
   17.69472122  158.58500671    0.05000000    0.25000000
   17.69805527  170.00599670    0.05000000    0.25000000
   17.70138931  174.14199829    0.05000000    0.25000000
   17.70444489  165.35200500    0.05000000    0.25000000
   17.70777893  166.36199951    0.05000000    0.25000000
   17.71083450  156.02499390    0.05000000    0.25000000
   17.71361160  164.80999756    0.05000000    0.25000000
   17.71444511  156.63999939    0.05000000    0.25000000
   17.71777916  164.26600647    0.05000000    0.25000000
   17.72389030  164.26600647    0.05000000    0.25000000
   17.72805595  158.51300049    0.05000000    0.25000000
   17.73111153  176.79899597    0.05000000    0.25000000
   17.73444557  166.66000366    0.05000000    0.25000000
   17.73777771  162.11399841    0.05000000    0.25000000
   17.74083328  179.36700439    0.05000000    0.25000000
   17.74416733  168.93099976    0.05000000    0.25000000
   17.74694443  163.88999939    0.05000000    0.25000000
   17.74777794  167.34500122    0.05000000    0.25000000
   17.75111198  164.90199280    0.05000000    0.25000000
   17.75416756  170.63400269    0.05000000    0.25000000
   17.75749969  184.07699585    0.05000000    0.25000000
   17.76083374  170.28300476    0.05000000    0.25000000
   17.76666641  170.28300476    0.05000000    0.25000000
   17.77083397  157.41400146    0.05000000    0.25000000
   17.77416611  158.43800354    0.05000000    0.25000000
   17.77722168  160.13099670    0.05000000    0.25000000
   17.78027725  159.10299683    0.05000000    0.25000000
   17.78083229  157.96899414    0.05000000    0.25000000
   17.78416634  161.72200012    0.05000000    0.25000000
   17.78722191  164.52600098    0.05000000    0.25000000
   17.79055595  173.61500549    0.05000000    0.25000000
   17.79388809  156.86999512    0.05000000    0.25000000
   17.79694366  163.21600342    0.05000000    0.25000000
   17.80027771  168.03399658    0.05000000    0.25000000
   17.80333328  166.65699768    0.05000000    0.25000000
   17.80944443  166.65699768    0.05000000    0.25000000
   17.81361008  160.70300293    0.05000000    0.25000000
   17.81416512  166.94700623    0.05000000    0.25000000
   17.81750107  173.15400696    0.05000000    0.25000000
   17.82055664  165.09599304    0.05000000    0.25000000
   17.82389069  164.42799377    0.05000000    0.25000000
   17.82722282  164.23899841    0.05000000    0.25000000
   17.83027840  168.31100464    0.05000000    0.25000000
   17.83361244  161.23300171    0.05000000    0.25000000
   17.83694458  168.76800537    0.05000000    0.25000000
   17.84000015  167.01600647    0.05000000    0.25000000
   17.84333420  160.40499878    0.05000000    0.25000000
   17.84638977  164.78300476    0.05000000    0.25000000
   17.84694481  162.61099243    0.05000000    0.25000000
   17.85250092  162.61099243    0.05000000    0.25000000
   17.85639000  171.06599426    0.05000000    0.25000000
   17.85972214  173.83099365    0.05000000    0.25000000
   17.86305618  158.81799316    0.05000000    0.25000000
   17.86611176  161.88699341    0.05000000    0.25000000
   17.86944389  145.05299377    0.05000000    0.25000000
   17.87277794  163.70899963    0.05000000    0.25000000
   17.87583351  172.36900330    0.05000000    0.25000000
   17.87916756  171.79899597    0.05000000    0.25000000
   17.88027763  175.98800659    0.05000000    0.25000000
   17.88277817  161.50999451    0.05000000    0.25000000
   17.88611031  163.41499329    0.05000000    0.25000000
   17.88916588  170.00000000    0.05000000    0.25000000
   17.89527702  170.00000000    0.05000000    0.25000000
   17.89944458  161.70500183    0.05000000    0.25000000
   17.90250015  149.75900269    0.05000000    0.25000000
   17.90583229  158.15499878    0.05000000    0.25000000
   17.90916634  160.72599792    0.05000000    0.25000000
   17.91222191  158.53799438    0.05000000    0.25000000
   17.91361046  156.83399963    0.05000000    0.25000000
   17.91583252  157.52499390    0.05000000    0.25000000
   17.91916656  156.12199402    0.05000000    0.25000000
   17.92222214  155.67799377    0.05000000    0.25000000
   17.92555428  154.47700500    0.05000000    0.25000000
   17.92888832  158.88499451    0.05000000    0.25000000
   17.93194389  150.95300293    0.05000000    0.25000000
   17.93805504  150.95300293    0.05000000    0.25000000
   17.94222069  154.60000610    0.05000000    0.25000000
   17.94555473  153.58000183    0.05000000    0.25000000
   17.94722176  160.44000244    0.05000000    0.25000000
   17.94916534  164.60000610    0.05000000    0.25000000
   17.95250130  152.83599854    0.05000000    0.25000000
   17.95555687  155.26100159    0.05000000    0.25000000
   17.95888901  153.25900269    0.05000000    0.25000000
   17.96222305  160.33599854    0.05000000    0.25000000
   17.96527863  160.08099365    0.05000000    0.25000000
   17.96861076  160.07699585    0.05000000    0.25000000
   17.97194481  163.30000305    0.05000000    0.25000000
   17.97500038  155.99200439    0.05000000    0.25000000
   17.98083305  155.99200439    0.05000000    0.25000000
   17.98500061  162.32299805    0.05000000    0.25000000
   17.98833275  158.58500671    0.05000000    0.25000000
   17.99138832  158.50799561    0.05000000    0.25000000
   17.99472237  153.58900452    0.05000000    0.25000000
   17.99805641  162.08599854    0.05000000    0.25000000
   18.00111198  158.93800354    0.05000000    0.25000000
   18.00444412  154.59700012    0.05000000    0.25000000
   18.00777817  152.40699768    0.05000000    0.25000000
   18.01083374  148.63900757    0.05000000    0.25000000
   18.01388931  160.86099243    0.05000000    0.25000000
   18.01444435  152.25599670    0.05000000    0.25000000
   18.01777840  159.28599548    0.05000000    0.25000000
   18.02361107  159.28599548    0.05000000    0.25000000
   18.02777672  163.48599243    0.05000000    0.25000000
   18.03111076  158.81399536    0.05000000    0.25000000
   18.03444481  157.18699646    0.05000000    0.25000000
   18.03750038  162.14500427    0.05000000    0.25000000
   18.04083252  162.09899902    0.05000000    0.25000000
   18.04416656  167.45599365    0.05000000    0.25000000
   18.04722214  166.28300476    0.05000000    0.25000000
   18.04749870  159.21499634    0.05000000    0.25000000
   18.05083275  159.47700500    0.05000000    0.25000000
   18.05388832  164.14900208    0.05000000    0.25000000
   18.05722237  160.29899597    0.05000000    0.25000000
   18.06055450  161.58200073    0.05000000    0.25000000
   18.06666756  161.58200073    0.05000000    0.25000000
   18.07083511  159.63000488    0.05000000    0.25000000
   18.07389069  166.00000000    0.05000000    0.25000000
   18.07722282  154.36399841    0.05000000    0.25000000
   18.08055687  158.88699341    0.05000000    0.25000000
   18.08083344  170.02299500    0.05000000    0.25000000
   18.08416748  168.35800171    0.05000000    0.25000000
   18.08722305  164.20599365    0.05000000    0.25000000
   18.09055710  161.41600037    0.05000000    0.25000000
   18.09388924  171.02999878    0.05000000    0.25000000
   18.09694481  163.17100525    0.05000000    0.25000000
   18.10027885  165.18899536    0.05000000    0.25000000
   18.10361099  167.27999878    0.05000000    0.25000000
   18.10944557  167.27999878    0.05000000    0.25000000
   18.11361122  172.77299500    0.05000000    0.25000000
   18.11416626  162.12699890    0.05000000    0.25000000
   18.11722183  162.00999451    0.05000000    0.25000000
   18.12055588  169.77299500    0.05000000    0.25000000
   18.12388992  172.98800659    0.05000000    0.25000000
   18.12694550  159.47399902    0.05000000    0.25000000
   18.13027763  165.12500000    0.05000000    0.25000000
   18.13361168  173.43800354    0.05000000    0.25000000
   18.13666725  173.50900269    0.05000000    0.25000000
   18.13999939  167.44500732    0.05000000    0.25000000
   18.14305496  174.28399658    0.05000000    0.25000000
   18.14638901  176.56300354    0.05000000    0.25000000
   18.14749908  168.62800598    0.05000000    0.25000000
   18.15222168  168.62800598    0.05000000    0.25000000
   18.15638924  176.92599487    0.05000000    0.25000000
   18.15972137  178.90800476    0.05000000    0.25000000
   18.16277695  178.44200134    0.05000000    0.25000000
   18.16611099  185.42900085    0.05000000    0.25000000
   18.16944313  182.67100525    0.05000000    0.25000000
   18.17277718  185.43899536    0.05000000    0.25000000
   18.17583275  181.03700256    0.05000000    0.25000000
   18.17916679  194.37399292    0.05000000    0.25000000
   18.18083191  185.94099426    0.05000000    0.25000000
   18.18277740  203.76199341    0.05000000    0.25000000
   18.18583298  179.04400635    0.05000000    0.25000000
   18.18916512  193.32400513    0.05000000    0.25000000
   18.19527626  193.32400513    0.05000000    0.25000000
   18.19916534  189.10499573    0.05000000    0.25000000
   18.20250130  206.85200500    0.05000000    0.25000000
   18.20583344  184.25399780    0.05000000    0.25000000
   18.20888901  197.83999634    0.05000000    0.25000000
   18.21222305  187.31100464    0.05000000    0.25000000
   18.21416664  193.37399292    0.05000000    0.25000000
   18.21583366  188.99299622    0.05000000    0.25000000
   18.21888924  178.13999939    0.05000000    0.25000000
   18.22222328  184.04400635    0.05000000    0.25000000
   18.22527885  189.20300293    0.05000000    0.25000000
   18.22861099  189.31199646    0.05000000    0.25000000
   18.23194504  173.51300049    0.05000000    0.25000000
   18.23805618  173.51300049    0.05000000    0.25000000
   18.24222183  178.38600159    0.05000000    0.25000000
   18.24527740  172.73699951    0.05000000    0.25000000
   18.24749947  176.81799316    0.05000000    0.25000000
   18.24916649  185.41299438    0.05000000    0.25000000
   18.25222206  166.74600220    0.05000000    0.25000000
   18.25555611  173.98699951    0.05000000    0.25000000
   18.25861168  181.73100281    0.05000000    0.25000000
   18.26194382  176.89799500    0.05000000    0.25000000
   18.26527786  186.27200317    0.05000000    0.25000000
   18.26833344  176.49699402    0.05000000    0.25000000
   18.27166557  175.54699707    0.05000000    0.25000000
   18.27499962  168.10299683    0.05000000    0.25000000
   18.28083229  168.10299683    0.05000000    0.25000000
   18.28499985  177.50100708    0.05000000    0.25000000
   18.28833199  169.04499817    0.05000000    0.25000000
   18.29138756  164.81799316    0.05000000    0.25000000
   18.29472160  166.28799438    0.05000000    0.25000000
   18.29777718  158.46400452    0.05000000    0.25000000
   18.30111122  164.25799561    0.05000000    0.25000000
   18.30444336  169.81900024    0.05000000    0.25000000
   18.30749893  163.51300049    0.05000000    0.25000000
   18.31083298  156.52499390    0.05000000    0.25000000
   18.31416512  161.83500671    0.05000000    0.25000000
   18.31444359  159.44500732    0.05000000    0.25000000
   18.31777954  156.58299255    0.05000000    0.25000000
   18.32361221  156.58299255    0.05000000    0.25000000
   18.32777786  159.15899658    0.05000000    0.25000000
   18.33111191  153.15400696    0.05000000    0.25000000
   18.33416748  163.30299377    0.05000000    0.25000000
   18.33750153  152.50300598    0.05000000    0.25000000
   18.34083366  163.94500732    0.05000000    0.25000000
   18.34388924  158.83099365    0.05000000    0.25000000
   18.34722328  165.08000183    0.05000000    0.25000000
   18.34777832  154.83000183    0.05000000    0.25000000
   18.35083389  156.48699951    0.05000000    0.25000000
   18.35416794  163.99299622    0.05000000    0.25000000
   18.35722351  162.64199829    0.05000000    0.25000000
   18.36055565  163.85200500    0.05000000    0.25000000
   18.36666679  163.85200500    0.05000000    0.25000000
   18.37055588  160.80999756    0.05000000    0.25000000
   18.37388992  151.47799683    0.05000000    0.25000000
   18.37722206  156.94400024    0.05000000    0.25000000
   18.38027763  160.88000488    0.05000000    0.25000000
   18.38111115  162.07400513    0.05000000    0.25000000
   18.38388824  159.65699768    0.05000000    0.25000000
   18.38722229  154.90600586    0.05000000    0.25000000
   18.39027786  157.99699402    0.05000000    0.25000000
   18.39361191  164.84800720    0.05000000    0.25000000
   18.39694405  156.56300354    0.05000000    0.25000000
   18.39999962  155.38699341    0.05000000    0.25000000
   18.40333366  158.69000244    0.05000000    0.25000000
   18.40944481  158.69000244    0.05000000    0.25000000
   18.41361046  168.76300049    0.05000000    0.25000000
   18.41444397  165.37300110    0.05000000    0.25000000
   18.41722107  167.04800415    0.05000000    0.25000000
   18.42055511  159.35699463    0.05000000    0.25000000
   18.42361069  171.97999573    0.05000000    0.25000000
   18.42694473  172.93299866    0.05000000    0.25000000
   18.43027687  153.52600098    0.05000000    0.25000000
   18.43333244  160.39100647    0.05000000    0.25000000
   18.43666649  164.17999268    0.05000000    0.25000000
   18.43999863  170.69200134    0.05000000    0.25000000
   18.44305420  160.93600464    0.05000000    0.25000000
   18.44638824  152.17900085    0.05000000    0.25000000
   18.44777679  157.01100159    0.05000000    0.25000000
   18.45222282  157.01100159    0.05000000    0.25000000
   18.45639038  173.65899658    0.05000000    0.25000000
   18.45972252  160.63200378    0.05000000    0.25000000
   18.46277809  165.36799622    0.05000000    0.25000000
   18.46611214  152.86700439    0.05000000    0.25000000
   18.46916771  160.91799927    0.05000000    0.25000000
   18.47249985  170.79200745    0.05000000    0.25000000
   18.47583389  160.15699768    0.05000000    0.25000000
   18.47888947  161.82499695    0.05000000    0.25000000
   18.48139000  157.93299866    0.05000000    0.25000000
   18.48250008  163.23599243    0.05000000    0.25000000
   18.48583412  159.85099792    0.05000000    0.25000000
   18.48888969  159.54400635    0.05000000    0.25000000
   18.49500084  159.54400635    0.05000000    0.25000000
   18.49916649  162.67199707    0.05000000    0.25000000
   18.50250053  160.49299622    0.05000000    0.25000000
   18.50583267  166.66900635    0.05000000    0.25000000
   18.50888824  159.82200623    0.05000000    0.25000000
   18.51222229  160.15499878    0.05000000    0.25000000
   18.51472282  151.82400513    0.05000000    0.25000000
   18.51583290  155.17100525    0.05000000    0.25000000
   18.51916695  159.82800293    0.05000000    0.25000000
   18.52222252  155.87199402    0.05000000    0.25000000
   18.52555466  147.04699707    0.05000000    0.25000000
   18.52888870  154.34399414    0.05000000    0.25000000
   18.53194427  155.14399719    0.05000000    0.25000000
   18.53805542  155.14399719    0.05000000    0.25000000
   18.54194450  149.41200256    0.05000000    0.25000000
   18.54527664  146.30000305    0.05000000    0.25000000
   18.54805565  152.09700012    0.05000000    0.25000000
   18.54888916  152.24299622    0.05000000    0.25000000
   18.55222130  147.60899353    0.05000000    0.25000000
   18.55527687  152.13699341    0.05000000    0.25000000
   18.55861092  157.52600098    0.05000000    0.25000000
   18.56194305  148.99600220    0.05000000    0.25000000
   18.56499863  156.08200073    0.05000000    0.25000000
   18.56833458  149.06100464    0.05000000    0.25000000
   18.57166672  148.16900635    0.05000000    0.25000000
   18.57472229  151.57800293    0.05000000    0.25000000
   18.58083344  151.57800293    0.05000000    0.25000000
   18.59916687  148.63000488    0.05000000    0.25000000
   18.60250092  153.67399597    0.05000000    0.25000000
   18.60555649  145.95899963    0.05000000    0.25000000
   18.60888863  154.00799561    0.05000000    0.25000000
   18.61222267  155.75500488    0.05000000    0.25000000
   18.61527824  154.76800537    0.05000000    0.25000000
   18.61861038  144.93099976    0.05000000    0.25000000
   18.62388992  144.93099976    0.05000000    0.25000000
   18.62805557  152.56599426    0.05000000    0.25000000
   18.63111115  147.06300354    0.05000000    0.25000000
   18.63222313  146.41700745    0.05000000    0.25000000
   18.63500023  154.66200256    0.05000000    0.25000000
   18.63805580  155.49099731    0.05000000    0.25000000
   18.64138794  149.01800537    0.05000000    0.25000000
   18.64472198  157.26699829    0.05000000    0.25000000
   18.64777756  155.72399902    0.05000000    0.25000000
   18.65111160  146.92500305    0.05000000    0.25000000
   18.65416718  147.09700012    0.05000000    0.25000000
   18.65749931  156.44500732    0.05000000    0.25000000
   18.66083336  153.26199341    0.05000000    0.25000000
   18.66666603  153.26199341    0.05000000    0.25000000
   18.67083359  150.14199829    0.05000000    0.25000000
   18.67416573  148.89599609    0.05000000    0.25000000
   18.67722130  156.89999390    0.05000000    0.25000000
   18.68055534  154.51699829    0.05000000    0.25000000
   18.68388748  160.96099854    0.05000000    0.25000000
   18.68694305  155.66200256    0.05000000    0.25000000
   18.69027710  160.57600403    0.05000000    0.25000000
   18.69333267  148.61900330    0.05000000    0.25000000
   18.69666672  154.33200073    0.05000000    0.25000000
   18.69888878  155.75500488    0.05000000    0.25000000
   18.70027924  152.65299988    0.05000000    0.25000000
   18.70333481  145.73699951    0.05000000    0.25000000
   18.70944595  145.73699951    0.05000000    0.25000000
   18.71361160  153.08200073    0.05000000    0.25000000
   18.71694565  151.65400696    0.05000000    0.25000000
   18.72027779  149.83099365    0.05000000    0.25000000
   18.72333336  152.23800659    0.05000000    0.25000000
   18.72666740  156.99200439    0.05000000    0.25000000
   18.72972298  151.77099609    0.05000000    0.25000000
   18.73222351  154.35699463    0.05000000    0.25000000
   18.73361206  156.63299561    0.05000000    0.25000000
   18.73666763  158.80400085    0.05000000    0.25000000
   18.73999977  156.35299683    0.05000000    0.25000000
   18.74333382  151.54100037    0.05000000    0.25000000
   18.74638939  155.54400635    0.05000000    0.25000000
   18.75250053  155.54400635    0.05000000    0.25000000
   18.75666618  156.97300720    0.05000000    0.25000000
   18.75972176  158.32000732    0.05000000    0.25000000
   18.76305580  158.20399475    0.05000000    0.25000000
   18.76555634  162.31300354    0.05000000    0.25000000
   18.76666641  159.05099487    0.05000000    0.25000000
   18.76972198  157.83200073    0.05000000    0.25000000
   18.77305603  156.54800415    0.05000000    0.25000000
   18.77638817  162.00399780    0.05000000    0.25000000
   18.77944374  160.52299500    0.05000000    0.25000000
   18.78277779  164.96899414    0.05000000    0.25000000
   18.78610992  164.04400635    0.05000000    0.25000000
   18.78916550  147.71800232    0.05000000    0.25000000
   18.79527664  147.71800232    0.05000000    0.25000000
   18.79944420  171.70899963    0.05000000    0.25000000
   18.80249977  167.02499390    0.05000000    0.25000000
   18.80583191  168.72099304    0.05000000    0.25000000
   18.80916595  154.24299622    0.05000000    0.25000000
   18.81222153  160.04100037    0.05000000    0.25000000
   18.81555557  161.24600220    0.05000000    0.25000000
   18.81888962  154.79800415    0.05000000    0.25000000
   18.82194519  156.37199402    0.05000000    0.25000000
   18.82527924  166.70500183    0.05000000    0.25000000
   18.82833481  164.27400208    0.05000000    0.25000000
   18.83166695  156.88900757    0.05000000    0.25000000
   18.83222389  155.96499634    0.05000000    0.25000000
   18.83805656  155.96499634    0.05000000    0.25000000
   18.84222221  163.87500000    0.05000000    0.25000000
   18.84555626  151.52999878    0.05000000    0.25000000
   18.84861183  158.23800659    0.05000000    0.25000000
   18.85194397  154.35299683    0.05000000    0.25000000
   18.85527802  162.00599670    0.05000000    0.25000000
   18.85833359  162.31799316    0.05000000    0.25000000
   18.86166763  158.32800293    0.05000000    0.25000000
   18.86499977  152.14300537    0.05000000    0.25000000
   18.86555672  154.68299866    0.05000000    0.25000000
   18.86861038  155.34199524    0.05000000    0.25000000
   18.87166595  146.50799561    0.05000000    0.25000000
   18.87500000  152.96600342    0.05000000    0.25000000
   18.88083267  152.96600342    0.05000000    0.25000000
   18.88500023  156.22300720    0.05000000    0.25000000
   18.88833237  148.98599243    0.05000000    0.25000000
   18.89138794  147.23800659    0.05000000    0.25000000
   18.89472198  151.13999939    0.05000000    0.25000000
   18.89805603  151.13099670    0.05000000    0.25000000
   18.89888954  151.52200317    0.05000000    0.25000000
   18.90166664  151.44099426    0.05000000    0.25000000
   18.90472221  148.48300171    0.05000000    0.25000000
   18.90805435  144.78100586    0.05000000    0.25000000
   18.91138840  156.45799255    0.05000000    0.25000000
   18.91444397  152.27699280    0.05000000    0.25000000
   18.91777802  160.06500244    0.05000000    0.25000000
   18.92388916  160.06500244    0.05000000    0.25000000
   18.92805481  158.48599243    0.05000000    0.25000000
   18.93111038  160.28700256    0.05000000    0.25000000
   18.93222237  150.49000549    0.05000000    0.25000000
   18.93472099  155.14700317    0.05000000    0.25000000
   18.93777657  153.75500488    0.05000000    0.25000000
   18.94111061  154.40800476    0.05000000    0.25000000
   18.94444275  150.56300354    0.05000000    0.25000000
   18.94749832  153.71600342    0.05000000    0.25000000
   18.95083427  157.88299561    0.05000000    0.25000000
   18.95416832  157.14799500    0.05000000    0.25000000
   18.95722389  161.31500244    0.05000000    0.25000000
   18.96055603  156.01899719    0.05000000    0.25000000
   18.96666718  156.01899719    0.05000000    0.25000000
   18.97083473  155.93200684    0.05000000    0.25000000
   18.97389030  158.27400208    0.05000000    0.25000000
   18.97722244  160.50799561    0.05000000    0.25000000
   18.98055649  159.82499695    0.05000000    0.25000000
   18.98361206  161.93200684    0.05000000    0.25000000
   18.98694420  159.39999390    0.05000000    0.25000000
   18.99027824  160.90100098    0.05000000    0.25000000
   18.99333382  179.43800354    0.05000000    0.25000000
   18.99666786  170.94299316    0.05000000    0.25000000
   18.99888992  172.14300537    0.05000000    0.25000000
   19.00027847  155.29699707    0.05000000    0.25000000
   19.00333405  195.32800293    0.05000000    0.25000000
   19.00944519  195.32800293    0.05000000    0.25000000
   19.01361084  168.52499390    0.05000000    0.25000000
   19.01694489  172.34300232    0.05000000    0.25000000
   19.02000046  159.31500244    0.05000000    0.25000000
   19.02333260  160.26699829    0.05000000    0.25000000
   19.02666664  154.22000122    0.05000000    0.25000000
   19.02972221  154.97500610    0.05000000    0.25000000
   19.03222275  162.73899841    0.05000000    0.25000000
   19.03333282  154.84500122    0.05000000    0.25000000
   19.03638840  147.39399719    0.05000000    0.25000000
   19.03972244  153.16400146    0.05000000    0.25000000
   19.04305458  154.60499573    0.05000000    0.25000000
   19.04611015  155.35699463    0.05000000    0.25000000
   19.05222130  155.35699463    0.05000000    0.25000000
   19.05638885  159.54600525    0.05000000    0.25000000
   19.05972099  159.49899292    0.05000000    0.25000000
   19.06305504  150.12100220    0.05000000    0.25000000
   19.06555557  161.48899841    0.05000000    0.25000000
   19.06666756  151.41700745    0.05000000    0.25000000
   19.07027817  153.71499634    0.05000000    0.25000000
   19.07333374  150.44400024    0.05000000    0.25000000
   19.07666779  167.79800415    0.05000000    0.25000000
   19.07972336  155.10000610    0.05000000    0.25000000
   19.08333397  162.07699585    0.05000000    0.25000000
   19.08666801  157.89100647    0.05000000    0.25000000
   19.08972359  159.93499756    0.05000000    0.25000000
   19.09527779  159.93499756    0.05000000    0.25000000
   19.09944534  159.69099426    0.05000000    0.25000000
   19.10250092  154.59599304    0.05000000    0.25000000
   19.10583305  151.14199829    0.05000000    0.25000000
   19.10888863  149.66799927    0.05000000    0.25000000
   19.11222267  152.64700317    0.05000000    0.25000000
   19.11555672  150.99299622    0.05000000    0.25000000
   19.11861038  158.73800659    0.05000000    0.25000000
   19.12194443  165.60400391    0.05000000    0.25000000
   19.12527847  183.24400330    0.05000000    0.25000000
   19.12833405  165.21899414    0.05000000    0.25000000
   19.13166618  174.89900208    0.05000000    0.25000000
   19.13222313  161.72999573    0.05000000    0.25000000
   19.13805580  161.72999573    0.05000000    0.25000000
   19.14222145  161.96200562    0.05000000    0.25000000
   19.14527702  147.50000000    0.05000000    0.25000000
   19.14861107  156.38000488    0.05000000    0.25000000
   19.15194321  154.77699280    0.05000000    0.25000000
   19.15499878  156.54600525    0.05000000    0.25000000
   19.15833282  155.61300659    0.05000000    0.25000000
   19.16166687  153.70500183    0.05000000    0.25000000
   19.16472244  158.99299622    0.05000000    0.25000000
   19.16555595  153.96499634    0.05000000    0.25000000
   19.16833305  158.42700195    0.05000000    0.25000000
   19.17138863  153.69299316    0.05000000    0.25000000
   19.17472076  159.55000305    0.05000000    0.25000000
   19.18083191  159.55000305    0.05000000    0.25000000
   19.18499947  154.03500366    0.05000000    0.25000000
   19.18833160  158.43899536    0.05000000    0.25000000
   19.19138718  150.48399353    0.05000000    0.25000000
   19.19472122  152.45100403    0.05000000    0.25000000
   19.19777679  156.46000671    0.05000000    0.25000000
   19.19888878  159.00199890    0.05000000    0.25000000
   19.20166779  159.22599792    0.05000000    0.25000000
   19.20472336  154.86000061    0.05000000    0.25000000
   19.20805550  161.76800537    0.05000000    0.25000000
   19.21138954  149.78399658    0.05000000    0.25000000
   19.21444511  155.28799438    0.05000000    0.25000000
   19.21777916  148.51800537    0.05000000    0.25000000
   19.22361183  148.51800537    0.05000000    0.25000000
   19.22777748  156.75000000    0.05000000    0.25000000
   19.23111153  158.33200073    0.05000000    0.25000000
   19.23222351  161.82699585    0.05000000    0.25000000
   19.23472214  155.13000488    0.05000000    0.25000000
   19.23777771  157.21499634    0.05000000    0.25000000
   19.24111176  160.28500366    0.05000000    0.25000000
   19.24444389  155.56300354    0.05000000    0.25000000
   19.24749947  159.89799500    0.05000000    0.25000000
   19.25083351  156.41999817    0.05000000    0.25000000
   19.25416756  161.67300415    0.05000000    0.25000000
   19.25722313  168.09300232    0.05000000    0.25000000
   19.26055527  159.88200378    0.05000000    0.25000000
   19.26666641  159.88200378    0.05000000    0.25000000
   19.27083397  157.38800049    0.05000000    0.25000000
   19.27388954  168.88200378    0.05000000    0.25000000
   19.27722168  170.01499939    0.05000000    0.25000000
   19.28027725  180.20599365    0.05000000    0.25000000
   19.28361130  163.82800293    0.05000000    0.25000000
   19.28694344  179.53500366    0.05000000    0.25000000
   19.28999901  170.50500488    0.05000000    0.25000000
   19.29333305  169.16000366    0.05000000    0.25000000
   19.29638863  182.71200562    0.05000000    0.25000000
   19.29888916  165.53799438    0.05000000    0.25000000
   19.30027771  177.69200134    0.05000000    0.25000000
   19.30333328  176.62899780    0.05000000    0.25000000
   19.30944443  176.62899780    0.05000000    0.25000000
   19.31361008  158.54499817    0.05000000    0.25000000
   19.31666756  162.97599792    0.05000000    0.25000000
   19.32000160  167.14599609    0.05000000    0.25000000
   19.32333374  173.36999512    0.05000000    0.25000000
   19.32638931  173.42100525    0.05000000    0.25000000
   19.32972336  171.81700134    0.05000000    0.25000000
   19.33222389  171.70199585    0.05000000    0.25000000
   19.33333397  182.46400452    0.05000000    0.25000000
   19.33638954  170.87500000    0.05000000    0.25000000
   19.33972359  174.52900696    0.05000000    0.25000000
   19.34305573  173.21499634    0.05000000    0.25000000
   19.34611130  158.53100586    0.05000000    0.25000000
   19.35222244  158.53100586    0.05000000    0.25000000
   19.35639000  168.67999268    0.05000000    0.25000000
   19.35972214  152.50399780    0.05000000    0.25000000
   19.36277771  155.85699463    0.05000000    0.25000000
   19.36555672  153.54100037    0.05000000    0.25000000
   19.36638832  159.23300171    0.05000000    0.25000000
   19.36944389  167.04100037    0.05000000    0.25000000
   19.37277794  168.09199524    0.05000000    0.25000000
   19.37611198  164.66299438    0.05000000    0.25000000
   19.37916756  169.39700317    0.05000000    0.25000000
   19.38249969  169.94999695    0.05000000    0.25000000
   19.38583374  166.23899841    0.05000000    0.25000000
   19.38888931  163.07899475    0.05000000    0.25000000
   19.39500046  163.07899475    0.05000000    0.25000000
   19.39916611  160.35099792    0.05000000    0.25000000
   19.40250015  154.20399475    0.05000000    0.25000000
   19.40583229  164.81900024    0.05000000    0.25000000
   19.40888786  160.64500427    0.05000000    0.25000000
   19.41222191  172.44299316    0.05000000    0.25000000
   19.41527748  170.91299438    0.05000000    0.25000000
   19.41860962  170.50399780    0.05000000    0.25000000
   19.42194366  165.76300049    0.05000000    0.25000000
   19.42499924  175.54400635    0.05000000    0.25000000
   19.42833328  171.60899353    0.05000000    0.25000000
   19.43166542  176.18899536    0.05000000    0.25000000
   19.43222237  168.44299316    0.05000000    0.25000000
   19.43805504  168.44299316    0.05000000    0.25000000
   19.44194412  160.41499329    0.05000000    0.25000000
   19.44527626  172.23800659    0.05000000    0.25000000
   19.44861031  167.87699890    0.05000000    0.25000000
   19.45166779  156.53100586    0.05000000    0.25000000
   19.45499992  167.64700317    0.05000000    0.25000000
   19.45833397  156.88600159    0.05000000    0.25000000
   19.46138954  160.80999756    0.05000000    0.25000000
   19.46472359  168.41099548    0.05000000    0.25000000
   19.46555710  171.28799438    0.05000000    0.25000000
   19.46833420  167.11799622    0.05000000    0.25000000
   19.47166634  165.65699768    0.05000000    0.25000000
   19.47472191  170.56500244    0.05000000    0.25000000
   19.48083305  170.56500244    0.05000000    0.25000000
   19.48500061  161.52999878    0.05000000    0.25000000
   19.48805618  167.44400024    0.05000000    0.25000000
   19.49138832  159.35699463    0.05000000    0.25000000
   19.49472237  164.83700562    0.05000000    0.25000000
   19.49777794  163.18899536    0.05000000    0.25000000
   19.49888992  166.87300110    0.05000000    0.25000000
   19.50138855  169.39199829    0.05000000    0.25000000
   19.50472260  171.73100281    0.05000000    0.25000000
   19.50777817  158.57600403    0.05000000    0.25000000
   19.51111031  165.67399597    0.05000000    0.25000000
   19.51416588  163.99000549    0.05000000    0.25000000
   19.51749992  172.41200256    0.05000000    0.25000000
   19.52361107  172.41200256    0.05000000    0.25000000
   19.52777672  161.60200500    0.05000000    0.25000000
   19.53111076  173.23100281    0.05000000    0.25000000
   19.53222275  179.18200684    0.05000000    0.25000000
   19.53472137  176.66299438    0.05000000    0.25000000
   19.53805542  167.78300476    0.05000000    0.25000000
   19.54111099  163.00700378    0.05000000    0.25000000
   19.54444313  164.21099854    0.05000000    0.25000000
   19.54749870  160.06599426    0.05000000    0.25000000
   19.55083275  165.89799500    0.05000000    0.25000000
   19.55416679  151.83799744    0.05000000    0.25000000
   19.55722237  164.99499512    0.05000000    0.25000000
   19.56055450  153.15100098    0.05000000    0.25000000
   19.56638718  153.15100098    0.05000000    0.25000000
   19.57055664  168.15100098    0.05000000    0.25000000
   19.57389069  165.33099365    0.05000000    0.25000000
   19.57694626  158.49000549    0.05000000    0.25000000
   19.58027840  157.42300415    0.05000000    0.25000000
   19.58361244  162.77200317    0.05000000    0.25000000
   19.58666801  163.18499756    0.05000000    0.25000000
   19.59000015  163.89300537    0.05000000    0.25000000
   19.59333420  155.44599915    0.05000000    0.25000000
   19.59638977  159.52600098    0.05000000    0.25000000
   19.59889030  169.02699280    0.05000000    0.25000000
   19.61972237  169.02699280    0.05000000    0.25000000
   19.62388992  166.87199402    0.05000000    0.25000000
   19.62694550  164.54400635    0.05000000    0.25000000
   19.63027763  160.80499268    0.05000000    0.25000000
   19.63222313  161.61300659    0.05000000    0.25000000
   19.63388824  156.55900574    0.05000000    0.25000000
   19.63722229  161.49600220    0.05000000    0.25000000
   19.64027786  152.65600586    0.05000000    0.25000000
   19.64361191  160.23699951    0.05000000    0.25000000
   19.64694405  153.46600342    0.05000000    0.25000000
   19.64999962  158.22399902    0.05000000    0.25000000
   19.65333366  163.73300171    0.05000000    0.25000000
   19.65666580  163.87100220    0.05000000    0.25000000
   19.66250038  163.87100220    0.05000000    0.25000000
   19.66638756  161.13999939    0.05000000    0.25000000
   19.66972160  151.06799316    0.05000000    0.25000000
   19.67305565  157.97000122    0.05000000    0.25000000
   19.67611122  161.00700378    0.05000000    0.25000000
   19.67944336  159.17999268    0.05000000    0.25000000
   19.68277740  152.11799622    0.05000000    0.25000000
   19.68583298  158.14700317    0.05000000    0.25000000
   19.68916512  158.15499878    0.05000000    0.25000000
   19.69222069  155.45399475    0.05000000    0.25000000
   19.69555473  163.52600098    0.05000000    0.25000000
   19.69888878  163.22599792    0.05000000    0.25000000
   19.69944382  162.67399597    0.05000000    0.25000000
   19.70527840  162.67399597    0.05000000    0.25000000
   19.70944595  153.56199646    0.05000000    0.25000000
   19.71250153  169.87300110    0.05000000    0.25000000
   19.71583366  154.69200134    0.05000000    0.25000000
   19.71916771  152.38699341    0.05000000    0.25000000
   19.72222328  156.65299988    0.05000000    0.25000000
   19.72555542  152.24600220    0.05000000    0.25000000
   19.72861099  146.89500427    0.05000000    0.25000000
   19.73194504  151.12100220    0.05000000    0.25000000
   19.73277855  153.62600708    0.05000000    0.25000000
   19.73555565  155.88200378    0.05000000    0.25000000
   19.73888969  152.79899597    0.05000000    0.25000000
   19.74222183  158.36199951    0.05000000    0.25000000
   19.74805641  158.36199951    0.05000000    0.25000000
   19.75222206  160.83200073    0.05000000    0.25000000
   19.75527763  156.82400513    0.05000000    0.25000000
   19.75861168  151.04600525    0.05000000    0.25000000
   19.76194382  149.99200439    0.05000000    0.25000000
   19.76499939  148.33200073    0.05000000    0.25000000
   19.76611137  161.40899658    0.05000000    0.25000000
   19.76861000  150.97999573    0.05000000    0.25000000
   19.77194405  163.99000549    0.05000000    0.25000000
   19.77527809  154.63600159    0.05000000    0.25000000
   19.77833366  162.61500549    0.05000000    0.25000000
   19.78166580  175.43899536    0.05000000    0.25000000
   19.78472137  177.73699951    0.05000000    0.25000000
   19.79083252  177.73699951    0.05000000    0.25000000
   19.79500008  185.31799316    0.05000000    0.25000000
   19.79833221  174.30999756    0.05000000    0.25000000
   19.79944420  168.66000366    0.05000000    0.25000000
   19.80194283  173.09599304    0.05000000    0.25000000
   19.80527687  168.53399658    0.05000000    0.25000000
   19.80861092  179.57899475    0.05000000    0.25000000
   19.81166649  179.44900513    0.05000000    0.25000000
   19.81499863  173.63000488    0.05000000    0.25000000
   19.81805611  183.47799683    0.05000000    0.25000000
   19.82139015  170.86399841    0.05000000    0.25000000
   19.82472229  167.82699585    0.05000000    0.25000000
   19.82777786  162.64300537    0.05000000    0.25000000
   19.83388901  162.64300537    0.05000000    0.25000000
   19.83777809  164.39300537    0.05000000    0.25000000
   19.84111214  165.32200623    0.05000000    0.25000000
   19.84444427  167.03900146    0.05000000    0.25000000
   19.84749985  172.55599976    0.05000000    0.25000000
   19.85083389  169.00599670    0.05000000    0.25000000
   19.85388947  166.75700378    0.05000000    0.25000000
   19.85722351  174.76600647    0.05000000    0.25000000
   19.86055565  158.83299255    0.05000000    0.25000000
   19.86361122  168.74400330    0.05000000    0.25000000
   19.86611176  156.31100464    0.05000000    0.25000000
   19.86722183  168.38900757    0.05000000    0.25000000
   19.87055588  164.15199280    0.05000000    0.25000000
   19.87666702  164.15199280    0.05000000    0.25000000
   19.88083267  158.75300598    0.05000000    0.25000000
   19.88388824  136.50000000    0.05000000    0.25000000
   19.88722229  162.88499451    0.05000000    0.25000000
   19.89027786  154.63900757    0.05000000    0.25000000
   19.89361191  144.23899841    0.05000000    0.25000000
   19.89694405  155.07000732    0.05000000    0.25000000
   19.89944458  173.98199463    0.05000000    0.25000000
   19.90027809  152.10499573    0.05000000    0.25000000
   19.90361023  179.50900269    0.05000000    0.25000000
   19.90694427  144.62899780    0.05000000    0.25000000
   19.90999985  154.00000000    0.05000000    0.25000000
   19.91333389  159.97700500    0.05000000    0.25000000
   19.91944313  159.97700500    0.05000000    0.25000000
   19.92361069  152.83700562    0.05000000    0.25000000
   19.92666626  155.05900574    0.05000000    0.25000000
   19.93000031  156.56900024    0.05000000    0.25000000
   19.93277740  157.97500610    0.05000000    0.25000000
   19.93361092  153.22700500    0.05000000    0.25000000
   19.93694305  155.28199768    0.05000000    0.25000000
   19.94027710  168.18899536    0.05000000    0.25000000
   19.94333267  171.99299622    0.05000000    0.25000000
   19.94666672  159.04699707    0.05000000    0.25000000
   19.94972038  182.92999268    0.05000000    0.25000000
   19.95305634  162.82000732    0.05000000    0.25000000
   19.95639038  167.34500122    0.05000000    0.25000000
   19.96222305  167.34500122    0.05000000    0.25000000
   19.96638870  169.84599304    0.05000000    0.25000000
   19.96972275  175.00799561    0.05000000    0.25000000
   19.97277832  163.95500183    0.05000000    0.25000000
   19.97611237  165.56799316    0.05000000    0.25000000
   19.97944450  169.24600220    0.05000000    0.25000000
   19.98250008  159.94999695    0.05000000    0.25000000
   19.98583412  155.50599670    0.05000000    0.25000000
   19.98888969  161.39799500    0.05000000    0.25000000
   19.99222183  160.00599670    0.05000000    0.25000000
   19.99555588  166.17799377    0.05000000    0.25000000
   19.99861145  156.04299927    0.05000000    0.25000000
   19.99944496  165.83200073    0.05000000    0.25000000
   20.00527763  165.83200073    0.05000000    0.25000000
   20.00916672  159.39300537    0.05000000    0.25000000
   20.01250076  164.31399536    0.05000000    0.25000000
   20.01583290  162.14100647    0.05000000    0.25000000
   20.01888847  165.69599915    0.05000000    0.25000000
   20.02222252  165.35699463    0.05000000    0.25000000
   20.02527809  160.09800720    0.05000000    0.25000000
   20.02861023  162.50000000    0.05000000    0.25000000
   20.03194427  159.47700500    0.05000000    0.25000000
   20.03277779  172.84800720    0.05000000    0.25000000
   20.03555489  152.43299866    0.05000000    0.25000000
   20.03888893  161.78799438    0.05000000    0.25000000
   20.04222107  151.51600647    0.05000000    0.25000000
   20.04805565  151.51600647    0.05000000    0.25000000
   20.05222130  162.25799561    0.05000000    0.25000000
   20.05527687  163.39799500    0.05000000    0.25000000
   20.05861092  156.13200378    0.05000000    0.25000000
   20.06166649  159.31900024    0.05000000    0.25000000
   20.06499863  160.78199768    0.05000000    0.25000000
   20.06611061  163.25700378    0.05000000    0.25000000
   20.06861115  155.06700134    0.05000000    0.25000000
   20.07194519  155.95799255    0.05000000    0.25000000
   20.07527924  160.02200317    0.05000000    0.25000000
   20.07833481  149.08799744    0.05000000    0.25000000
   20.08166695  158.36900330    0.05000000    0.25000000
   20.08500099  156.59500122    0.05000000    0.25000000
   20.09083366  156.59500122    0.05000000    0.25000000
   20.09500122  149.86399841    0.05000000    0.25000000
   20.09805679  155.19900513    0.05000000    0.25000000
   20.09944534  158.13299561    0.05000000    0.25000000
   20.10166740  158.61300659    0.05000000    0.25000000
   20.10499954  152.73100281    0.05000000    0.25000000
   20.10833359  153.08000183    0.05000000    0.25000000
   20.11138916  150.44200134    0.05000000    0.25000000
   20.11472321  154.52900696    0.05000000    0.25000000
   20.11805534  154.61999512    0.05000000    0.25000000
   20.12111092  160.27699280    0.05000000    0.25000000
   20.12444496  140.42399597    0.05000000    0.25000000
   20.12750053  154.93800354    0.05000000    0.25000000
   20.13361168  154.93800354    0.05000000    0.25000000
   20.13777733  170.85299683    0.05000000    0.25000000
   20.14111137  162.24200439    0.05000000    0.25000000
   20.14416695  162.71200562    0.05000000    0.25000000
   20.14749908  197.84399414    0.05000000    0.25000000
   20.15083313  195.62500000    0.05000000    0.25000000
   20.15388870  162.17799377    0.05000000    0.25000000
   20.15722275  189.03300476    0.05000000    0.25000000
   20.16027832  238.52400208    0.05000000    0.25000000
   20.16361046  144.48500061    0.05000000    0.25000000
   20.16611099   -1.00000000   -1.00000000   -1.00000000
   20.16722107   -1.00000000    0.05000000    0.25000000
   20.17055511   92.68599701    0.05000000    0.25000000
   20.17666626   92.68599701    0.05000000    0.25000000
   20.18055534  152.14799500    0.05000000    0.25000000
   20.18388748   -1.00000000    0.05000000    0.25000000
   20.18722153   -1.00000000    0.05000000    0.25000000
   20.19027710   -1.00000000    0.05000000    0.25000000
   20.19361115   -1.00000000    0.05000000    0.25000000
   20.19666672  129.90899658    0.05000000    0.25000000
   20.19944382  133.93800354    0.05000000    0.25000000
   20.20055580  178.22500610    0.05000000    0.25000000
   20.20361137  208.21299744    0.05000000    0.25000000
   20.20694542  143.60400391    0.05000000    0.25000000
   20.21000099  191.25999451    0.05000000    0.25000000
   20.21333504  128.78799438    0.05000000    0.25000000
   20.21944427  128.78799438    0.05000000    0.25000000
   20.22361183  237.04800415    0.05000000    0.25000000
   20.22666740  191.76899719    0.05000000    0.25000000
   20.23000145  234.37699890    0.05000000    0.25000000
   20.23277855  202.07299805    0.05000000    0.25000000
   20.23361206  211.34500122    0.05000000    0.25000000
   20.23666763  128.07299805    0.05000000    0.25000000
   20.23999977  222.02900696    0.05000000    0.25000000
   20.24333382  239.27000427    0.05000000    0.25000000
   20.24638939  171.27299500    0.05000000    0.25000000
   20.24972153  246.07499695    0.05000000    0.25000000
   20.25277710  254.05400085    0.05000000    0.25000000
   20.25611115  239.60499573    0.05000000    0.25000000
   20.26222229  239.60499573    0.05000000    0.25000000
   20.26638794  184.14700317    0.05000000    0.25000000
   20.26944351  156.90600586    0.05000000    0.25000000
   20.27277756  152.53199768    0.05000000    0.25000000
   20.27611160  150.64799500    0.05000000    0.25000000
   20.27916718  158.28399658    0.05000000    0.25000000
   20.28249931  152.69599915    0.05000000    0.25000000
   20.28583336  186.03900146    0.05000000    0.25000000
   20.28888893  194.19099426    0.05000000    0.25000000
   20.29222107  201.88000488    0.05000000    0.25000000
   20.29527664  158.57200623    0.05000000    0.25000000
   20.29861069  203.66499329    0.05000000    0.25000000
   20.29944420  182.68499756    0.05000000    0.25000000
   20.30499840  182.68499756    0.05000000    0.25000000
   20.30916595  179.48500061    0.05000000    0.25000000
   20.31250000  156.89399719    0.05000000    0.25000000
   20.31555557  171.86700439    0.05000000    0.25000000
   20.31888962  155.54499817    0.05000000    0.25000000
   20.32222366  157.86900330    0.05000000    0.25000000
   20.32527924  162.32000732    0.05000000    0.25000000
   20.32861137  158.12899780    0.05000000    0.25000000
   20.33194542  148.31199646    0.05000000    0.25000000
   20.33277893  147.90699768    0.05000000    0.25000000
   20.33555603  150.09300232    0.05000000    0.25000000
   20.33861160  160.03100586    0.05000000    0.25000000
   20.34194565  159.94400024    0.05000000    0.25000000
   20.34777832  159.94400024    0.05000000    0.25000000
   20.35194397  159.60600281    0.05000000    0.25000000
   20.35527802  159.81599426    0.05000000    0.25000000
   20.35861206  160.86399841    0.05000000    0.25000000
   20.36166763  159.19900513    0.05000000    0.25000000
   20.36499977  159.07499695    0.05000000    0.25000000
   20.36611176  155.89500427    0.05000000    0.25000000
   20.36861038  152.38000488    0.05000000    0.25000000
   20.37166595  171.47599792    0.05000000    0.25000000
   20.37500000  159.95799255    0.05000000    0.25000000
   20.37805557  148.54600525    0.05000000    0.25000000
   20.38138962  162.11900330    0.05000000    0.25000000
   20.38472176  154.38200378    0.05000000    0.25000000
   20.39083290  154.38200378    0.05000000    0.25000000
   20.39500046  163.02299500    0.05000000    0.25000000
   20.39805603  150.86000061    0.05000000    0.25000000
   20.39944458  146.89399719    0.05000000    0.25000000
   20.40194321  152.70500183    0.05000000    0.25000000
   20.40499878  152.93200684    0.05000000    0.25000000
   20.40833282  154.60000610    0.05000000    0.25000000
   20.41138840  152.60699463    0.05000000    0.25000000
   20.41472244  157.75700378    0.05000000    0.25000000
   20.41805458  150.67199707    0.05000000    0.25000000
   20.42111015  155.30099487    0.05000000    0.25000000
   20.42444420  158.13999939    0.05000000    0.25000000
   20.42777634  155.12800598    0.05000000    0.25000000
   20.43361092  155.12800598    0.05000000    0.25000000
   20.43777657  162.13200378    0.05000000    0.25000000
   20.44083214  157.96699524    0.05000000    0.25000000
   20.44416618  152.77699280    0.05000000    0.25000000
   20.44749832  160.49899292    0.05000000    0.25000000
   20.45055580  171.36599731    0.05000000    0.25000000
   20.45388985  149.62800598    0.05000000    0.25000000
   20.45722389  161.37899780    0.05000000    0.25000000
   20.46027946  169.25999451    0.05000000    0.25000000
   20.46361160  166.25700378    0.05000000    0.25000000
   20.46611214  159.23399353    0.05000000    0.25000000
   20.46722221  157.16700745    0.05000000    0.25000000
   20.47027779  169.90400696    0.05000000    0.25000000
   20.47638893  169.90400696    0.05000000    0.25000000
   20.48055649  142.14199829    0.05000000    0.25000000
   20.48388863  144.23899841    0.05000000    0.25000000
   20.48694420  151.30900574    0.05000000    0.25000000
   20.49027824  150.81799316    0.05000000    0.25000000
   20.49361229  156.29899597    0.05000000    0.25000000
   20.49666786  155.75999451    0.05000000    0.25000000
   20.49944496  149.58099365    0.05000000    0.25000000
   20.50055504  155.29299927    0.05000000    0.25000000
   20.50361061  151.14500427    0.05000000    0.25000000
   20.50694466  157.22300720    0.05000000    0.25000000
   20.51027870  151.96499634    0.05000000    0.25000000
   20.51333427  152.56700134    0.05000000    0.25000000
   20.51916695  152.56700134    0.05000000    0.25000000
   20.52333260  157.57600403    0.05000000    0.25000000
   20.52666664  163.39399719    0.05000000    0.25000000
   20.52972221  161.21200562    0.05000000    0.25000000
   20.53277779  157.25599670    0.05000000    0.25000000
   20.53361130  159.16200256    0.05000000    0.25000000
   20.53666687  159.32899475    0.05000000    0.25000000
   20.53999901  154.57099915    0.05000000    0.25000000
   20.54333305  165.17500305    0.05000000    0.25000000
   20.54638863  171.78599548    0.05000000    0.25000000
   20.54972076  158.20399475    0.05000000    0.25000000
   20.55277634  144.63999939    0.05000000    0.25000000
   20.55611038  155.13699341    0.05000000    0.25000000
   20.56222153  155.13699341    0.05000000    0.25000000
   20.56638718  148.46800232    0.05000000    0.25000000
   20.56944466   19.33790016    0.05000000    0.25000000
   20.57277870  172.97099304    0.05000000    0.25000000
   20.57583427  209.77299500    0.05000000    0.25000000
   20.57916832  206.52900696    0.05000000    0.25000000
   20.58250046  221.00000000    0.05000000    0.25000000
   20.58555603  207.07099915    0.05000000    0.25000000
   20.58889008  198.07200623    0.05000000    0.25000000
   20.59222221  212.97000122    0.05000000    0.25000000
   20.59527779  208.16099548    0.05000000    0.25000000
   20.59861183  201.16299438    0.05000000    0.25000000
   20.59944534  177.70399475    0.05000000    0.25000000
   20.60499954  177.70399475    0.05000000    0.25000000
   20.60916710  216.85400391    0.05000000    0.25000000
   20.61222267  188.90600586    0.05000000    0.25000000
   20.61555672  181.38200378    0.05000000    0.25000000
   20.63305473  158.39100647    0.05000000    0.25000000
   20.63555527   20.04319954    0.05000000    0.25000000
   20.63861084  160.91799927    0.05000000    0.25000000
   20.64194489  176.42900085    0.05000000    0.25000000
   20.64805603  176.42900085    0.05000000    0.25000000
   20.65222168  183.28599548    0.05000000    0.25000000
   20.65527725  148.38200378    0.05000000    0.25000000
   20.65861130  183.61099243    0.05000000    0.25000000
   20.66194344  196.17700195    0.05000000    0.25000000
   20.66499901  175.27299500    0.05000000    0.25000000
   20.66638756  178.35899353    0.05000000    0.25000000
   20.66888809  179.70599365    0.05000000    0.25000000
   20.67194366  178.40199280    0.05000000    0.25000000
   20.67527771  185.30900574    0.05000000    0.25000000
   20.67860985  185.72999573    0.05000000    0.25000000
   20.68166542  151.10400391    0.05000000    0.25000000
   20.68499947  195.59599304    0.05000000    0.25000000
   20.69083214  195.59599304    0.05000000    0.25000000
   20.69499969  188.27400208    0.05000000    0.25000000
   20.69805527  193.44200134    0.05000000    0.25000000
   20.69972038  202.24699402    0.05000000    0.25000000
   20.70166779  209.77799988    0.05000000    0.25000000
   20.70499992  191.26800537    0.05000000    0.25000000
   20.70833397  188.36399841    0.05000000    0.25000000
   20.71138954  181.40699768    0.05000000    0.25000000
   20.71472359  148.47799683    0.05000000    0.25000000
   20.71805573  179.54499817    0.05000000    0.25000000
   20.72111130  172.56799316    0.05000000    0.25000000
   20.72444534  183.24899292    0.05000000    0.25000000
   20.72750092  169.77699280    0.05000000    0.25000000
   20.73361206  169.77699280    0.05000000    0.25000000
   20.73777771  185.37600708    0.05000000    0.25000000
   20.74111176  176.55400085    0.05000000    0.25000000
   20.74416733  181.09800720    0.05000000    0.25000000
   20.74749947  184.20100403    0.05000000    0.25000000
   20.75083351  175.90699768    0.05000000    0.25000000
   20.75388908  178.65199280    0.05000000    0.25000000
   20.75722313  174.62899780    0.05000000    0.25000000
   20.76027870  189.79200745    0.05000000    0.25000000
   20.76361084  183.10800171    0.05000000    0.25000000
   20.76638794  185.03900146    0.05000000    0.25000000
   20.76749992  174.35099792    0.05000000    0.25000000
   20.77055550  173.66000366    0.05000000    0.25000000
   20.77666664  173.66000366    0.05000000    0.25000000
   20.78055573  176.66900635    0.05000000    0.25000000
   20.78388786  176.01100159    0.05000000    0.25000000
   20.78722191  167.28300476    0.05000000    0.25000000
   20.79027748  172.75999451    0.05000000    0.25000000
   20.79361153  179.61799622    0.05000000    0.25000000
   20.79694366  163.54899597    0.05000000    0.25000000
   20.79972076  162.81799316    0.05000000    0.25000000
   20.80055428  166.62199402    0.05000000    0.25000000
   20.80360985  165.78399658    0.05000000    0.25000000
   20.80694389  174.15400696    0.05000000    0.25000000
   20.80999947  167.89999390    0.05000000    0.25000000
   20.81333351  170.39199829    0.05000000    0.25000000
   20.81944466  170.39199829    0.05000000    0.25000000
   20.82361221  160.25500488    0.05000000    0.25000000
   20.82666779  157.70300293    0.05000000    0.25000000
   20.83000183  166.47900391    0.05000000    0.25000000
   20.83305550  157.38000488    0.05000000    0.25000000
   20.83361244  157.60899353    0.05000000    0.25000000
   20.83666801  159.38200378    0.05000000    0.25000000
   20.84000015  162.55900574    0.05000000    0.25000000
   20.84333420  157.63099670    0.05000000    0.25000000
   20.84638977  166.53599548    0.05000000    0.25000000
   20.84972191  169.54699707    0.05000000    0.25000000
   20.85305595  162.31799316    0.05000000    0.25000000
   20.85611153  166.74099731    0.05000000    0.25000000
   20.86222267  166.74099731    0.05000000    0.25000000
   20.86638832  169.57000732    0.05000000    0.25000000
   20.86944389  178.73800659    0.05000000    0.25000000
   20.87277794  164.40699768    0.05000000    0.25000000
   20.87611198  167.18200684    0.05000000    0.25000000
   20.87916756  162.99600220    0.05000000    0.25000000
   20.88249969  164.06100464    0.05000000    0.25000000
   20.88583374  160.35800171    0.05000000    0.25000000
   20.88888931  174.41600037    0.05000000    0.25000000
   20.89222145  165.03599548    0.05000000    0.25000000
   20.89527702  160.74000549    0.05000000    0.25000000
   20.89861107  157.27200317    0.05000000    0.25000000
   20.89972115  161.96099854    0.05000000    0.25000000
   20.90499878  161.96099854    0.05000000    0.25000000
   20.90916634  169.19999695    0.05000000    0.25000000
   20.91250038  159.74600220    0.05000000    0.25000000
   20.91555595  170.84599304    0.05000000    0.25000000
   20.91888809  165.36799622    0.05000000    0.25000000
   20.92222214  171.82400513    0.05000000    0.25000000
   20.92527771  170.08900452    0.05000000    0.25000000
   20.92860985  173.03799438    0.05000000    0.25000000
   20.93166542  174.25700378    0.05000000    0.25000000
   20.93305397  162.01100159    0.05000000    0.25000000
   20.93555450  173.90499878    0.05000000    0.25000000
   20.93861008  162.91600037    0.05000000    0.25000000
   20.94194412  166.38200378    0.05000000    0.25000000
   20.94777679  166.38200378    0.05000000    0.25000000
   20.95194435  168.35600281    0.05000000    0.25000000
   20.95527840  169.82699585    0.05000000    0.25000000
   20.95861244  163.64300537    0.05000000    0.25000000
   20.96166801  172.73500061    0.05000000    0.25000000
   20.96500015  166.92700195    0.05000000    0.25000000
   20.96638870  154.29899597    0.05000000    0.25000000
   20.96861076  157.02699280    0.05000000    0.25000000
   20.97166634  162.84399414    0.05000000    0.25000000
   20.97500038  163.07699585    0.05000000    0.25000000
   20.97833443  168.88999939    0.05000000    0.25000000
   20.98139000  166.40600586    0.05000000    0.25000000
   20.98472214  167.84300232    0.05000000    0.25000000
   20.99083328  167.84300232    0.05000000    0.25000000
   20.99500084  177.08500671    0.05000000    0.25000000
   20.99805641  158.04499817    0.05000000    0.25000000
   20.99972153  171.56599426    0.05000000    0.25000000
   21.00194359  168.46000671    0.05000000    0.25000000
   21.00499916  168.96800232    0.05000000    0.25000000
   21.00833321  171.79699707    0.05000000    0.25000000
   21.01166725  170.64300537    0.05000000    0.25000000
   21.01472282  177.08399963    0.05000000    0.25000000
   21.01805496  166.42399597    0.05000000    0.25000000
   21.02111053  168.88099670    0.05000000    0.25000000
   21.02444458  165.89700317    0.05000000    0.25000000
   21.02777672  182.14700317    0.05000000    0.25000000
   21.03361130  182.14700317    0.05000000    0.25000000
   21.03777695  166.94099426    0.05000000    0.25000000
   21.04083252  175.68299866    0.05000000    0.25000000
   21.04416656  163.31199646    0.05000000    0.25000000
   21.04749870  164.20500183    0.05000000    0.25000000
   21.05055428  179.60200500    0.05000000    0.25000000
   21.05388832  163.33799744    0.05000000    0.25000000
   21.05722237  170.40100098    0.05000000    0.25000000
   21.06027794  169.13299561    0.05000000    0.25000000
   21.06361008  171.76699829    0.05000000    0.25000000
   21.06638718  160.13200378    0.05000000    0.25000000
   21.06722260  169.89599609    0.05000000    0.25000000
   21.07027817  148.49600220    0.05000000    0.25000000
   21.07638931  148.49600220    0.05000000    0.25000000
   21.08055687  173.54600525    0.05000000    0.25000000
   21.08388901  167.03799438    0.05000000    0.25000000
   21.08694458  176.11599731    0.05000000    0.25000000
   21.09027863  170.82099915    0.05000000    0.25000000
   21.09361267  181.23300171    0.05000000    0.25000000
   21.09666824  172.94700623    0.05000000    0.25000000
   21.09972191  178.05999756    0.05000000    0.25000000
   21.10055542  180.61599731    0.05000000    0.25000000
   21.10361099  171.99699402    0.05000000    0.25000000
   21.10694504  185.63800049    0.05000000    0.25000000
   21.11027908  176.50500488    0.05000000    0.25000000
   21.11333466  177.15899658    0.05000000    0.25000000
   21.11916733  177.15899658    0.05000000    0.25000000
   21.12333298  177.68200684    0.05000000    0.25000000
   21.12666702  170.21200562    0.05000000    0.25000000
   21.13000107  174.78700256    0.05000000    0.25000000
   21.13305473  172.96899414    0.05000000    0.25000000
   21.13361168  173.96600342    0.05000000    0.25000000
   21.13666725  172.03900146    0.05000000    0.25000000
   21.13999939  180.88900757    0.05000000    0.25000000
   21.14333344  176.44400024    0.05000000    0.25000000
   21.14638901  182.46400452    0.05000000    0.25000000
   21.14972115  181.58799744    0.05000000    0.25000000
   21.15277672  178.04699707    0.05000000    0.25000000
   21.15611076  177.50399780    0.05000000    0.25000000
   21.16222191  177.50399780    0.05000000    0.25000000
   21.16638756  174.98699951    0.05000000    0.25000000
   21.16666603  183.08700562    0.05000000    0.25000000
   21.17000008  182.01400757    0.05000000    0.25000000
   21.17333221  186.37600708    0.05000000    0.25000000
   21.17666626  178.47000122    0.05000000    0.25000000
   21.17972183  174.22000122    0.05000000    0.25000000
   21.18305397  169.88600159    0.05000000    0.25000000
   21.18610954  176.06199646    0.05000000    0.25000000
   21.18944359  173.35600281    0.05000000    0.25000000
   21.19277763  172.14300537    0.05000000    0.25000000
   21.19583321  177.98199463    0.05000000    0.25000000
   21.19916534  175.63600159    0.05000000    0.25000000
   21.20000076  170.74299622    0.05000000    0.25000000
   21.20499992  170.74299622    0.05000000    0.25000000
   21.20916748  178.14100647    0.05000000    0.25000000
   21.21222305  171.69299316    0.05000000    0.25000000
   21.21555710  175.22500610    0.05000000    0.25000000
   21.21888924  173.30700684    0.05000000    0.25000000
   21.22194481  170.34300232    0.05000000    0.25000000
   21.22527885  174.16999817    0.05000000    0.25000000
   21.22861099  176.23500061    0.05000000    0.25000000
   21.23166656  178.08200073    0.05000000    0.25000000
   21.23333359  177.01499939    0.05000000    0.25000000
   21.23527718  180.59199524    0.05000000    0.25000000
   21.23861122  174.36099243    0.05000000    0.25000000
   21.24166679  173.38999939    0.05000000    0.25000000
   21.24777794  173.38999939    0.05000000    0.25000000
   21.25194359  179.12300110    0.05000000    0.25000000
   21.25527763  171.52799988    0.05000000    0.25000000
   21.25833321  174.78399658    0.05000000    0.25000000
   21.26166725  169.38499451    0.05000000    0.25000000
   21.26499939  184.11000061    0.05000000    0.25000000
   21.26694489  171.06799316    0.05000000    0.25000000
   21.26888847  176.63299561    0.05000000    0.25000000
   21.27222252  172.27499390    0.05000000    0.25000000
   21.27555466  175.16200256    0.05000000    0.25000000
   21.27861023  195.87800598    0.05000000    0.25000000
   21.28194427  179.08200073    0.05000000    0.25000000
   21.28499985  208.61700439    0.05000000    0.25000000
   21.29055595  208.61700439    0.05000000    0.25000000
   21.29472160  252.00999451    0.05000000    0.25000000
   21.29805565  295.86199951    0.05000000    0.25000000
   21.30027771  296.59799194    0.05000000    0.25000000
   21.30166626  278.93301392    0.05000000    0.25000000
   21.30499840  309.80499268    0.05000000    0.25000000
   21.30805397  307.06500244    0.05000000    0.25000000
   21.31138802  271.82598877    0.05000000    0.25000000
   21.31472206  302.15798950    0.05000000    0.25000000
   21.31777954  279.73999023    0.05000000    0.25000000
   21.32111168  266.41299438    0.05000000    0.25000000
   21.32444572  270.58999634    0.05000000    0.25000000
   21.32750130  260.85699463    0.05000000    0.25000000
   21.33361244  260.85699463    0.05000000    0.25000000
   21.33777809  268.90499878    0.05000000    0.25000000
   21.34083366  284.42300415    0.05000000    0.25000000
   21.34416771  263.60400391    0.05000000    0.25000000
   21.34722328  218.20599365    0.05000000    0.25000000
   21.35055542  281.42700195    0.05000000    0.25000000
   21.35388947  302.42401123    0.05000000    0.25000000
   21.35694504  272.94699097    0.05000000    0.25000000
   21.36027908  242.36999512    0.05000000    0.25000000
   21.36361122  292.88699341    0.05000000    0.25000000
   21.36666679  276.33599854    0.05000000    0.25000000
   21.36722183  268.52899170    0.05000000    0.25000000
   21.37055588  250.47300720    0.05000000    0.25000000
   21.37638855  250.47300720    0.05000000    0.25000000
   21.38055611  260.32598877    0.05000000    0.25000000
   21.38361168  285.23400879    0.05000000    0.25000000
   21.38694382  264.16101074    0.05000000    0.25000000
   21.39027786  258.19900513    0.05000000    0.25000000
   21.39333344  246.64900208    0.05000000    0.25000000
   21.39666748  271.34298706    0.05000000    0.25000000
   21.39999962  258.35299683    0.05000000    0.25000000
   21.40055466  263.31799316    0.05000000    0.25000000
   21.40361023  243.28100586    0.05000000    0.25000000
   21.40666580  262.06201172    0.05000000    0.25000000
   21.40999985  252.05799866    0.05000000    0.25000000
   21.41333389  262.26901245    0.05000000    0.25000000
   21.41916656  262.26901245    0.05000000    0.25000000
   21.42333221  258.47100830    0.05000000    0.25000000
   21.42666626  241.11000061    0.05000000    0.25000000
   21.42972183  242.14700317    0.05000000    0.25000000
   21.43305397  219.97099304    0.05000000    0.25000000
   21.43388748  231.60499573    0.05000000    0.25000000
   21.43666649  204.43200684    0.05000000    0.25000000
   21.43972206  228.67199707    0.05000000    0.25000000
   21.44305420  227.69200134    0.05000000    0.25000000
   21.44638824  212.76699829    0.05000000    0.25000000
   21.44944382  170.36000061    0.05000000    0.25000000
   21.45277786  186.02499390    0.05000000    0.25000000
   21.45611191  177.60299683    0.05000000    0.25000000
   21.46194458  177.60299683    0.05000000    0.25000000
   21.46611214  198.81300354    0.05000000    0.25000000
   21.46722221  184.81500244    0.05000000    0.25000000
   21.47000122  202.89199829    0.05000000    0.25000000
   21.47305679  218.50399780    0.05000000    0.25000000
   21.47638893  190.61900330    0.05000000    0.25000000
   21.47972298  201.46499634    0.05000000    0.25000000
   21.48277855  191.42399597    0.05000000    0.25000000
   21.48611069  199.72099304    0.05000000    0.25000000
   21.48944473  220.16099548    0.05000000    0.25000000
   21.49250031  207.79600525    0.05000000    0.25000000
   21.49583435  197.44599915    0.05000000    0.25000000
   21.49888992  211.33399963    0.05000000    0.25000000
   21.50055504  204.27499390    0.05000000    0.25000000
   21.50499916  204.27499390    0.05000000    0.25000000
   21.50916672  173.46499634    0.05000000    0.25000000
   21.51222229  185.66799927    0.05000000    0.25000000
   21.51555634  190.22500610    0.05000000    0.25000000
   21.51861000  185.82600403    0.05000000    0.25000000
   21.52194405  172.69599915    0.05000000    0.25000000
   21.52527809  186.99099731    0.05000000    0.25000000
   21.52861023  187.53799438    0.05000000    0.25000000
   21.53166580  194.19000244    0.05000000    0.25000000
   21.53388786  187.83299255    0.05000000    0.25000000
   21.53527641  169.50900269    0.05000000    0.25000000
   21.53833199  185.87899780    0.05000000    0.25000000
   21.54166603  181.51800537    0.05000000    0.25000000
   21.54777718  181.51800537    0.05000000    0.25000000
   21.55194283  192.37199402    0.05000000    0.25000000
   21.55499840  179.51600647    0.05000000    0.25000000
   21.55833244  174.28900146    0.05000000    0.25000000
   21.56166649  175.76100159    0.05000000    0.25000000
   21.56472206  190.51600647    0.05000000    0.25000000
   21.56722260  181.53599548    0.05000000    0.25000000
   21.56861115  184.19299316    0.05000000    0.25000000
   21.57166672  192.01699829    0.05000000    0.25000000
   21.57500076  182.33399963    0.05000000    0.25000000
   21.57833481  178.57600403    0.05000000    0.25000000
   21.58139038  169.13600159    0.05000000    0.25000000
   21.58472252  182.18499756    0.05000000    0.25000000
   21.59055710  182.18499756    0.05000000    0.25000000
   21.59472275  178.19999695    0.05000000    0.25000000
   21.59805679  162.50500488    0.05000000    0.25000000
   21.60055542  172.83399963    0.05000000    0.25000000
   21.60166740  169.48699951    0.05000000    0.25000000
   21.60472298  169.78100586    0.05000000    0.25000000
   21.60805511  179.91700745    0.05000000    0.25000000
   21.61138916  176.33000183    0.05000000    0.25000000
   21.61444473  177.37300110    0.05000000    0.25000000
   21.61777878  170.66400146    0.05000000    0.25000000
   21.62111092  170.96899414    0.05000000    0.25000000
   21.62416649  174.70300293    0.05000000    0.25000000
   21.62750053  187.95100403    0.05000000    0.25000000
   21.63333321  187.95100403    0.05000000    0.25000000
   21.65194321  174.12300110    0.05000000    0.25000000
   21.65499878  175.05299377    0.05000000    0.25000000
   21.65833282  167.47500610    0.05000000    0.25000000
   21.66138840  176.20799255    0.05000000    0.25000000
   21.66472244  172.22500610    0.05000000    0.25000000
   21.66805458  171.76100159    0.05000000    0.25000000
   21.67111015  178.10899353    0.05000000    0.25000000
   21.67666626  178.10899353    0.05000000    0.25000000
   21.68055534  173.65199280    0.05000000    0.25000000
   21.68388748  180.19099426    0.05000000    0.25000000
   21.68499947  177.18499756    0.05000000    0.25000000
   21.68750000  174.24699402    0.05000000    0.25000000
   21.69083214  180.16099548    0.05000000    0.25000000
   21.69388771  179.75399780    0.05000000    0.25000000
   21.69722176  186.02699280    0.05000000    0.25000000
   21.70055580  180.29400635    0.05000000    0.25000000
   21.70361137  176.56199646    0.05000000    0.25000000
   21.70694542  172.28700256    0.05000000    0.25000000
   21.71027946  172.61399841    0.05000000    0.25000000
   21.71333504  181.01600647    0.05000000    0.25000000
   21.71944427  181.01600647    0.05000000    0.25000000
   21.72361183  176.02600098    0.05000000    0.25000000
   21.72666740  180.66200256    0.05000000    0.25000000
   21.73000145  179.39199829    0.05000000    0.25000000
   21.73333359  183.13400269    0.05000000    0.25000000
   21.73638916  175.47799683    0.05000000    0.25000000
   21.73972321  182.58999634    0.05000000    0.25000000
   21.74277878  172.56799316    0.05000000    0.25000000
   21.74611092  191.59599304    0.05000000    0.25000000
   21.74944496  168.16499329    0.05000000    0.25000000
   21.75166702  181.90100098    0.05000000    0.25000000
   21.75305557  182.03900146    0.05000000    0.25000000
   21.75638962  190.29800415    0.05000000    0.25000000
   21.76222229  190.29800415    0.05000000    0.25000000
   21.76638794  178.99099731    0.05000000    0.25000000
   21.76972198  186.62899780    0.05000000    0.25000000
   21.77277756  179.59500122    0.05000000    0.25000000
   21.77611160  186.39700317    0.05000000    0.25000000
   21.77916718  162.76400757    0.05000000    0.25000000
   21.78249931  178.47399902    0.05000000    0.25000000
   21.78499985  172.85600281    0.05000000    0.25000000
   21.78610992  175.14799500    0.05000000    0.25000000
   21.78944397  178.82400513    0.05000000    0.25000000
   21.79277802  178.98100281    0.05000000    0.25000000
   21.79583359  184.33999634    0.05000000    0.25000000
   21.79916573  182.15800476    0.05000000    0.25000000
   21.80499840  182.15800476    0.05000000    0.25000000
   21.80916595  175.17100525    0.05000000    0.25000000
   21.81250000  183.28300476    0.05000000    0.25000000
   21.81555557  180.78199768    0.05000000    0.25000000
   21.81833458  179.02799988    0.05000000    0.25000000
   21.81916809  187.52200317    0.05000000    0.25000000
   21.82250023  169.92599487    0.05000000    0.25000000
   21.82583427  179.76499939    0.05000000    0.25000000
   21.82888985  172.99299622    0.05000000    0.25000000
   21.83222389  175.71400452    0.05000000    0.25000000
   21.83527756  175.58599854    0.05000000    0.25000000
   21.83861160  176.81199646    0.05000000    0.25000000
   21.84194565  182.58099365    0.05000000    0.25000000
   21.84805679  182.58099365    0.05000000    0.25000000
   21.85194397  178.45700073    0.05000000    0.25000000
   21.85527802  187.46000671    0.05000000    0.25000000
   21.85861206  184.15800476    0.05000000    0.25000000
   21.86166763  185.65400696    0.05000000    0.25000000
   21.86499977  175.88400269    0.05000000    0.25000000
   21.86833382  177.55700684    0.05000000    0.25000000
   21.87138939  177.12899780    0.05000000    0.25000000
   21.87472153  192.57099915    0.05000000    0.25000000
   21.87777710  189.75599670    0.05000000    0.25000000
   21.88111115  178.60000610    0.05000000    0.25000000
   21.88444519  180.94299316    0.05000000    0.25000000
   21.88500023  199.82099915    0.05000000    0.25000000
   21.89083290  199.82099915    0.05000000    0.25000000
   21.89500046  182.08900452    0.05000000    0.25000000
   21.89805603  181.64300537    0.05000000    0.25000000
   21.90138817  187.57299805    0.05000000    0.25000000
   21.90444374  191.47900391    0.05000000    0.25000000
   21.90777779  181.40899658    0.05000000    0.25000000
   21.91110992  185.20599365    0.05000000    0.25000000
   21.91416550  182.64199829    0.05000000    0.25000000
   21.91749954  184.22700500    0.05000000    0.25000000
   21.91833305  181.34599304    0.05000000    0.25000000
   21.92111015  196.84199524    0.05000000    0.25000000
   21.92444420  189.66900635    0.05000000    0.25000000
   21.92777634  185.16900635    0.05000000    0.25000000
   21.93361092  185.16900635    0.05000000    0.25000000
   21.93777657  186.52000427    0.05000000    0.25000000
   21.94111061  194.15199280    0.05000000    0.25000000
   21.94416618  179.18600464    0.05000000    0.25000000
   21.94749832  186.40899658    0.05000000    0.25000000
   21.95055580  199.92399597    0.05000000    0.25000000
   21.95166779  199.78799438    0.05000000    0.25000000
   21.95416832  197.66700745    0.05000000    0.25000000
   21.95750046  195.57400513    0.05000000    0.25000000
   21.96083450  192.85600281    0.05000000    0.25000000
   21.96389008  189.99499512    0.05000000    0.25000000
   21.96722221  189.93400574    0.05000000    0.25000000
   21.97027779  184.59500122    0.05000000    0.25000000
   21.97638893  184.59500122    0.05000000    0.25000000
   21.98055649  199.54200745    0.05000000    0.25000000
   21.98388863  192.34700012    0.05000000    0.25000000
   21.98500061  191.92799377    0.05000000    0.25000000
   21.98722267  196.44599915    0.05000000    0.25000000
   21.99055672  194.22500610    0.05000000    0.25000000
   21.99388885  191.35499573    0.05000000    0.25000000
   21.99694443  193.60200500    0.05000000    0.25000000
   22.00027847  193.55000305    0.05000000    0.25000000
   22.00361061  198.52099609    0.05000000    0.25000000
   22.00694466  186.14700317    0.05000000    0.25000000
   22.01027870  203.27200317    0.05000000    0.25000000
   22.01361084  199.44599915    0.05000000    0.25000000
   22.01944351  199.44599915    0.05000000    0.25000000
   22.02361107  195.65499878    0.05000000    0.25000000
   22.02833366  203.18800354    0.05000000    0.25000000
   22.03222275  196.98899841    0.05000000    0.25000000
   22.03555489  201.02799988    0.05000000    0.25000000
   22.04055595  200.68600464    0.05000000    0.25000000
   22.04388809  183.92799377    0.05000000    0.25000000
   22.04777718  196.39399719    0.05000000    0.25000000
   22.05166626  183.54100037    0.05000000    0.25000000
   22.05333328  193.75799561    0.05000000    0.25000000
   22.05694389  197.38200378    0.05000000    0.25000000
   22.06333351  197.38200378    0.05000000    0.25000000
   22.06750107  203.69099426    0.05000000    0.25000000
   22.07083511  186.33099365    0.05000000    0.25000000
   22.07416725  192.16000366    0.05000000    0.25000000
   22.07722282  185.27299500    0.05000000    0.25000000
   22.08055687  197.74099731    0.05000000    0.25000000
   22.08388901  178.59399414    0.05000000    0.25000000
   22.08583450  197.27200317    0.05000000    0.25000000
   22.08750153  190.37199402    0.05000000    0.25000000
   22.09083366  201.30299377    0.05000000    0.25000000
   22.09416771  188.56900024    0.05000000    0.25000000
   22.09749985  189.71800232    0.05000000    0.25000000
   22.10055542  196.70199585    0.05000000    0.25000000
   22.10583305  196.70199585    0.05000000    0.25000000
   22.11027908  196.78199768    0.05000000    0.25000000
   22.11388969  184.30200195    0.05000000    0.25000000
   22.11750031  185.88400269    0.05000000    0.25000000
   22.11916733  185.65699768    0.05000000    0.25000000
   22.12166595  213.10499573    0.05000000    0.25000000
   22.12527847  205.63900757    0.05000000    0.25000000
   22.12833405  205.52900696    0.05000000    0.25000000
   22.13194466  213.01400757    0.05000000    0.25000000
   22.13527679  195.31199646    0.05000000    0.25000000
   22.13861084  192.19099426    0.05000000    0.25000000
   22.14194489  191.72000122    0.05000000    0.25000000
   22.14861107  191.72000122    0.05000000    0.25000000
   22.15361023  237.08999634    0.05000000    0.25000000
   22.15722275  202.08799744    0.05000000    0.25000000
   22.16083336  197.76300049    0.05000000    0.25000000
   22.16416550  205.66700745    0.05000000    0.25000000
   22.16749954  197.13999939    0.05000000    0.25000000
   22.17083359  212.75599670    0.05000000    0.25000000
   22.17416573  197.91799927    0.05000000    0.25000000
   22.17749977  200.09399414    0.05000000    0.25000000
   22.18083191  196.23599243    0.05000000    0.25000000
   22.18416595  184.05099487    0.05000000    0.25000000
   22.18583298  182.63099670    0.05000000    0.25000000
   22.19166565  182.63099670    0.05000000    0.25000000
   22.19583321  189.87100220    0.05000000    0.25000000
   22.19916534  204.36700439    0.05000000    0.25000000
   22.20250130  191.57499695    0.05000000    0.25000000
   22.20611191  211.18600464    0.05000000    0.25000000
   22.20944595  226.02999878    0.05000000    0.25000000
   22.21250153  219.01699829    0.05000000    0.25000000
   22.21583366  247.23399353    0.05000000    0.25000000
   22.21916771  293.21099854    0.05000000    0.25000000
   22.21972275  289.31298828    0.05000000    0.25000000
   22.22305679  294.57199097    0.05000000    0.25000000
   22.22638893  266.60198975    0.05000000    0.25000000
   22.22972298  137.33399963    0.05000000    0.25000000
   22.23444557  137.33399963    0.05000000    0.25000000
   22.23861122   -1.00000000    0.05000000    0.25000000
   22.24194527   -1.00000000    0.05000000    0.25000000
   22.24527740   -1.00000000    0.05000000    0.25000000
   22.24861145   -1.00000000    0.05000000    0.25000000
   22.25194359   -1.00000000    0.05000000    0.25000000
   22.25555611   -1.00000000    0.05000000    0.25000000
   22.25888824   -1.00000000    0.05000000    0.25000000
