    HOUR (UT)   FLARE FACTOR    SKY TESTER    SUN TESTER
   11.60222244   -1.00000000   -1.00000000   -1.00000000
   11.62638855  355.54800415    0.00000000    0.00000000
   11.62972260  384.28201294    0.00000000    0.00000000
   11.63166714  418.04299927    0.00000000    0.00000000
   11.63305569  414.87298584    0.00000000    0.00000000
   11.63444424  402.43399048    0.00000000    0.00000000
   11.63583279  423.58300781    0.00000000    0.00000000
   11.63722229  423.39199829    0.00000000    0.00000000
   11.63861084  427.79098511    0.00000000    0.00000000
   11.64000034  453.87799072    0.00000000    0.00000000
   11.64138889  468.55099487    0.00000000    0.00000000
   11.64277744  443.85900879    0.00000000    0.00000000
   11.64416695  439.86401367    0.00000000    0.00000000
   11.64555550  413.38900757    0.00000000    0.00000000
   11.64694405  416.91900635    0.00000000    0.00000000
   11.64833355  462.92401123    0.00000000    0.00000000
   11.64972210  437.68701172    0.00000000    0.00000000
   11.65111065  442.26400757    0.00000000    0.00000000
   11.65249920  500.77600098    0.00000000    0.00000000
   11.65249920  384.28201294    0.00000000    0.00000000
   11.65999985  494.20098877    0.00000000    0.00000000
   11.66055489  470.44601440    0.00000000    0.00000000
   11.66361046  504.53201294    0.00000000    0.00000000
   11.66722298  482.66598511    0.00000000    0.00000000
   11.67083359  489.57400513    0.00000000    0.00000000
   11.67722225  489.57400513    0.00000000    0.00000000
   11.68138885  512.44097900    0.00000000    0.00000000
   11.68444443  482.13000488    0.00000000    0.00000000
   11.68777752  531.83300781    0.00000000    0.00000000
   11.69111156  505.52600098    0.00000000    0.00000000
   11.69416714  472.34799194    0.00000000    0.00000000
   11.69472218  465.71798706    0.00000000    0.00000000
   11.69805527  525.48699951    0.00000000    0.00000000
   11.70111084  528.68402100    0.00000000    0.00000000
   11.70444393  488.58499146    0.00000000    0.00000000
   11.70777798  525.93103027    0.00000000    0.00000000
   11.71083355  484.92700195    0.00000000    0.00000000
   11.71416664  459.65899658    0.00000000    0.00000000
   11.71999931  459.65899658    0.00000000    0.00000000
   11.72416592  486.60598755    0.00000000    0.00000000
   11.72749996  501.29998779    0.00000000    0.00000000
   11.72777748  472.92300415    0.00000000    0.00000000
   11.73111057  497.06900024    0.00000000    0.00000000
   11.73416710  466.94198608    0.00000000    0.00000000
   11.73750019  479.05599976    0.00000000    0.00000000
   11.74083328  470.87799072    0.00000000    0.00000000
   11.74388885  441.17999268    0.00000000    0.00000000
   11.74722290  477.60299683    0.00000000    0.00000000
   11.75055599  454.55899048    0.00000000    0.00000000
   11.75361156  471.08499146    0.00000000    0.00000000
   11.75694466  472.53298950    0.00000000    0.00000000
   11.76305580  472.53298950    0.00000000    0.00000000
   11.76694393  426.79598999    0.00000000    0.00000000
   11.77027798  404.25799561    0.00000000    0.00000000
   11.77361107  425.63598633    0.00000000    0.00000000
   11.77666664  392.89199829    0.00000000    0.00000000
   11.77999973  427.98699951    0.00000000    0.00000000
   11.78305531  421.34899902    0.00000000    0.00000000
   11.78638935  417.64199829    0.00000000    0.00000000
   11.78972244  410.28698730    0.00000000    0.00000000
   11.79277802  373.21899414    0.00000000    0.00000000
   11.79416752  386.31900024    0.00000000    0.00000000
   11.79638958  378.12100220    0.00000000    0.00000000
   11.79972267  406.33200073    0.00000000    0.00000000
   11.80583382  406.33200073    0.00000000    0.00000000
   11.81000042  401.39099121    0.00000000    0.00000000
   11.81305599  369.15301514    0.00000000    0.00000000
   11.81638908  417.47100830    0.00000000    0.00000000
   11.81944466  396.85598755    0.00000000    0.00000000
   11.82277775  364.29800415    0.00000000    0.00000000
   11.82611084  370.07299805    0.00000000    0.00000000
   11.82750034  393.19100952    0.00000000    0.00000000
   11.82944393  383.85299683    0.00000000    0.00000000
   11.83277798  370.22698975    0.00000000    0.00000000
   11.83611107  359.22299194    0.00000000    0.00000000
   11.83916664  373.31600952    0.00000000    0.00000000
   11.84249973  368.16000366    0.00000000    0.00000000
   11.84861088  368.16000366    0.00000000    0.00000000
   11.85277843  361.07501221    0.00000000    0.00000000
   11.85583401  368.63299561    0.00000000    0.00000000
   11.85916710  334.80300903    0.00000000    0.00000000
   11.86111164  361.32699585    0.00000000    0.00000000
   11.86277771  335.95901489    0.00000000    0.00000000
   11.86611176  308.71398926    0.00000000    0.00000000
   11.86944485  358.96600342    0.00000000    0.00000000
   11.87250042  345.20199585    0.00000000    0.00000000
   11.87583351  344.88198853    0.00000000    0.00000000
   11.87888908  308.92498779    0.00000000    0.00000000
   11.88222218  345.23699951    0.00000000    0.00000000
   11.88555527  298.03900146    0.00000000    0.00000000
   11.89138889  298.03900146    0.00000000    0.00000000
   11.89555550  299.88900757    0.00000000    0.00000000
   11.89888859  301.06100464    0.00000000    0.00000000
   11.90499973  314.29299927    0.00000000    0.00000000
   11.90833282  300.96200562    0.00000000    0.00000000
   11.91138840  311.37799072    0.00000000    0.00000000
   11.91472149  297.03698730    0.00000000    0.00000000
   11.91777802  327.31600952    0.00000000    0.00000000
   11.92111111  280.64599609    0.00000000    0.00000000
   11.92527771  280.64599609    0.00000000    0.00000000
   11.92944431  306.04000854    0.00000000    0.00000000
   11.93249989  271.22299194    0.00000000    0.00000000
   11.93583298  296.72198486    0.00000000    0.00000000
   11.93833351  272.60800171    0.00000000    0.00000000
   11.93972206  250.96699524    0.00000000    0.00000000
   11.94277763  313.75399780    0.00000000    0.00000000
   11.94611073  289.13101196    0.00000000    0.00000000
   11.94916630  289.47000122    0.00000000    0.00000000
   11.95249939  274.22601318    0.00000000    0.00000000
   11.95583344  285.03298950    0.00000000    0.00000000
   11.95888901  278.55300903    0.00000000    0.00000000
   11.96222210  278.92498779    0.00000000    0.00000000
   11.96805477  278.92498779    0.00000000    0.00000000
   11.97222137  298.82000732    0.00000000    0.00000000
   11.97555542  279.22900391    0.00000000    0.00000000
   11.97861099  278.92300415    0.00000000    0.00000000
   11.98194408  264.28698730    0.00000000    0.00000000
   11.98527813  264.83499146    0.00000000    0.00000000
   11.98833370  242.32299805    0.00000000    0.00000000
   11.99166679  254.54299927    0.00000000    0.00000000
   11.99472237  262.41598511    0.00000000    0.00000000
   11.99805546  271.05099487    0.00000000    0.00000000
   12.00138855  268.42599487    0.00000000    0.00000000
   12.00444412  278.39801025    0.00000000    0.00000000
   12.00500011  286.24899292    0.00000000    0.00000000
   12.01083374  286.24899292    0.00000000    0.00000000
   12.01500034  254.30299377    0.00000000    0.00000000
   12.01833344  258.39199829    0.00000000    0.00000000
   12.02166653  266.92401123    0.00000000    0.00000000
   12.02472210  265.30700684    0.00000000    0.00000000
   12.02805519  262.43301392    0.00000000    0.00000000
   12.03111076  258.71398926    0.00000000    0.00000000
   12.03444481  253.26899719    0.00000000    0.00000000
   12.03777790  249.13099670    0.00000000    0.00000000
   12.03833389  254.33900452    0.00000000    0.00000000
   12.04138947  254.74899292    0.00000000    0.00000000
   12.04444504  249.27799988    0.00000000    0.00000000
   12.04777813  249.94200134    0.00000000    0.00000000
   12.05388927  249.94200134    0.00000000    0.00000000
   12.05805588  273.17898560    0.00000000    0.00000000
   12.06111145  258.40200806    0.00000000    0.00000000
   12.06444454  242.87199402    0.00000000    0.00000000
   12.06750011  250.63200378    0.00000000    0.00000000
   12.07083321  246.07200623    0.00000000    0.00000000
   12.07166672  252.96000671    0.00000000    0.00000000
   12.07444477  262.97698975    0.00000000    0.00000000
   12.07750034  229.26899719    0.00000000    0.00000000
   12.08083344  272.60000610    0.00000000    0.00000000
   12.08416653  242.16999817    0.00000000    0.00000000
   12.08722210  267.34201050    0.00000000    0.00000000
   12.09055519  248.47300720    0.00000000    0.00000000
   12.09666634  248.47300720    0.00000000    0.00000000
   12.10083389  230.99099731    0.00000000    0.00000000
   12.10388947  237.90299988    0.00000000    0.00000000
   12.10500050  223.27600098    0.00000000    0.00000000
   12.10777855  224.02999878    0.00000000    0.00000000
   12.11111164  234.08999634    0.00000000    0.00000000
   12.11416721  246.51100159    0.00000000    0.00000000
   12.11750031  224.13499451    0.00000000    0.00000000
   12.12055588  233.02999878    0.00000000    0.00000000
   12.12388897  253.08599854    0.00000000    0.00000000
   12.12722206  242.77499390    0.00000000    0.00000000
   12.13027763  249.42100525    0.00000000    0.00000000
   12.13361073  233.66700745    0.00000000    0.00000000
   12.13944435  233.66700745    0.00000000    0.00000000
   12.14361095  220.77499390    0.00000000    0.00000000
   12.14694405  217.04499817    0.00000000    0.00000000
   12.14999962  234.36300659    0.00000000    0.00000000
   12.15333271  220.47300720    0.00000000    0.00000000
   12.15666676  234.18499756    0.00000000    0.00000000
   12.15972137  230.42300415    0.00000000    0.00000000
   12.16305542  233.83700562    0.00000000    0.00000000
   12.16611099  244.79200745    0.00000000    0.00000000
   12.16944504  221.48500061    0.00000000    0.00000000
   12.17166710  217.12800598    0.00000000    0.00000000
   12.17305565  225.55900574    0.00000000    0.00000000
   12.17638874  221.32800293    0.00000000    0.00000000
   12.18222237  221.32800293    0.00000000    0.00000000
   12.18638897  224.61799622    0.00000000    0.00000000
   12.18972206  214.14599609    0.00000000    0.00000000
   12.19305515  216.71400452    0.00000000    0.00000000
   12.19611073  208.65499878    0.00000000    0.00000000
   12.19944477  242.57200623    0.00000000    0.00000000
   12.20249939  218.27499390    0.00000000    0.00000000
   12.20499992  232.37300110    0.00000000    0.00000000
   12.20638847  219.53300476    0.00000000    0.00000000
   12.20972157  198.27299500    0.00000000    0.00000000
   12.21277714  215.58999634    0.00000000    0.00000000
   12.21611118  236.60899353    0.00000000    0.00000000
   12.21916580  218.95700073    0.00000000    0.00000000
   12.22527695  218.95700073    0.00000000    0.00000000
   12.22944355  196.84100342    0.00000000    0.00000000
   12.23249912  220.01499939    0.00000000    0.00000000
   12.23583317  209.44599915    0.00000000    0.00000000
   12.23833370  230.97700500    0.00000000    0.00000000
   12.23944473  204.40100098    0.00000000    0.00000000
   12.24277782  215.05499268    0.00000000    0.00000000
   12.24583340  216.96499634    0.00000000    0.00000000
   12.24916649  222.00500488    0.00000000    0.00000000
   12.25222206  227.28999329    0.00000000    0.00000000
   12.25555515  202.32200623    0.00000000    0.00000000
   12.25888920  205.31199646    0.00000000    0.00000000
   12.26194477  213.51499939    0.00000000    0.00000000
   12.26805496  213.51499939    0.00000000    0.00000000
   12.27222157  217.05900574    0.00000000    0.00000000
   12.27527714  202.54299927    0.00000000    0.00000000
   12.27861118  222.43400574    0.00000000    0.00000000
   12.28194427  205.66799927    0.00000000    0.00000000
   12.28500080  202.83999634    0.00000000    0.00000000
   12.28833389  195.46499634    0.00000000    0.00000000
   12.29138947  203.96099854    0.00000000    0.00000000
   12.29472256  198.41600037    2.94000006    2.28999996
   12.29805565  222.27299500    2.94000006    2.28999996
   12.30111122  184.96000671    2.94000006    2.28999996
   12.30444431  187.36900330    2.94000006    2.28999996
   12.30500031  201.11500549    2.94000006    2.28999996
   12.31083393  201.11500549    2.94000006    2.28999996
   12.31500053  204.78799438    2.94000006    2.28999996
   12.31833363  188.92900085    2.94000006    2.28999996
   12.32138920  192.46899414    2.94000006    2.28999996
   12.32472229  186.70799255    2.94000006    2.28999996
   12.32805538  185.81399536    2.94000006    2.28999996
   12.33111095  199.75799561    2.94000006    2.28999996
   12.33444405  199.24800110    2.94000006    2.28999996
   12.33777714  189.33599854    2.94000006    2.28999996
   12.33833313  193.02699280    2.94000006    2.28999996
   12.34138870  207.74200439    2.94000006    2.28999996
   12.34472179  195.03300476    2.94000006    2.28999996
   12.34777737  190.79600525    2.94000006    2.28999996
   12.35361195  190.79600525    2.94000006    2.28999996
   12.35777855  177.33099365    2.94000006    2.28999996
   12.36111164  195.14500427    2.94000006    2.28999996
   12.36416721  182.14999390    2.94000006    2.28999996
   12.36750031  198.38999939    2.94000006    2.28999996
   12.37083340  196.26100159    2.94000006    2.28999996
   12.37166691  191.48300171    2.94000006    2.28999996
   12.37444496  183.65400696    2.94000006    2.28999996
   12.37777805  193.72099304    2.94000006    2.28999996
   12.38083363  200.69700623    2.94000006    2.28999996
   12.38416672  202.45599365    2.94000006    2.28999996
   12.38749981  195.95700073    2.94000006    2.28999996
   12.39055538  201.63000488    2.94000006    2.28999996
   12.39666653  201.63000488    2.94000006    2.28999996
   12.40055561  180.61000061    2.94000006    2.28999996
   12.40388870  182.13099670    2.94000006    2.28999996
   12.40499973  178.48399353    2.94000006    2.28999996
   12.40749931  183.24400330    2.94000006    2.28999996
   12.41083336  198.60000610    2.94000006    2.28999996
   12.41416645  198.35899353    2.94000006    2.28999996
   12.41722298  192.19599915    2.94000006    2.28999996
   12.42055607  191.20599365    2.94000006    2.28999996
   12.42361164  183.74000549    2.94000006    2.28999996
   12.42694473  180.85899353    2.94000006    2.28999996
   12.43027782  194.86599731    2.94000006    2.28999996
   12.43333340  189.01600647    2.94000006    2.28999996
   12.43944454  189.01600647    2.94000006    2.28999996
   12.44361115  184.42300415    2.94000006    2.28999996
   12.44666672  203.84599304    2.94000006    2.28999996
   12.44999981  185.84500122    2.94000006    2.28999996
   12.45333290  192.66000366    2.94000006    2.28999996
   12.45638847  178.98300171    2.94000006    2.28999996
   12.45972157  190.76499939    2.94000006    2.28999996
   12.46277714  174.42999268    2.94000006    2.28999996
   12.46611118  188.93800354    2.94000006    2.28999996
   12.46944427  177.13000488    2.94000006    2.28999996
   12.47166634  192.53399658    2.94000006    2.28999996
   12.47305489  172.90299988    2.94000006    2.28999996
   12.47638798  171.80700684    2.94000006    2.28999996
   12.48222160  171.80700684    2.94000006    2.28999996
   12.48638916  186.12100220    2.94000006    2.28999996
   12.48972225  181.49099731    2.94000006    2.28999996
   12.49277782  184.24800110    2.94000006    2.28999996
   12.49611092  175.62899780    2.94000006    2.28999996
   12.49916649  182.85800171    2.94000006    2.28999996
   12.50249958  176.78500366    2.94000006    2.28999996
   12.50500011  175.97000122    2.94000006    2.28999996
   12.50611115  183.50900269    2.94000006    2.28999996
   12.50944424  178.90400696    2.94000006    2.28999996
   12.51249981  183.17599487    2.94000006    2.28999996
   12.51583290  183.14799500    2.94000006    2.28999996
   12.51916599  181.97399902    2.94000006    2.28999996
   12.52499962  181.97399902    2.94000006    2.28999996
   12.52916622  186.72399902    2.94000006    2.28999996
   12.53249931  195.87300110    2.94000006    2.28999996
   12.53555584  184.67900085    2.94000006    2.28999996
   12.53861141  192.35299683    2.94000006    2.28999996
   12.53916740  179.17599487    2.94000006    2.28999996
   12.54250050  187.42300415    2.94000006    2.28999996
   12.54555607  175.56300354    2.94000006    2.28999996
   12.54888916  175.95300293    2.94000006    2.28999996
   12.55222225  183.44700623    2.94000006    2.28999996
   12.55527782  177.19000244    2.94000006    2.28999996
   12.55861092  185.49000549    2.94000006    2.28999996
   12.56166649  165.46099854    2.94000006    2.28999996
   12.56805515  165.46099854    2.94000006    2.28999996
   12.57222176  179.86399841    2.94000006    2.28999996
   12.57527733  168.49899292    2.94000006    2.28999996
   12.57861137  169.48699951    2.94000006    2.28999996
   12.58166695  171.44999695    2.94000006    2.28999996
   12.58500004  168.87100220    2.94000006    2.28999996
   12.58833313  161.95799255    2.94000006    2.28999996
   12.59138870  187.93800354    2.94000006    2.28999996
   12.59472179  164.63299561    2.94000006    2.28999996
   12.59777737  173.16700745    2.94000006    2.28999996
   12.60111141  170.14300537    2.94000006    2.28999996
   12.60444450  179.07899475    2.94000006    2.28999996
   12.60527802  167.82600403    2.94000006    2.28999996
   12.61083412  167.82600403    2.94000006    2.28999996
   12.61500072  187.75000000    2.94000006    2.28999996
   12.61805534  173.21299744    2.94000006    2.28999996
   12.62138939  180.13800049    2.94000006    2.28999996
   12.62472248  181.40499878    2.94000006    2.28999996
   12.62777805  168.63600159    2.94000006    2.28999996
   12.63111115  165.63400269    2.94000006    2.28999996
   12.63444424  182.10800171    2.94000006    2.28999996
   12.63749981  180.18299866    2.94000006    2.28999996
   12.63861084  177.26300049    2.94000006    2.28999996
   12.64111137  175.46200562    2.94000006    2.28999996
   12.64444447  177.71400452    2.94000006    2.28999996
   12.64750004  172.03199768    2.94000006    2.28999996
   12.65361118  172.03199768    2.94000006    2.28999996
   12.65777779  167.25199890    2.94000006    2.28999996
   12.66111088  163.64399719    2.94000006    2.28999996
   12.66416645  170.52400208    2.94000006    2.28999996
   12.66750050  165.61900330    2.94000006    2.28999996
   12.67083359  164.36399841    2.94000006    2.28999996
   12.67194462  175.49699402    2.94000006    2.28999996
   12.67416668  168.73599243    2.94000006    2.28999996
   12.67750072  163.75700378    2.94000006    2.28999996
   12.68055630  162.17900085    2.94000006    2.28999996
   12.68388939  173.21800232    2.94000006    2.28999996
   12.68722248  157.99800110    2.94000006    2.28999996
   12.69027805  166.23800659    2.94000006    2.28999996
   12.69638920  166.23800659    2.94000006    2.28999996
   12.70055580  163.80999756    2.94000006    2.28999996
   12.70388889  151.77600098    2.94000006    2.28999996
   12.70527744  161.98399353    2.94000006    2.28999996
   12.70749950  163.66099548    2.94000006    2.28999996
   12.71083355  159.42199707    2.94000006    2.28999996
   12.71388912  166.36900330    2.94000006    2.28999996
   12.71722221  164.91200256    2.94000006    2.28999996
   12.72055531  164.07499695    2.94000006    2.28999996
   12.72361088  163.39999390    2.94000006    2.28999996
   12.72694397  159.75399780    2.94000006    2.28999996
   12.73027706  168.09899902    2.94000006    2.28999996
   12.73333359  169.90400696    2.94000006    2.28999996
   12.73944473  169.90400696    2.94000006    2.28999996
   12.74333382  171.52000427    2.94000006    2.28999996
   12.74666691  160.90899658    2.94000006    2.28999996
   12.75000000  164.12300110    2.94000006    2.28999996
   12.75305557  165.49800110    2.94000006    2.28999996
   12.75638866  157.24299622    2.94000006    2.28999996
   12.75972176  175.84700012    2.94000006    2.28999996
   12.76277733  166.65199280    2.94000006    2.28999996
   12.76611137  174.19500732    2.94000006    2.28999996
   12.76916599  162.63499451    2.94000006    2.28999996
   12.77194405  173.43499756    2.94000006    2.28999996
   12.77277756  170.03399658    2.94000006    2.28999996
   12.77611065  171.71000671    2.94000006    2.28999996
   12.78222179  171.71000671    2.94000006    2.28999996
   12.78638935  175.11700439    2.94000006    2.28999996
   12.78944492  164.73399353    2.94000006    2.28999996
   12.79277802  183.43400574    2.94000006    2.28999996
   12.79611111  175.75000000    2.94000006    2.28999996
   12.79916668  176.72099304    2.94000006    2.28999996
   12.80249977  167.38900757    2.94000006    2.28999996
   12.80527782  177.78900146    2.94000006    2.28999996
   12.80611134  186.40800476    2.94000006    2.28999996
   12.80944443  162.11900330    2.94000006    2.28999996
   12.81277752  162.26499939    2.94000006    2.28999996
   12.81583309  167.22500610    2.94000006    2.28999996
   12.81916618  168.79299927    2.94000006    2.28999996
   12.82499981  168.79299927    2.94000006    2.28999996
   12.82916641  180.72799683    2.94000006    2.28999996
   12.83249950  170.69700623    2.94000006    2.28999996
   12.83555508  166.72500610    2.94000006    2.28999996
   12.83861065  176.56700134    2.94000006    2.28999996
   12.83916664  172.72000122    2.94000006    2.28999996
   12.84249973  189.67199707    2.94000006    2.28999996
   12.84583282  179.18699646    2.94000006    2.28999996
   12.84888840  165.21899414    2.94000006    2.28999996
   12.85222244  193.27600098    2.94000006    2.28999996
   12.85527802  183.84700012    2.94000006    2.28999996
   12.85861111  180.65800476    2.94000006    2.28999996
   12.86194515  185.69599915    2.94000006    2.28999996
   12.86777782  185.69599915    2.94000006    2.28999996
   12.87194443  176.06900024    2.94000006    2.28999996
   12.87527752  179.14799500    2.94000006    2.28999996
   12.87833309  167.36999512    2.94000006    2.28999996
   12.88166714  183.63699341    2.94000006    2.28999996
   12.88500023  170.27200317    2.94000006    2.28999996
   12.88805580  177.35400391    2.94000006    2.28999996
   12.89138889  173.36900330    2.94000006    2.28999996
   12.89472198  170.12899780    2.94000006    2.28999996
   12.89777756  186.84899902    2.94000006    2.28999996
   12.90111065  188.20399475    2.94000006    2.28999996
   12.90416622  177.81700134    2.94000006    2.28999996
   12.90527725  174.81199646    2.94000006    2.28999996
   12.92583370  174.81199646    2.94000006    2.28999996
   12.93000031  169.69500732    2.94000006    2.28999996
   12.93333340  166.18800354    2.94000006    2.28999996
   12.93638897  168.80499268    2.94000006    2.28999996
   12.93861103  165.39900208    2.94000006    2.28999996
   12.94000053  140.60899353    2.94000006    2.28999996
   12.94333363  164.15699768    2.94000006    2.28999996
   12.94666672  164.12199402    2.94000006    2.28999996
   12.94972229  155.04200745    2.94000006    2.28999996
   12.95305538  161.78300476    2.94000006    2.28999996
   12.95638847  144.84500122    2.94000006    2.28999996
   12.95944405  164.28999329    2.94000006    2.28999996
   12.96277714  153.92700195    2.94000006    2.28999996
   12.96861076  153.92700195    2.94000006    2.28999996
   12.97277737  160.35299683    2.94000006    2.28999996
   12.97611046  174.62600708    2.94000006    2.28999996
   12.97916603  157.55200195    2.94000006    2.28999996
   12.98249912  169.36300659    2.94000006    2.28999996
   12.98583317  165.13299561    2.94000006    2.28999996
   12.98888874  177.12100220    2.94000006    2.28999996
   12.99222279  171.08200073    2.94000006    2.28999996
   12.99527836  162.50700378    2.94000006    2.28999996
   12.99861145  167.82200623    2.94000006    2.28999996
   13.00194454  169.53199768    2.94000006    2.28999996
   13.00500011  161.47599792    2.94000006    2.28999996
   13.00555515  178.22200012    2.94000006    2.28999996
   13.01138878  178.22200012    2.94000006    2.28999996
   13.01555538  147.58999634    2.94000006    2.28999996
   13.01888847  156.76199341    2.94000006    2.28999996
   13.02194405  170.49400330    2.94000006    2.28999996
   13.02527714  171.93800354    2.94000006    2.28999996
   13.02861118  180.82400513    2.94000006    2.28999996
   13.03166676  165.28799438    2.94000006    2.28999996
   13.03500080  169.33700562    2.94000006    2.28999996
   13.03833389  169.57899475    2.94000006    2.28999996
   13.03888893  155.99800110    2.94000006    2.28999996
   13.04194450  168.49099731    2.94000006    2.28999996
   13.04527855  163.08000183    2.94000006    2.28999996
   13.04833412  165.09500122    2.94000006    2.28999996
   13.05444431  165.09500122    2.94000006    2.28999996
   13.05833340  166.51400757    2.94000006    2.28999996
   13.06166649  155.67799377    2.94000006    2.28999996
   13.06500053  172.21800232    2.94000006    2.28999996
   13.06805515  166.97200012    2.94000006    2.28999996
   13.07138920  174.33900452    2.94000006    2.28999996
   13.07222176  164.57200623    2.94000006    2.28999996
   13.07499981  171.83299255    2.94000006    2.28999996
   13.07833290  177.88800049    2.94000006    2.28999996
   13.08138847  161.76600647    2.94000006    2.28999996
   13.08472157  177.70899963    2.94000006    2.28999996
   13.08777714  149.06799316    2.94000006    2.28999996
   13.09111118  138.29600525    2.94000006    2.28999996
   13.09722233  138.29600525    2.94000006    2.28999996
   13.10138893  166.12500000    2.94000006    2.28999996
   13.10444450  175.74299622    2.94000006    2.28999996
   13.10555553  158.54100037    2.94000006    2.28999996
   13.10833359  164.02799988    2.94000006    2.28999996
   13.11166668  159.92399597    2.94000006    2.28999996
   13.11472225  166.86399841    2.94000006    2.28999996
   13.11805534  153.28599548    2.94000006    2.28999996
   13.12111092  164.08099365    2.94000006    2.28999996
   13.12444496  163.25300598    2.94000006    2.28999996
   13.12777805  154.66600037    2.94000006    2.28999996
   13.13083363  149.04699707    2.94000006    2.28999996
   13.13416672  152.09800720    2.94000006    2.28999996
   13.14000034  152.09800720    2.94000006    2.28999996
   13.14416695  156.87800598    2.94000006    2.28999996
   13.14750004  164.79200745    2.94000006    2.28999996
   13.15055561  162.84399414    2.94000006    2.28999996
   13.15388870  174.51899719    2.94000006    2.28999996
   13.15694427  168.68899536    2.94000006    2.28999996
   13.16027737  166.85499573    2.94000006    2.28999996
   13.16361046  153.78900146    2.94000006    2.28999996
   13.16666698  161.32200623    2.94000006    2.28999996
   13.17000008  162.42700195    2.94000006    2.28999996
   13.17222214  161.70100403    2.94000006    2.28999996
   13.17361164  149.18400574    2.94000006    2.28999996
   13.17694473  184.34399414    2.94000006    2.28999996
   13.18277836  184.34399414    2.94000006    2.28999996
   13.18694496  170.00599670    2.94000006    2.28999996
   13.19027805  148.67999268    2.94000006    2.28999996
   13.19333363  158.33700562    2.94000006    2.28999996
   13.19666672  147.40899658    2.94000006    2.28999996
   13.19999981  148.87500000    2.94000006    2.28999996
   13.20305538  149.06300354    2.94000006    2.28999996
   13.20555496  160.14500427    2.94000006    2.28999996
   13.20666695  154.19999695    2.94000006    2.28999996
   13.21000004  142.89799500    2.94000006    2.28999996
   13.21305561  162.97900391    2.94000006    2.28999996
   13.21638870  163.40800476    2.94000006    2.28999996
   13.21944427  167.79299927    2.94000006    2.28999996
   13.22583294  167.79299927    2.94000006    2.28999996
   13.22972202  156.60899353    2.94000006    2.28999996
   13.23305511  158.17199707    2.94000006    2.28999996
   13.23638916  173.16200256    2.94000006    2.28999996
   13.23888874  158.98500061    2.94000006    2.28999996
   13.24000072  166.68499756    2.94000006    2.28999996
   13.24333382  162.45500183    2.94000006    2.28999996
   13.24638939  177.84500122    2.94000006    2.28999996
   13.24972248  167.47200012    2.94000006    2.28999996
   13.25305557  165.20399475    2.94000006    2.28999996
   13.25611115  159.97099304    2.94000006    2.28999996
   13.25944424  161.95899963    2.94000006    2.28999996
   13.26277733  166.01499939    2.94000006    2.28999996
   13.26861095  166.01499939    2.94000006    2.28999996
   13.27277756  175.58000183    2.94000006    2.28999996
   13.27583313  160.46099854    2.94000006    2.28999996
   13.27916622  162.31799316    2.94000006    2.28999996
   13.28249931  168.16299438    2.94000006    2.28999996
   13.28555584  155.98899841    2.94000006    2.28999996
   13.28888893  165.62300110    2.94000006    2.28999996
   13.29194450  171.36099243    2.94000006    2.28999996
   13.29527855  146.65100098    2.94000006    2.28999996
   13.29861164  170.88000488    2.94000006    2.28999996
   13.30166721  165.22399902    2.94000006    2.28999996
   13.30500031  186.78399658    2.94000006    2.28999996
   13.30555534  164.64799500    2.94000006    2.28999996
   13.31138897  164.64799500    2.94000006    2.28999996
   13.31555557  154.57400513    2.94000006    2.28999996
   13.31888866  161.11999512    2.94000006    2.28999996
   13.32194424  156.82000732    2.94000006    2.28999996
   13.32527733  165.95399475    2.94000006    2.28999996
   13.32833290  162.89500427    2.94000006    2.28999996
   13.33166695  188.87399292    2.94000006    2.28999996
   13.33500004  183.41099548    2.94000006    2.28999996
   13.33805561  156.22000122    2.94000006    2.28999996
   13.33888817  161.32800293    2.94000006    2.28999996
   13.34166622  149.73199463    2.94000006    2.28999996
   13.34499931  169.47099304    2.94000006    2.28999996
   13.34833336  165.71899414    2.94000006    2.28999996
   13.35416698  165.71899414    2.94000006    2.28999996
   13.35833359  164.17399597    2.94000006    2.28999996
   13.36166668  159.34399414    2.94000006    2.28999996
   13.36472225  171.05299377    2.94000006    2.28999996
   13.36805534  181.12500000    2.94000006    2.28999996
   13.37138939  166.39500427    2.94000006    2.28999996
   13.37222195  180.90699768    2.94000006    2.28999996
   13.37500000  150.36099243    2.94000006    2.28999996
   13.37833309  177.22999573    2.94000006    2.28999996
   13.38138866  161.46400452    2.94000006    2.28999996
   13.38472176  169.62199402    2.94000006    2.28999996
   13.38805580  163.57499695    2.94000006    2.28999996
   13.39111137  164.13499451    2.94000006    2.28999996
   13.39722252  164.13499451    2.94000006    2.28999996
   13.40111065  163.70399475    2.94000006    2.28999996
   13.40444374  184.15800476    2.94000006    2.28999996
   13.40555477  161.95199585    2.94000006    2.28999996
   13.40805531  155.21499634    2.94000006    2.28999996
   13.41138840  171.87500000    2.94000006    2.28999996
   13.41444397  151.05499268    2.94000006    2.28999996
   13.41777802  154.08999634    2.94000006    2.28999996
   13.42111111  182.57499695    2.94000006    2.28999996
   13.42416668  151.77900696    2.94000006    2.28999996
   13.42750072  149.95799255    2.94000006    2.28999996
   13.43055630  175.80700684    2.94000006    2.28999996
   13.43388939  157.21099854    2.94000006    2.28999996
   13.44000053  157.21099854    2.94000006    2.28999996
   13.44416714  164.63400269    2.94000006    2.28999996
   13.44722271  163.84599304    2.94000006    2.28999996
   13.45055580  164.08299255    2.94000006    2.28999996
   13.45388889  171.65699768    2.94000006    2.28999996
   13.45694447  159.74099731    2.94000006    2.28999996
   13.46027756  168.54100037    2.94000006    2.28999996
   13.46333313  181.45300293    2.94000006    2.28999996
   13.46666622  165.60299683    2.94000006    2.28999996
   13.46999931  161.83099365    2.94000006    2.28999996
   13.47249985  175.90699768    2.94000006    2.28999996
   13.47361088  167.17700195    2.94000006    2.28999996
   13.47694397  163.79699707    2.94000006    2.28999996
   13.48277760  163.79699707    2.94000006    2.28999996
   13.48694515  167.24200439    2.94000006    2.28999996
   13.49027824  150.50300598    2.94000006    2.28999996
   13.49333382  176.74400330    2.94000006    2.28999996
   13.49666691  165.64599609    2.94000006    2.28999996
   13.49972248  171.32200623    2.94000006    2.28999996
   13.50305557  165.61599731    2.94000006    2.28999996
   13.50583363  166.29499817    2.94000006    2.28999996
   13.50666714  165.48399353    2.94000006    2.28999996
   13.51000023  154.15499878    2.94000006    2.28999996
   13.51333332  162.41999817    2.94000006    2.28999996
   13.51638889  162.95799255    2.94000006    2.28999996
   13.51972198  170.08000183    2.94000006    2.28999996
   13.52555561  170.08000183    2.94000006    2.28999996
   13.52972221  186.70599365    2.94000006    2.28999996
   13.53305531  166.05999756    2.94000006    2.28999996
   13.53611183  166.89100647    2.94000006    2.28999996
   13.53916740  174.56199646    2.94000006    2.28999996
   13.53972244  172.36500549    2.94000006    2.28999996
   13.54305553  162.20500183    2.94000006    2.28999996
   13.54611111  162.93400574    2.94000006    2.28999996
   13.54944515  142.49600220    2.94000006    2.28999996
   13.55277824  170.66999817    2.94000006    2.28999996
   13.55583382  191.70899963    2.94000006    2.28999996
   13.55916691  157.61300659    2.94000006    2.28999996
   13.56250000  146.87899780    2.94000006    2.28999996
   13.56861115  146.87899780    2.94000006    2.28999996
   13.57250023  165.30599976    2.94000006    2.28999996
   13.57583332  177.47599792    2.94000006    2.28999996
   13.57916641  163.51499939    2.94000006    2.28999996
   13.58222198  158.42399597    2.94000006    2.28999996
   13.58555508  157.43600464    2.94000006    2.28999996
   13.58888817  153.14599609    2.94000006    2.28999996
   13.59194374  149.16099548    2.94000006    2.28999996
   13.59527779  152.06199646    2.94000006    2.28999996
   13.59833336  166.75100708    2.94000006    2.28999996
   13.60166740  174.61300659    2.94000006    2.28999996
   13.60500050  168.58200073    2.94000006    2.28999996
   13.60583401  171.38299561    2.94000006    2.28999996
   13.61138916  171.38299561    2.94000006    2.28999996
   13.61555576  175.92900085    2.94000006    2.28999996
   13.61861134  149.69700623    2.94000006    2.28999996
   13.62194443  151.54899597    2.94000006    2.28999996
   13.62527752  174.13699341    2.94000006    2.28999996
   13.62833309  164.33799744    2.94000006    2.28999996
   13.63166714  172.52699280    2.94000006    2.28999996
   13.63472176  170.36700439    2.94000006    2.28999996
   13.63805580  158.11099243    2.94000006    2.28999996
   13.63916683  179.24299622    2.94000006    2.28999996
   13.64166641  191.83900452    2.94000006    2.28999996
   13.64499950  165.24600220    2.94000006    2.28999996
   13.64805508  179.84899902    2.94000006    2.28999996
   13.65416622  179.84899902    2.94000006    2.28999996
   13.65833282  160.64599609    2.94000006    2.28999996
   13.66166592  164.84199524    2.94000006    2.28999996
   13.66472149  151.93400574    2.94000006    2.28999996
   13.66805553  157.74000549    2.94000006    2.28999996
   13.67111111  168.43299866    2.94000006    2.28999996
   13.67250061  164.41600037    2.94000006    2.28999996
   13.67472267  150.02299500    2.94000006    2.28999996
   13.67805576  153.44700623    2.94000006    2.28999996
   13.68111134  144.87199402    2.94000006    2.28999996
   13.68444443  169.37600708    2.94000006    2.28999996
   13.68777752  143.50000000    2.94000006    2.28999996
   13.69083309  166.42599487    2.94000006    2.28999996
   13.69694424  166.42599487    2.94000006    2.28999996
   13.70111084  164.54899597    2.94000006    2.28999996
   13.70444393  181.04600525    2.94000006    2.28999996
   13.70583344  179.49600220    2.94000006    2.28999996
   13.70805550  162.27999878    2.94000006    2.28999996
   13.71138859  168.79600525    2.94000006    2.28999996
   13.71444416  168.27999878    2.94000006    2.28999996
   13.71777725  178.55099487    2.94000006    2.28999996
   13.72111034  182.07600403    2.94000006    2.28999996
   13.72416592  170.33000183    2.94000006    2.28999996
   13.72749996  146.28599548    2.94000006    2.28999996
   13.73083305  138.40400696    2.94000006    2.28999996
   13.73388958  164.10400391    2.94000006    2.28999996
   13.74000072  164.10400391    2.94000006    2.28999996
   13.74388885  177.08500671    2.94000006    2.28999996
   13.74722290  172.24200439    2.94000006    2.28999996
   13.75055599  177.59800720    2.94000006    2.28999996
   13.75361156  157.84500122    2.94000006    2.28999996
   13.75694466  158.74000549    2.94000006    2.28999996
   13.76027775  183.42799377    2.94000006    2.28999996
   13.76333332  161.58399963    2.94000006    2.28999996
   13.76666641  163.40899658    2.94000006    2.28999996
   13.76999950  167.25100708    2.94000006    2.28999996
   13.77250004  180.43200684    2.94000006    2.28999996
   13.77333355  171.69500732    2.94000006    2.28999996
   13.77666664  163.08299255    2.94000006    2.28999996
   13.78277779  163.08299255    2.94000006    2.28999996
   13.78694534  142.26800537    2.94000006    2.28999996
   13.79000092  173.58399963    2.94000006    2.28999996
   13.79333401  158.90600586    2.94000006    2.28999996
   13.79666710  172.90400696    2.94000006    2.28999996
   13.79972267  181.37899780    2.94000006    2.28999996
   13.80305576  170.12500000    2.94000006    2.28999996
   13.80583382  173.89300537    2.94000006    2.28999996
   13.80666733  170.26300049    2.94000006    2.28999996
   13.81000042  171.81300354    2.94000006    2.28999996
   13.81333351  166.98199463    2.94000006    2.28999996
   13.81638908  163.01600647    2.94000006    2.28999996
   13.81972218  170.55499268    2.94000006    2.28999996
   13.82555580  170.55499268    2.94000006    2.28999996
   13.82972240  183.32400513    2.94000006    2.28999996
   13.83305550  171.15800476    2.94000006    2.28999996
   13.83611107  155.82499695    2.94000006    2.28999996
   13.83916664  148.73699951    2.94000006    2.28999996
   13.83972168  158.36000061    2.94000006    2.28999996
   13.84305477  166.83000183    2.94000006    2.28999996
   13.84638882  164.78900146    2.94000006    2.28999996
   13.84944439  149.84500122    2.94000006    2.28999996
   13.85277843  142.99800110    2.94000006    2.28999996
   13.85583401  138.13800049    2.94000006    2.28999996
   13.85916710  161.64900208    2.94000006    2.28999996
   13.86250019  165.03700256    2.94000006    2.28999996
   13.86833382  165.03700256    2.94000006    2.28999996
   13.87250042  147.13900757    2.94000006    2.28999996
   13.87583351  150.21699524    2.94000006    2.28999996
   13.87888908  164.37199402    2.94000006    2.28999996
   13.88222218  152.20599365    2.94000006    2.28999996
   13.88555527  153.57000732    2.94000006    2.28999996
   13.88861084  155.50599670    2.94000006    2.28999996
   13.89194393  143.52999878    2.94000006    2.28999996
   13.89527798  165.13200378    2.94000006    2.28999996
   13.89833355  132.62500000    2.94000006    2.28999996
   13.90166664  141.61399841    2.94000006    2.28999996
   13.90472221  154.63900757    2.94000006    2.28999996
   13.90583324  157.82600403    2.94000006    2.28999996
   13.91138840  157.82600403    2.94000006    2.28999996
   13.91527748  147.11500549    2.94000006    2.28999996
   13.91861153  154.18600464    2.94000006    2.28999996
   13.92194462  155.05599976    2.94000006    2.28999996
   13.93944454  163.54100037    2.94000006    2.28999996
   13.94194412  144.74400330    2.94000006    2.28999996
   13.94499969  150.35699463    2.94000006    2.28999996
   13.94833374  153.63900757    2.94000006    2.28999996
   13.95416641  153.63900757    2.94000006    2.28999996
   13.95833302  158.41999817    2.94000006    2.28999996
   13.96166611  166.04200745    2.94000006    2.28999996
   13.96500015  166.99899292    2.94000006    2.28999996
   13.96805477  145.71800232    2.94000006    2.28999996
   13.97138882  144.43899536    2.94000006    2.28999996
   13.97277737  151.94500732    2.94000006    2.28999996
   13.97499943  150.77099609    2.94000006    2.28999996
   13.97833252  156.43099976    2.94000006    2.28999996
   13.98166656  145.40100098    2.94000006    2.28999996
   13.98472214  150.89199829    2.94000006    2.28999996
   13.98805618  151.72599792    2.94000006    2.28999996
   13.99111176  138.47799683    2.94000006    2.28999996
   13.99722290  138.47799683    2.94000006    2.28999996
   14.00138855  138.02499390    2.94000006    2.28999996
   14.00444412  151.49499512    2.94000006    2.28999996
   14.00611115  145.76699829    2.94000006    2.28999996
   14.00805569  153.33900452    2.94000006    2.28999996
   14.01138878  148.19299316    2.94000006    2.28999996
   14.01472187  152.24099731    2.94000006    2.28999996
   14.01777744  154.22000122    2.94000006    2.28999996
   14.02111053  160.27400208    2.94000006    2.28999996
   14.02444458  167.34800720    2.94000006    2.28999996
   14.02750015  151.64399719    2.94000006    2.28999996
   14.03083324  142.91999817    2.94000006    2.28999996
   14.03416729  156.73800659    2.94000006    2.28999996
   14.04000092  156.73800659    2.94000006    2.28999996
   14.04416752  152.04400635    2.94000006    2.28999996
   14.04722309  142.34700012    2.94000006    2.28999996
   14.05055618  143.97999573    2.94000006    2.28999996
   14.05388927  161.69299316    2.94000006    2.28999996
   14.05694485  152.38699341    2.94000006    2.28999996
   14.06027794  163.52900696    2.94000006    2.28999996
   14.06361103  141.93600464    2.94000006    2.28999996
   14.06666660  144.54600525    2.94000006    2.28999996
   14.06999969  158.83299255    2.94000006    2.28999996
   14.07277775  145.00500488    2.94000006    2.28999996
   14.07361126  154.96000671    2.94000006    2.28999996
   14.07694435  145.40899658    2.94000006    2.28999996
   14.08277798  145.40899658    2.94000006    2.28999996
   14.08694458  143.51199341    2.94000006    2.28999996
   14.09027767  157.96099854    2.94000006    2.28999996
   14.09333324  143.75100708    2.94000006    2.28999996
   14.09666634  144.48699951    2.94000006    2.28999996
   14.10000038  142.05999756    2.94000006    2.28999996
   14.10305595  147.86599731    2.94000006    2.28999996
   14.10611153  145.80099487    2.94000006    2.28999996
   14.10666752  145.36399841    2.94000006    2.28999996
   14.11000061  145.18200684    2.94000006    2.28999996
   14.11333370  139.85200500    2.94000006    2.28999996
   14.11638927  149.06700134    2.94000006    2.28999996
   14.11972237  156.16999817    2.94000006    2.28999996
   14.12555599  156.16999817    2.94000006    2.28999996
   14.12972260  154.86300659    2.94000006    2.28999996
   14.13305569  152.64799500    2.94000006    2.28999996
   14.13638878  165.65800476    2.94000006    2.28999996
   14.13944435  159.83500671    2.94000006    2.28999996
   14.13972187  143.06399536    2.94000006    2.28999996
   14.14305496  164.84100342    2.94000006    2.28999996
   14.14638901  158.25100708    2.94000006    2.28999996
   14.14944458  155.17700195    2.94000006    2.28999996
   14.15277767  124.73699951    2.94000006    2.28999996
   14.15611076  145.24000549    2.94000006    2.28999996
   14.15916634  143.18499756    2.94000006    2.28999996
   14.16249943  152.25999451    2.94000006    2.28999996
   14.16861153  152.25999451    2.94000006    2.28999996
   14.17277813  147.02400208    2.94000006    2.28999996
   14.17305565  144.99299622    2.94000006    2.28999996
   14.17638874  160.56300354    2.94000006    2.28999996
   14.17972279  137.34599304    2.94000006    2.28999996
   14.18277836  163.35499573    2.94000006    2.28999996
   14.18611145  151.30499268    2.94000006    2.28999996
   14.18944454  147.96699524    2.94000006    2.28999996
   14.19250011  147.27200317    2.94000006    2.28999996
   14.19583321  148.99600220    2.94000006    2.28999996
   14.19916630  163.47200012    2.94000006    2.28999996
   14.20222187  147.28100586    2.94000006    2.28999996
   14.20555496  146.55400085    2.94000006    2.28999996
   14.20611095  142.90299988    2.94000006    2.28999996
   14.21138859  142.90299988    2.94000006    2.28999996
   14.21555519  145.22399902    2.94000006    2.28999996
   14.21861076  146.47399902    2.94000006    2.28999996
   14.22194386  154.99499512    2.94000006    2.28999996
   14.22527695  161.65899658    2.94000006    2.28999996
   14.22833252  149.72399902    2.94000006    2.28999996
   14.23166656  154.51499939    2.94000006    2.28999996
   14.23500061  147.91499329    2.94000006    2.28999996
   14.23805618  149.33200073    2.94000006    2.28999996
   14.23944473  150.44900513    2.94000006    2.28999996
   14.24166679  155.44599915    2.94000006    2.28999996
   14.24499989  160.65600586    2.94000006    2.28999996
   14.24833393  146.72200012    2.94000006    2.28999996
   14.25416660  146.72200012    2.94000006    2.28999996
   14.25833321  144.27799988    2.94000006    2.28999996
   14.26166630  151.73399353    2.94000006    2.28999996
   14.26472187  149.94099426    2.94000006    2.28999996
   14.26805496  143.34100342    2.94000006    2.28999996
   14.27138901  151.41099548    2.94000006    2.28999996
   14.27277756  148.50199890    2.94000006    2.28999996
   14.27499962  151.45700073    2.94000006    2.28999996
   14.27805519  140.18899536    2.94000006    2.28999996
   14.28138828  176.38099670    2.94000006    2.28999996
   14.28444481  159.18400574    2.94000006    2.28999996
   14.28777790  154.46499634    2.94000006    2.28999996
   14.29111195  163.50700378    2.94000006    2.28999996
   14.29694462  163.50700378    2.94000006    2.28999996
   14.30111122  155.73599243    2.94000006    2.28999996
   14.30444431  143.50799561    2.94000006    2.28999996
   14.30611134  153.80299377    2.94000006    2.28999996
   14.30805588  157.86500549    2.94000006    2.28999996
   14.31111145  155.58700562    2.94000006    2.28999996
   14.31444454  143.81399536    2.94000006    2.28999996
   14.31750011  150.22999573    2.94000006    2.28999996
   14.32083321  148.92700195    2.94000006    2.28999996
   14.32416630  150.48500061    2.94000006    2.28999996
   14.32722187  140.71299744    2.94000006    2.28999996
   14.33055592  150.01499939    2.94000006    2.28999996
   14.33388901  150.79499817    2.94000006    2.28999996
   14.34000015  150.79499817    2.94000006    2.28999996
   14.34388828  153.54800415    2.94000006    2.28999996
   14.34722233  142.41799927    2.94000006    2.28999996
   14.35055637  145.52900696    2.94000006    2.28999996
   14.35361195  153.09800720    2.94000006    2.28999996
   14.35694504  148.93400574    2.94000006    2.28999996
   14.36027813  147.72200012    2.94000006    2.28999996
   14.36333370  169.83799744    2.94000006    2.28999996
   14.36666679  143.12699890    2.94000006    2.28999996
   14.36999989  158.96699524    2.94000006    2.28999996
   14.37277794  157.52600098    2.94000006    2.28999996
   14.37361145  159.49200439    2.94000006    2.28999996
   14.37666702  144.93200684    2.94000006    2.28999996
   14.38277817  144.93200684    2.94000006    2.28999996
   14.38694477  150.56500244    2.94000006    2.28999996
   14.39000034  143.20100403    2.94000006    2.28999996
   14.39333344  146.58099365    2.94000006    2.28999996
   14.39666653  146.12899780    2.94000006    2.28999996
   14.39972210  154.05900574    2.94000006    2.28999996
   14.40305519  146.69599915    2.94000006    2.28999996
   14.40611076  160.46600342    2.94000006    2.28999996
   14.40666676  160.67999268    2.94000006    2.28999996
   14.40972137  152.19299316    2.94000006    2.28999996
   14.41305542  150.35899353    2.94000006    2.28999996
   14.41611099  165.80400085    2.94000006    2.28999996
   14.41944504  159.64199829    2.94000006    2.28999996
   14.42555618  159.64199829    2.94000006    2.28999996
   14.42972279  136.88699341    2.94000006    2.28999996
   14.43305588  152.85899353    2.94000006    2.28999996
   14.43611145  136.71499634    2.94000006    2.28999996
   14.43944454  143.98300171    2.94000006    2.28999996
   14.44000053  141.18400574    2.94000006    2.28999996
   14.44305515  151.76400757    2.94000006    2.28999996
   14.44638920  150.68299866    2.94000006    2.28999996
   14.44944477  141.35499573    2.94000006    2.28999996
   14.45277786  141.62100220    2.94000006    2.28999996
   14.45611095  148.24200439    2.94000006    2.28999996
   14.45916653  143.11799622    2.94000006    2.28999996
   14.46249962  149.07400513    2.94000006    2.28999996
   14.46833324  149.07400513    2.94000006    2.28999996
   14.47249985  144.65199280    2.94000006    2.28999996
   14.47305489  163.56199646    2.94000006    2.28999996
   14.47638798  156.84399414    2.94000006    2.28999996
   14.47944355  142.09700012    2.94000006    2.28999996
   14.48277760  151.15100098    2.94000006    2.28999996
   14.48611164  144.21699524    2.94000006    2.28999996
   14.48916721  151.19500732    2.94000006    2.28999996
   14.49250031  147.96099854    2.94000006    2.28999996
   14.49583340  141.44599915    2.94000006    2.28999996
   14.49888897  158.16900635    2.94000006    2.28999996
   14.50222206  175.09500122    2.94000006    2.28999996
   14.50527763  137.57000732    2.94000006    2.28999996
   14.50638866  151.28100586    2.94000006    2.28999996
   14.51138878  151.28100586    2.94000006    2.28999996
   14.51527786  151.92399597    2.94000006    2.28999996
   14.51861095  147.79699707    2.94000006    2.28999996
   14.52194405  151.46600342    2.94000006    2.28999996
   14.52499962  149.40899658    2.94000006    2.28999996
   14.52833271  144.59500122    2.94000006    2.28999996
   14.53166676  151.13400269    2.94000006    2.28999996
   14.53472233  145.85299683    2.94000006    2.28999996
   14.53805637  150.62500000    2.94000006    2.28999996
   14.53972244  147.72000122    2.94000006    2.28999996
   14.54166698  143.37600708    2.94000006    2.28999996
   14.54472256  153.25999451    2.94000006    2.28999996
   14.54805565  133.80200195    2.94000006    2.28999996
   14.55416679  133.80200195    2.94000006    2.28999996
   14.55833340  147.92300415    2.94000006    2.28999996
   14.56138897  137.12699890    2.94000006    2.28999996
   14.56472206  149.55499268    2.94000006    2.28999996
   14.56805515  143.36099243    2.94000006    2.28999996
   14.57111073  145.28100586    2.94000006    2.28999996
   14.57305527  185.02299500    2.94000006    2.28999996
   14.57472229  161.28599548    2.94000006    2.28999996
   14.57777786  178.39700317    2.94000006    2.28999996
   14.58111095  186.62300110    2.94000006    2.28999996
   14.58444405  146.48800659    2.94000006    2.28999996
   14.58749962  163.72999573    2.94000006    2.28999996
   14.59083271  148.14100647    2.94000006    2.28999996
   14.59694386  148.14100647    2.94000006    2.28999996
   14.60111141  182.95100403    2.94000006    2.28999996
   14.60444450  210.11300659    2.94000006    2.28999996
   14.60638905  208.84599304    2.94000006    2.28999996
   14.60805607  202.76699829    2.94000006    2.28999996
   14.61138916  144.92300415    2.94000006    2.28999996
   14.61444473  226.87100220    2.94000006    2.28999996
   14.61777782  174.16600037    2.94000006    2.28999996
   14.62083340  165.97200012    2.94000006    2.28999996
   14.62416649  211.01300049    2.94000006    2.28999996
   14.62750053  176.51400757    2.94000006    2.28999996
   14.63055611  163.50599670    2.94000006    2.28999996
   14.63388920  184.28199768    2.94000006    2.28999996
   14.63972187  184.28199768    2.94000006    2.28999996
   14.64388847  179.79899597    2.94000006    2.28999996
   14.64722252  166.78599548    2.94000006    2.28999996
   14.65027714  185.53300476    2.94000006    2.28999996
   14.65361118  168.18699646    2.94000006    2.28999996
   14.65694427  153.16700745    2.94000006    2.28999996
   14.65999985  176.37300110    2.94000006    2.28999996
   14.66333294  148.71400452    2.94000006    2.28999996
   14.66666698  144.00399780    2.94000006    2.28999996
   14.66972256  181.73399353    2.94000006    2.28999996
   14.67305565  172.70199585    2.94000006    2.28999996
   14.67500019  145.16499329    2.94000006    2.28999996
   14.67666721  150.82899475    2.94000006    2.28999996
   14.68277836  150.82899475    2.94000006    2.28999996
   14.68666649  147.61599731    2.94000006    2.28999996
   14.69000053  152.84899902    2.94000006    2.28999996
   14.69333363  129.58500671    2.94000006    2.28999996
   14.69638920  145.30400085    2.94000006    2.28999996
   14.69972229  142.24400330    2.94000006    2.28999996
   14.70305538  140.23199463    2.94000006    2.28999996
   14.70611095  151.03500366    2.94000006    2.28999996
   14.70833302  142.44799805    2.94000006    2.28999996
   14.70972157  149.94500732    2.94000006    2.28999996
   14.71305561  142.81599426    2.94000006    2.28999996
   14.71611118  148.90600586    2.94000006    2.28999996
   14.71944427  152.77499390    2.94000006    2.28999996
   14.72555542  152.77499390    2.94000006    2.28999996
   14.72972202  145.81900024    2.94000006    2.28999996
   14.73277760  137.49299622    2.94000006    2.28999996
   14.73611164  135.89300537    2.94000006    2.28999996
   14.73944473  143.97300720    2.94000006    2.28999996
   14.74166679  137.40699768    2.94000006    2.28999996
   14.74305534  135.33200073    2.94000006    2.28999996
   14.74638939  140.43200684    2.94000006    2.28999996
   14.74944496  149.48399353    2.94000006    2.28999996
   14.75277805  151.22799683    2.94000006    2.28999996
   14.75583363  131.31599426    2.94000006    2.28999996
   14.75916672  144.07299805    2.94000006    2.28999996
   14.76249981  139.54600525    2.94000006    2.28999996
   14.76833344  139.54600525    2.94000006    2.28999996
   14.77250004  149.55799866    2.94000006    2.28999996
   14.77499962  134.85200500    2.94000006    2.28999996
   14.77611065  148.53799438    2.94000006    2.28999996
   14.77944374  155.16499329    2.94000006    2.28999996
   14.78249931  149.98100281    2.94000006    2.28999996
   14.78583336  137.96099854    2.94000006    2.28999996
   14.78888893  142.10600281    2.94000006    2.28999996
   14.79222298  140.72799683    2.94000006    2.28999996
   14.79555607  141.53599548    2.94000006    2.28999996
   14.79861164  145.62600708    2.94000006    2.28999996
   14.80194473  144.97799683    2.94000006    2.28999996
   14.80527782  151.89700317    2.94000006    2.28999996
   14.81111145  151.89700317    2.94000006    2.28999996
   14.81527805  151.10099792    2.94000006    2.28999996
   14.81861115  149.08000183    2.94000006    2.28999996
   14.92472267   -1.00000000   -1.00000000   -1.00000000
   15.02694416   -1.00000000   -1.00000000   -1.00000000
   15.12416649   -1.00000000   -1.00000000   -1.00000000
   15.18500042  136.64700317    2.94000006    2.28999996
   15.18833351  146.53599548    2.94000006    2.28999996
   15.19138908  140.73199463    2.94000006    2.28999996
   15.19472218  142.77499390    2.94000006    2.28999996
   15.19777775  156.10499573    2.94000006    2.28999996
   15.20111084  148.65199280    2.94000006    2.28999996
   15.20527744  148.65199280    2.94000006    2.28999996
   15.20944405  162.29200745    2.94000006    2.28999996
   15.21249962  141.63499451    2.94000006    2.28999996
   15.21583271   -1.00000000    2.94000006    2.28999996
   15.21944427   -1.00000000    2.94000006    2.28999996
   15.22249985   -1.00000000    2.94000006    2.28999996
   15.22583294  149.53700256    2.94000006    2.28999996
   15.22916603  149.00500488    2.94000006    2.28999996
   15.23222160  151.68699646    2.94000006    2.28999996
   15.23555565  148.07499695    2.94000006    2.28999996
   15.23888874  149.47799683    2.94000006    2.28999996
   15.24194431  138.98500061    2.94000006    2.28999996
   15.24805546  138.98500061    2.94000006    2.28999996
   15.25222206  145.73899841    2.94000006    2.28999996
   15.25555515  147.86999512    2.94000006    2.28999996
   15.25861073  157.52099609    2.94000006    2.28999996
   15.26194477  148.48399353    2.94000006    2.28999996
   15.26527786  141.68400574    2.94000006    2.28999996
   15.26833344  151.81300354    2.94000006    2.28999996
   15.27166653  153.03399658    2.94000006    2.28999996
   15.27499962  143.64100647    2.94000006    2.28999996
   15.27805519  139.01800537    2.94000006    2.28999996
   15.28138828  157.58799744    2.94000006    2.28999996
   15.28472233  142.51199341    2.94000006    2.28999996
   15.28500080  143.60600281    2.94000006    2.28999996
   15.29083347  143.60600281    2.94000006    2.28999996
   15.29500008  151.44599915    2.94000006    2.28999996
   15.29833412  132.83900452    2.94000006    2.28999996
   15.30166721  144.17399597    2.94000006    2.28999996
   15.30472279  151.44400024    2.94000006    2.28999996
   15.30805588  153.94000244    2.94000006    2.28999996
   15.31111145  145.65100098    2.94000006    2.28999996
   15.31444454  151.80400085    2.94000006    2.28999996
   15.31777763  148.99699402    2.94000006    2.28999996
   15.31833363  149.80299377    2.94000006    2.28999996
   15.32138920  152.51499939    2.94000006    2.28999996
   15.32472229  161.08200073    2.94000006    2.28999996
   15.32777786  151.60000610    2.94000006    2.28999996
   15.33388901  151.60000610    2.94000006    2.28999996
   15.33805561  152.48300171    2.94000006    2.28999996
   15.34111118  158.30299377    2.94000006    2.28999996
   15.34444427  146.91099548    2.94000006    2.28999996
   15.34749985  144.37800598    2.94000006    2.28999996
   15.35083389  140.30799866    2.94000006    2.28999996
   15.35166740  151.08500671    2.94000006    2.28999996
   15.35444450  148.32200623    2.94000006    2.28999996
   15.35777855  151.40299988    2.94000006    2.28999996
   15.36083412  155.72000122    2.94000006    2.28999996
   15.36416721  148.17700195    2.94000006    2.28999996
   15.36750031  141.97300720    2.94000006    2.28999996
   15.37055588  157.50599670    2.94000006    2.28999996
   15.37666702  157.50599670    2.94000006    2.28999996
   15.38083363  146.84599304    2.94000006    2.28999996
   15.38388920  136.92100525    2.94000006    2.28999996
   15.38500023  141.00199890    2.94000006    2.28999996
   15.38749981  150.91299438    2.94000006    2.28999996
   15.39083290  146.87800598    2.94000006    2.28999996
   15.39388847  138.03100586    2.94000006    2.28999996
   15.39722252  144.18499756    2.94000006    2.28999996
   15.40055561  147.35499573    2.94000006    2.28999996
   15.40361118  139.41499329    2.94000006    2.28999996
   15.40694427  141.25399780    2.94000006    2.28999996
   15.41027737  134.73399353    2.94000006    2.28999996
   15.41333294  150.24000549    2.94000006    2.28999996
   15.41944504  150.24000549    2.94000006    2.28999996
   15.42361164  142.65699768    2.94000006    2.28999996
   15.42694473  144.93400574    2.94000006    2.28999996
   15.43000031  145.71200562    2.94000006    2.28999996
   15.43333340  144.58200073    2.94000006    2.28999996
   15.43666649  148.86199951    2.94000006    2.28999996
   15.43972206  136.57299805    2.94000006    2.28999996
   15.44305515  134.30400085    2.94000006    2.28999996
   15.44611073  154.47799683    2.94000006    2.28999996
   15.44944477  152.09899902    2.94000006    2.28999996
   15.45194435  151.52000427    2.94000006    2.28999996
   15.45305538  154.54499817    2.94000006    2.28999996
   15.45638847  130.47999573    2.94000006    2.28999996
   15.46222210  130.47999573    2.94000006    2.28999996
   15.46638870  152.02200317    2.94000006    2.28999996
   15.46972179  151.19299316    2.94000006    2.28999996
   15.47305489  151.94099426    2.94000006    2.28999996
   15.47611046  149.14799500    2.94000006    2.28999996
   15.47944355  150.72099304    2.94000006    2.28999996
   15.48249912  139.32800293    2.94000006    2.28999996
   15.48527813  141.26699829    2.94000006    2.28999996
   15.48611164  149.51300049    2.94000006    2.28999996
   15.48944473  139.76300049    2.94000006    2.28999996
   15.49250031  133.24200439    2.94000006    2.28999996
   15.49583340  139.43099976    2.94000006    2.28999996
   15.49916649  134.36000061    2.94000006    2.28999996
   15.50527763  134.36000061    2.94000006    2.28999996
   15.50944424  143.74899292    2.94000006    2.28999996
   15.51249981  135.98100281    2.94000006    2.28999996
   15.51583290  142.13800049    2.94000006    2.28999996
   15.51861095  141.12300110    2.94000006    2.28999996
   15.51944447  154.51699829    2.94000006    2.28999996
   15.52277756  146.58299255    2.94000006    2.28999996
   15.52583313  147.83599854    2.94000006    2.28999996
   15.52916622  140.99000549    2.94000006    2.28999996
   15.53249931  157.37899780    2.94000006    2.28999996
   15.53555584  145.29600525    2.94000006    2.28999996
   15.53888893  151.74699402    2.94000006    2.28999996
   15.54222298  138.05599976    2.94000006    2.28999996
   15.54805565  138.05599976    2.94000006    2.28999996
   15.55222225  136.77900696    2.94000006    2.28999996
   15.55527782  140.81300354    2.94000006    2.28999996
   15.55861092  145.72799683    2.94000006    2.28999996
   15.56194496  143.90699768    2.94000006    2.28999996
   15.56500053  139.30700684    2.94000006    2.28999996
   15.56833363  145.96800232    2.94000006    2.28999996
   15.57166672  140.85000610    2.94000006    2.28999996
   15.57472229  148.30999756    2.94000006    2.28999996
   15.57805538  138.90899658    2.94000006    2.28999996
   15.58111095  141.75799561    2.94000006    2.28999996
   15.58444405  132.63699341    2.94000006    2.28999996
   15.58527756  146.02699280    2.94000006    2.28999996
   15.59083271  146.02699280    2.94000006    2.28999996
   15.59499931  142.79299927    2.94000006    2.28999996
   15.59833336  144.15800476    2.94000006    2.28999996
   15.60138893  138.86199951    2.94000006    2.28999996
   15.60472298  155.63299561    2.94000006    2.28999996
   15.60805607  140.76899719    2.94000006    2.28999996
   15.61111164  133.94900513    2.94000006    2.28999996
   15.61444473  135.79699707    2.94000006    2.28999996
   15.61777782  144.61199951    2.94000006    2.28999996
   15.61861134  146.76100159    2.94000006    2.28999996
   15.62111092  138.96899414    2.94000006    2.28999996
   15.62444496  145.14100647    2.94000006    2.28999996
   15.62777805  135.72300720    2.94000006    2.28999996
   15.63361073  135.72300720    2.94000006    2.28999996
   15.63777733  126.21099854    2.94000006    2.28999996
   15.64111137  135.61999512    2.94000006    2.28999996
   15.64444447  143.12199402    2.94000006    2.28999996
   15.64750004  137.88099670    2.94000006    2.28999996
   15.65083313  138.34399414    2.94000006    2.28999996
   15.65194416  137.21899414    2.94000006    2.28999996
   15.65444374  140.88999939    2.94000006    2.28999996
   15.65777779  135.25100708    2.94000006    2.28999996
   15.66111088  144.75900269    2.94000006    2.28999996
   15.66416645  135.68699646    2.94000006    2.28999996
   15.66750050  147.68400574    2.94000006    2.28999996
   15.67055607  135.94799805    2.94000006    2.28999996
   15.67666721  135.94799805    2.94000006    2.28999996
   15.68083382  131.42799377    2.94000006    2.28999996
   15.68388939  119.49099731    2.94000006    2.28999996
   15.68527794  135.81399536    2.94000006    2.28999996
   15.68750000  132.15400696    2.94000006    2.28999996
   15.69083309  126.48200226    2.94000006    2.28999996
   15.69416714  132.20799255    2.94000006    2.28999996
   15.69722271  132.39900208    2.94000006    2.28999996
   15.70055580  129.11700439    2.94000006    2.28999996
   15.70361137  134.46699524    2.94000006    2.28999996
   15.70694447  136.89599609    2.94000006    2.28999996
   15.71027756  136.39100647    2.94000006    2.28999996
   15.71333313  131.71600342    2.94000006    2.28999996
   15.71944427  131.71600342    2.94000006    2.28999996
   15.72361088  139.27299500    2.94000006    2.28999996
   15.72666645  133.61399841    2.94000006    2.28999996
   15.72999954  141.14999390    2.94000006    2.28999996
   15.73305511  129.81399536    2.94000006    2.28999996
   15.73638916  126.64600372    2.94000006    2.28999996
   15.73972225  126.56999969    2.94000006    2.28999996
   15.74277782  134.67399597    2.94000006    2.28999996
   15.74611092  136.59599304    2.94000006    2.28999996
   15.74944496  125.71499634    2.94000006    2.28999996
   15.75194454  125.19999695    2.94000006    2.28999996
   15.75277805  128.64399719    2.94000006    2.28999996
   15.75611115  124.82800293    2.94000006    2.28999996
   15.76222229  124.82800293    2.94000006    2.28999996
   15.76638889  131.93200684    2.94000006    2.28999996
   15.76944447  122.01599884    2.94000006    2.28999996
   15.77277756  122.89800262    2.94000006    2.28999996
   15.77611065  129.49000549    2.94000006    2.28999996
   15.77916622  132.42799377    2.94000006    2.28999996
   15.78249931  117.94599915    2.94000006    2.28999996
   15.78527832  127.40399933    2.94000006    2.28999996
   15.78611183  146.95300293    2.94000006    2.28999996
   15.78944492  133.38999939    2.94000006    2.28999996
   15.79250050  130.97399902    2.94000006    2.28999996
   15.79583359  139.30999756    2.94000006    2.28999996
   15.79916668  133.50199890    2.94000006    2.28999996
   15.80500031  133.50199890    2.94000006    2.28999996
   15.80916691  139.57800293    2.94000006    2.28999996
   15.81250000  134.88800049    2.94000006    2.28999996
   15.81555557  137.21400452    2.94000006    2.28999996
   15.81861115  139.41200256    2.94000006    2.28999996
   15.81916618  130.80999756    2.94000006    2.28999996
   15.82250023  144.49099731    2.94000006    2.28999996
   15.82555580  133.68099976    2.94000006    2.28999996
   15.82888889  135.86300659    2.94000006    2.28999996
   15.83222198  144.67100525    2.94000006    2.28999996
   15.83527756  138.05799866    2.94000006    2.28999996
   15.83861065  137.97200012    2.94000006    2.28999996
   15.84194374  139.92900085    2.94000006    2.28999996
   15.84805489  139.92900085    2.94000006    2.28999996
   15.85194492  126.67900085    2.94000006    2.28999996
   15.85527802  122.80500031    2.94000006    2.28999996
   15.85861111  132.97799683    2.94000006    2.28999996
   15.86166668  132.33900452    2.94000006    2.28999996
   15.86500072  130.50199890    2.94000006    2.28999996
   15.86833382  139.91999817    2.94000006    2.28999996
   15.87138939  130.23699951    2.94000006    2.28999996
   15.87472248  137.86799622    2.94000006    2.28999996
   15.87777805  140.75700378    2.94000006    2.28999996
   15.88111115  126.89600372    2.94000006    2.28999996
   15.88444424  140.25300598    2.94000006    2.28999996
   15.88527775  139.88999939    2.94000006    2.28999996
   15.89083290  139.88999939    2.94000006    2.28999996
   15.89499950  135.93800354    2.94000006    2.28999996
   15.89805508  141.51600647    2.94000006    2.28999996
   15.90138817  140.87100220    2.94000006    2.28999996
   15.90472221  133.37500000    2.94000006    2.28999996
   15.90777779  136.44599915    2.94000006    2.28999996
   15.91111088  134.03300476    2.94000006    2.28999996
   15.91416645  137.02799988    2.94000006    2.28999996
   15.91750050  136.28900146    2.94000006    2.28999996
   15.91861153  130.06500244    2.94000006    2.28999996
   15.92111111  133.63600159    2.94000006    2.28999996
   15.92444515  129.96699524    2.94000006    2.28999996
   15.92777824  132.90600586    2.94000006    2.28999996
   15.93361092  132.90600586    2.94000006    2.28999996
   15.93777752  128.47900391    2.94000006    2.28999996
   15.94111156  136.71400452    2.94000006    2.28999996
   15.94416714  131.77400208    2.94000006    2.28999996
   15.94750023  142.00100708    2.94000006    2.28999996
   15.95083332  142.40800476    2.94000006    2.28999996
   15.95194435  143.66499329    2.94000006    2.28999996
   15.95416641  203.23699951    2.94000006    2.28999996
   15.95749950  141.23500061    2.94000006    2.28999996
   15.96083355  192.44999695    2.94000006    2.28999996
   15.96388912  197.80599976    2.94000006    2.28999996
   15.96722221  206.54299927    2.94000006    2.28999996
   15.97055531  141.14900208    2.94000006    2.28999996
   15.97638798  141.14900208    2.94000006    2.28999996
   15.98055553  138.76600647    2.94000006    2.28999996
   15.98388958  141.50100708    2.94000006    2.28999996
   15.98527813  129.64199829    2.94000006    2.28999996
   15.98722267  136.71000671    2.94000006    2.28999996
   15.99055576  132.80700684    2.94000006    2.28999996
   15.99388885  125.90000153    2.94000006    2.28999996
   15.99694443  140.72900391    2.94000006    2.28999996
   16.00027847  132.80200195    2.94000006    2.28999996
   16.00333405  129.45599365    2.94000006    2.28999996
   16.00666618  139.72799683    2.94000006    2.28999996
   16.01000023  127.99900055    2.94000006    2.28999996
   16.01305580  142.34399414    2.94000006    2.28999996
   16.01944351  142.34399414    2.94000006    2.28999996
   16.02333260  121.00599670    2.94000006    2.28999996
   16.02666664  128.72700500    2.94000006    2.28999996
   16.03000069  131.84700012    2.94000006    2.28999996
   16.03305435  133.68600464    2.94000006    2.28999996
   16.03638840  132.99499512    2.94000006    2.28999996
   16.03972244  142.25500488    2.94000006    2.28999996
   16.04277802  141.34100342    2.94000006    2.28999996
   16.04611015  126.31900024    2.94000006    2.28999996
   16.04944420  122.17500305    2.94000006    2.28999996
   16.05194283  136.07299805    2.94000006    2.28999996
   16.05277634  138.81599426    2.94000006    2.28999996
   16.05611038  140.43800354    2.94000006    2.28999996
   16.06222153  140.43800354    2.94000006    2.28999996
   16.06638718  133.33900452    2.94000006    2.28999996
   16.06944466  133.64999390    2.94000006    2.28999996
   16.07277870  130.21200562    2.94000006    2.28999996
   16.07611275  132.05200195    2.94000006    2.28999996
   16.07916832  130.37100220    2.94000006    2.28999996
   16.08250046  130.37600708    2.94000006    2.28999996
   16.08527756  139.32699585    2.94000006    2.28999996
   16.08583450  126.62899780    2.94000006    2.28999996
   16.08916664  138.89799500    2.94000006    2.28999996
   16.09250069  129.73199463    2.94000006    2.28999996
   16.09555626  130.64500427    2.94000006    2.28999996
   16.09889030  128.65400696    2.94000006    2.28999996
   16.10499954  128.65400696    2.94000006    2.28999996
   16.10916710  123.94499969    2.94000006    2.28999996
   16.11250114  132.51600647    2.94000006    2.28999996
   16.11555672  129.78199768    2.94000006    2.28999996
   16.11861038  128.30499268    2.94000006    2.28999996
   16.11916733  126.87000275    2.94000006    2.28999996
   16.12249947  131.66499329    2.94000006    2.28999996
   16.12583351  134.72399902    2.94000006    2.28999996
   16.12888908  130.76199341    2.94000006    2.28999996
   16.13222313  129.36500549    2.94000006    2.28999996
   16.13555527  129.49200439    2.94000006    2.28999996
   16.13861084  139.21099854    2.94000006    2.28999996
   16.14194489  134.01899719    2.94000006    2.28999996
   16.14777756  134.01899719    2.94000006    2.28999996
   16.15194321  137.52900696    2.94000006    2.28999996
   16.15527725  133.02699280    2.94000006    2.28999996
   16.15861130  122.62100220    2.94000006    2.28999996
   16.16166687  122.02899933    2.94000006    2.28999996
   16.16499901  128.26800537    2.94000006    2.28999996
   16.16805458  130.67500305    2.94000006    2.28999996
   16.17138863  125.40699768    2.94000006    2.28999996
   16.17472076  128.99099731    2.94000006    2.28999996
   16.17777634  133.35200500    2.94000006    2.28999996
   16.18111038  138.11199951    2.94000006    2.28999996
   16.18444443  137.78199768    2.94000006    2.28999996
   16.18527603  132.33799744    2.94000006    2.28999996
   16.20583344  132.33799744    2.94000006    2.28999996
   16.21000099  133.09300232    2.94000006    2.28999996
   16.21333504  133.00999451    2.94000006    2.28999996
   16.21638870  131.31199646    2.94000006    2.28999996
   16.21861076  133.36999512    2.94000006    2.28999996
   16.22027779  130.23899841    2.94000006    2.28999996
   16.22333336  133.61000061    2.94000006    2.28999996
   16.22666740  124.91300201    2.94000006    2.28999996
   16.22972298  135.77099609    2.94000006    2.28999996
   16.23305511  139.76600647    2.94000006    2.28999996
   16.23638916  133.92100525    2.94000006    2.28999996
   16.23944473  137.39300537    2.94000006    2.28999996
   16.24277878  126.73200226    2.94000006    2.28999996
   16.24861145  126.73200226    2.94000006    2.28999996
   16.25277710  135.29699707    2.94000006    2.28999996
   16.25611115  132.19700623    2.94000006    2.28999996
   16.25916672  138.15400696    2.94000006    2.28999996
   16.26250076  129.15600586    2.94000006    2.28999996
   16.26583290  116.09100342    2.94000006    2.28999996
   16.26888847  128.47799683    2.94000006    2.28999996
   16.27222252  128.77000427    2.94000006    2.28999996
   16.27555466  133.44599915    2.94000006    2.28999996
   16.27861023  134.71600342    2.94000006    2.28999996
   16.28194427  122.86900330    2.94000006    2.28999996
   16.28499985  126.90599823    2.94000006    2.28999996
   16.28555489  125.22799683    2.94000006    2.28999996
   16.29166603  125.22799683    2.94000006    2.28999996
   16.29555511  133.58700562    2.94000006    2.28999996
   16.29888916  125.12500000    2.94000006    2.28999996
   16.30222130  125.86100006    2.94000006    2.28999996
   16.30527687  127.21900177    2.94000006    2.28999996
   16.30861092  128.37100220    2.94000006    2.28999996
   16.31166649  118.48600006    2.94000006    2.28999996
   16.31499863  136.37100220    2.94000006    2.28999996
   16.31833458  128.86500549    2.94000006    2.28999996
   16.31888962  134.40499878    2.94000006    2.28999996
   16.32194519  134.52200317    2.94000006    2.28999996
   16.32527924  135.33000183    2.94000006    2.28999996
   16.32833481  129.94000244    2.94000006    2.28999996
   16.33444595  129.94000244    2.94000006    2.28999996
   16.33861160  133.40800476    2.94000006    2.28999996
   16.34166718  137.76800537    2.94000006    2.28999996
   16.34500122  130.46000671    2.94000006    2.28999996
   16.34833336  135.77200317    2.94000006    2.28999996
   16.35138893  128.77799988    2.94000006    2.28999996
   16.35222244  127.60299683    2.94000006    2.28999996
   16.35499954  129.85699463    2.94000006    2.28999996
   16.35833359  128.25100708    2.94000006    2.28999996
   16.36138916  133.52099609    2.94000006    2.28999996
   16.36472321  131.31599426    2.94000006    2.28999996
   16.36777878  127.70800018    2.94000006    2.28999996
   16.37111092  127.50000000    2.94000006    2.28999996
   16.37722206  127.50000000    2.94000006    2.28999996
   16.38138962  132.88299561    2.94000006    2.28999996
   16.38444519  122.38899994    2.94000006    2.28999996
   16.38555527  132.75000000    2.94000006    2.28999996
   16.38833237  120.58200073    2.94000006    2.28999996
   16.39166641  127.59300232    2.94000006    2.28999996
   16.39472198  140.16999817    2.94000006    2.28999996
   16.39805603  126.00000000    2.94000006    2.28999996
   16.40111160  134.83200073    2.94000006    2.28999996
   16.40444374  123.84500122    2.94000006    2.28999996
   16.40777779  132.43800354    2.94000006    2.28999996
   16.41083336  130.86900330    2.94000006    2.28999996
   16.41416550  132.84700012    2.94000006    2.28999996
   16.42000008  132.84700012    2.94000006    2.28999996
   16.42416573  128.80000305    2.94000006    2.28999996
   16.42749977  138.61300659    2.94000006    2.28999996
   16.43055534  129.04800415    2.94000006    2.28999996
   16.43388748  136.90400696    2.94000006    2.28999996
   16.43722153  123.00499725    2.94000006    2.28999996
   16.44027710  120.30799866    2.94000006    2.28999996
   16.44361115  131.04200745    2.94000006    2.28999996
   16.44694328  137.18800354    2.94000006    2.28999996
   16.45000076  127.68299866    2.94000006    2.28999996
   16.45222282  124.94999695    2.94000006    2.28999996
   16.45361137  132.81900024    2.94000006    2.28999996
   16.45694542  123.38400269    2.94000006    2.28999996
   16.46277809  123.38400269    2.94000006    2.28999996
   16.46694565  129.33999634    2.94000006    2.28999996
   16.47027779  128.78900146    2.94000006    2.28999996
   16.47361183  134.75599670    2.94000006    2.28999996
   16.47666740  135.82200623    2.94000006    2.28999996
   16.48000145  137.70899963    2.94000006    2.28999996
   16.48305511  134.35899353    2.94000006    2.28999996
   16.48555565  133.44299316    2.94000006    2.28999996
   16.48694420  140.42999268    2.94000006    2.28999996
   16.49027824  141.46299744    2.94000006    2.28999996
   16.49333382  137.38800049    2.94000006    2.28999996
   16.49666786  141.42700195    2.94000006    2.28999996
   16.49972153  135.92199707    2.94000006    2.28999996
   16.50583267  135.92199707    2.94000006    2.28999996
   16.51000023  137.38200378    2.94000006    2.28999996
   16.51305580  132.48899841    2.94000006    2.28999996
   16.51638794  121.86900330    2.94000006    2.28999996
   16.51888847  141.63499451    2.94000006    2.28999996
   16.52000046  133.14199829    2.94000006    2.28999996
   16.52333260  135.67700195    2.94000006    2.28999996
   16.52638817  134.38400269    2.94000006    2.28999996
   16.52972221  126.50199890    2.94000006    2.28999996
   16.53305435  134.32099915    2.94000006    2.28999996
   16.53610992  126.57099915    2.94000006    2.28999996
   16.53944397  142.55799866    2.94000006    2.28999996
   16.54277802  129.89199829    2.94000006    2.28999996
   16.54861069  129.89199829    2.94000006    2.28999996
   16.55277634  141.18600464    2.94000006    2.28999996
   16.55583191  132.36599731    2.94000006    2.28999996
   16.55916595  129.22799683    2.94000006    2.28999996
   16.56250000  141.21499634    2.94000006    2.28999996
   16.56555557  146.50599670    2.94000006    2.28999996
   16.56888962  141.70599365    2.94000006    2.28999996
   16.57222366  151.84899902    2.94000006    2.28999996
   16.57527924  164.69099426    2.94000006    2.28999996
   16.57861137  171.29200745    2.94000006    2.28999996
   16.58166695  155.40400696    2.94000006    2.28999996
   16.58500099  160.46899414    2.94000006    2.28999996
   16.58555603  150.45300293    2.94000006    2.28999996
   16.59138870  150.45300293    2.94000006    2.28999996
   16.59555626  146.78999329    2.94000006    2.28999996
   16.59889030  160.30599976    2.94000006    2.28999996
   16.60194397  177.51899719    2.94000006    2.28999996
   16.60527802  138.56399536    2.94000006    2.28999996
   16.60861206  150.42500305    2.94000006    2.28999996
   16.61166763  144.01100159    2.94000006    2.28999996
   16.61499977  147.05299377    2.94000006    2.28999996
   16.61805534  145.94500732    2.94000006    2.28999996
   16.61888885  144.57299805    2.94000006    2.28999996
   16.62166595  150.35000610    2.94000006    2.28999996
   16.62500000  137.88699341    2.94000006    2.28999996
   16.62833405  142.36500549    2.94000006    2.28999996
   16.63416672  142.36500549    2.94000006    2.28999996
   16.63833237  140.24499512    2.94000006    2.28999996
   16.64166641  138.86599731    2.94000006    2.28999996
   16.64472198  137.82499695    2.94000006    2.28999996
   16.64805603  157.93699646    2.94000006    2.28999996
   16.65138817  137.59100342    2.94000006    2.28999996
   16.65222168  130.96800232    2.94000006    2.28999996
   16.65499878  151.45199585    2.94000006    2.28999996
   16.65833282  148.64799500    2.94000006    2.28999996
   16.66138840  140.59500122    2.94000006    2.28999996
   16.66472244  144.58299255    2.94000006    2.28999996
   16.66805458  153.63999939    2.94000006    2.28999996
   16.67111015  144.76800537    2.94000006    2.28999996
   16.67722130  144.76800537    2.94000006    2.28999996
   16.68138885  157.49800110    2.94000006    2.28999996
   16.68444443  158.59399414    2.94000006    2.28999996
   16.68555450  161.44500732    2.94000006    2.28999996
   16.68805504  167.08099365    2.94000006    2.28999996
   16.69138718  174.17799377    2.94000006    2.28999996
   16.69444275  165.46400452    2.94000006    2.28999996
   16.69777679  142.22700500    2.94000006    2.28999996
   16.70111275  158.43499756    2.94000006    2.28999996
   16.70416832  173.44599915    2.94000006    2.28999996
   16.70750046  165.82899475    2.94000006    2.28999996
   16.71055603  148.38600159    2.94000006    2.28999996
   16.71389008  164.30900574    2.94000006    2.28999996
   16.72000122  164.30900574    2.94000006    2.28999996
   16.72416687  151.95100403    2.94000006    2.28999996
   16.72722244  158.61099243    2.94000006    2.28999996
   16.73055649  154.46099854    2.94000006    2.28999996
   16.73388863  160.15299988    2.94000006    2.28999996
   16.73694420  145.01600647    2.94000006    2.28999996
   16.74027824  136.43400574    2.94000006    2.28999996
   16.74333382  143.37500000    2.94000006    2.28999996
   16.74666786  156.35400391    2.94000006    2.28999996
   16.75000000  157.31300354    2.94000006    2.28999996
   16.75250053  145.14999390    2.94000006    2.28999996
   16.75361061  140.30499268    2.94000006    2.28999996
   16.75694466  137.48199463    2.94000006    2.28999996
   16.76277733  137.48199463    2.94000006    2.28999996
   16.76694489  140.48300171    2.94000006    2.28999996
   16.77027702  133.48199463    2.94000006    2.28999996
   16.77333260  133.85499573    2.94000006    2.28999996
   16.77666664  137.38999939    2.94000006    2.28999996
   16.77972221  135.27499390    2.94000006    2.28999996
   16.78305435  123.05500031    2.94000006    2.28999996
   16.78555489  123.75900269    2.94000006    2.28999996
   16.78666687  125.53600311    2.94000006    2.28999996
   16.78999901  126.26300049    2.94000006    2.28999996
   16.79333305  139.30299377    2.94000006    2.28999996
   16.79638863  133.02099609    2.94000006    2.28999996
   16.79972076  138.32899475    2.94000006    2.28999996
   16.80555534  138.32899475    2.94000006    2.28999996
   16.80972099  130.71099854    2.94000006    2.28999996
   16.81305504  125.27700043    2.94000006    2.28999996
   16.81611061  128.63099670    2.94000006    2.28999996
   16.81916809  127.66400146    2.94000006    2.28999996
   16.81972313  136.63900757    2.94000006    2.28999996
   16.82305717  126.09400177    2.94000006    2.28999996
   16.82611275  124.33599854    2.94000006    2.28999996
   16.82944489  127.11499786    2.94000006    2.28999996
   16.83277893  122.56300354    2.94000006    2.28999996
   16.83583450  111.60600281    2.94000006    2.28999996
   16.83916664  137.56700134    2.94000006    2.28999996
   16.84222221  136.63600159    2.94000006    2.28999996
   16.84861183  136.63600159    2.94000006    2.28999996
   16.85250092  130.05900574    2.94000006    2.28999996
   16.85583305  130.95799255    2.94000006    2.28999996
   16.85916710  139.89999390    2.94000006    2.28999996
   16.86222267  131.50999451    2.94000006    2.28999996
   16.86555672  140.91700745    2.94000006    2.28999996
   16.86888885  127.23100281    2.94000006    2.28999996
   16.87194443  138.47399902    2.94000006    2.28999996
   16.87527847  139.34700012    2.94000006    2.28999996
   16.87861061  139.20599365    2.94000006    2.28999996
   16.88166618  130.31500244    2.94000006    2.28999996
   16.88500023  137.14999390    2.94000006    2.28999996
   16.88583374  129.27999878    2.94000006    2.28999996
   16.89138794  129.27999878    2.94000006    2.28999996
   16.89555550  131.88699341    2.94000006    2.28999996
   16.89861107  132.02499390    2.94000006    2.28999996
   16.90194321  134.28500366    2.94000006    2.28999996
   16.90527725  123.62699890    2.94000006    2.28999996
   16.90833282  132.64199829    2.94000006    2.28999996
   16.91166687  122.27799988    2.94000006    2.28999996
   16.91472244  124.04699707    2.94000006    2.28999996
   16.91805458  122.10500336    2.94000006    2.28999996
   16.91916656  133.58200073    2.94000006    2.28999996
   16.92166519  126.97399902    2.94000006    2.28999996
   16.92499924  134.24200439    2.94000006    2.28999996
   16.92805481  127.39199829    2.94000006    2.28999996
   16.93416595  127.39199829    2.94000006    2.28999996
   16.93833160  129.83399963    2.94000006    2.28999996
   16.94166565  127.71600342    2.94000006    2.28999996
   16.94472122  132.46899414    2.94000006    2.28999996
   16.94805527  135.51300049    2.94000006    2.28999996
   16.95111275  132.55999756    2.94000006    2.28999996
   16.95250130  136.42999268    2.94000006    2.28999996
   16.95472336  145.14799500    2.94000006    2.28999996
   16.95805550  134.86199951    2.94000006    2.28999996
   16.96111107  131.38800049    2.94000006    2.28999996
   16.96444511  121.62899780    2.94000006    2.28999996
   16.96777916  130.80099487    2.94000006    2.28999996
   16.97083473  125.46499634    2.94000006    2.28999996
   16.97694588  125.46499634    2.94000006    2.28999996
   16.98111153  125.23600006    2.94000006    2.28999996
   16.98444557  133.37500000    2.94000006    2.28999996
   16.98583412  122.16200256    2.94000006    2.28999996
   16.98805618  129.22200012    2.94000006    2.28999996
   16.99138832  136.61500549    2.94000006    2.28999996
   16.99444389  135.13499451    2.94000006    2.28999996
   16.99777794  121.40200043    2.94000006    2.28999996
   17.00111198  121.16600037    2.94000006    2.28999996
   17.00416756  123.42099762    2.94000006    2.28999996
   17.00749969  127.76399994    2.94000006    2.28999996
   17.01083374  145.85400391    2.94000006    2.28999996
   17.01388931  123.45500183    2.94000006    2.28999996
   17.02000046  123.45500183    2.94000006    2.28999996
   17.02388954  127.43499756    2.94000006    2.28999996
   17.02722168  118.64199829    2.94000006    2.28999996
   17.03055573  120.70999908    2.94000006    2.28999996
   17.03361130  124.21800232    2.94000006    2.28999996
   17.03694344  118.27500153    2.94000006    2.28999996
   17.04027748  122.66300201    2.94000006    2.28999996
   17.04333305  117.12599945    2.94000006    2.28999996
   17.04666710  130.62699890    2.94000006    2.28999996
   17.04999924  127.15799713    2.94000006    2.28999996
   17.05249977  119.22100067    2.94000006    2.28999996
   17.05333328  123.94100189    2.94000006    2.28999996
   17.05666542  138.47700500    2.94000006    2.28999996
   17.06277657  138.47700500    2.94000006    2.28999996
   17.06694603  124.85600281    2.94000006    2.28999996
   17.07000160  124.41899872    2.94000006    2.28999996
   17.07333374  124.42199707    2.94000006    2.28999996
   17.07666779  120.23100281    2.94000006    2.28999996
   17.07972336  123.80100250    2.94000006    2.28999996
   17.08305550  126.08899689    2.94000006    2.28999996
   17.08583450  106.25299835    2.94000006    2.28999996
   17.08666801  156.91799927    2.94000006    2.28999996
   17.09000015  105.01000214    2.94000006    2.28999996
   17.09333420   -1.00000000    2.94000006    2.28999996
   17.09638977   -1.00000000    2.94000006    2.28999996
   17.09972191   -1.00000000    2.94000006    2.28999996
   17.10972214   -1.00000000    2.94000006    2.28999996
   17.11277771   -1.00000000    2.94000006    2.28999996
   17.11611176   -1.00000000    2.94000006    2.28999996
   17.11972237   -1.00000000    2.94000006    2.28999996
   17.12305641   -1.00000000    2.94000006    2.28999996
   17.12611198   -1.00000000    2.94000006    2.28999996
   17.12944412   -1.00000000    2.94000006    2.28999996
   17.13249969   -1.00000000    2.94000006    2.28999996
   17.13583374   -1.00000000    2.94000006    2.28999996
   17.13916588   -1.00000000    2.94000006    2.28999996
   17.14222145   -1.00000000    2.94000006    2.28999996
   17.14833260   -1.00000000    2.94000006    2.28999996
   17.15250015  127.55400085    2.94000006    2.28999996
   17.15583229  122.81900024    2.94000006    2.28999996
   17.15888786  123.57099915    2.94000006    2.28999996
   17.16222191  123.98999786    2.94000006    2.28999996
   17.16555595  119.74099731    2.94000006    2.28999996
   17.16860962  126.41100311    2.94000006    2.28999996
   17.17194366  127.01599884    2.94000006    2.28999996
   17.17527771  113.23999786    2.94000006    2.28999996
   17.17833328  127.65899658    2.94000006    2.28999996
   17.18166542  117.14800262    2.94000006    2.28999996
   17.18472099  126.16200256    2.94000006    2.28999996
   17.18583298  122.75900269    2.94000006    2.28999996
   17.19138718  122.75900269    2.94000006    2.28999996
   17.19527626  125.30899811    2.94000006    2.28999996
   17.19861031  120.70899963    2.94000006    2.28999996
   17.20194435  121.00800323    2.94000006    2.28999996
   17.21944427  131.63600159    2.94000006    2.28999996
   17.22166634  119.55400085    2.94000006    2.28999996
   17.22500038  115.83100128    2.94000006    2.28999996
   17.22833443  120.54299927    2.94000006    2.28999996
   17.23416710  120.54299927    2.94000006    2.28999996
   17.23833275  125.43800354    2.94000006    2.28999996
   17.24166679  117.74500275    2.94000006    2.28999996
   17.24500084  120.36499786    2.94000006    2.28999996
   17.24805641  121.15399933    2.94000006    2.28999996
   17.25138855  122.20899963    2.94000006    2.28999996
   17.25277710  116.34799957    2.94000006    2.28999996
   17.25499916  117.58000183    2.94000006    2.28999996
   17.25833321  170.62199402    2.94000006    2.28999996
   17.26138878  109.83699799    2.94000006    2.28999996
   17.26472282  222.72999573    2.94000006    2.28999996
   17.26805496  171.84899902    2.94000006    2.28999996
   17.27111053  141.66999817    2.94000006    2.28999996
   17.27722168  141.66999817    2.94000006    2.28999996
   17.28138924  127.01200104    2.94000006    2.28999996
   17.28444481  126.12000275    2.94000006    2.28999996
   17.28610992  121.34700012    2.94000006    2.28999996
   17.28805542  116.29399872    2.94000006    2.28999996
   17.29138756  126.05100250    2.94000006    2.28999996
   17.29444313  119.54299927    2.94000006    2.28999996
   17.29777718  113.60099792    2.94000006    2.28999996
   17.30111122  114.38999939    2.94000006    2.28999996
   17.30416679  127.69300079    2.94000006    2.28999996
   17.30749893  122.24800110    2.94000006    2.28999996
   17.31083298  121.11699677    2.94000006    2.28999996
   17.31388855  124.17500305    2.94000006    2.28999996
   17.32000160  124.17500305    2.94000006    2.28999996
   17.32416725  136.09599304    2.94000006    2.28999996
   17.32722282  119.21700287    2.94000006    2.28999996
   17.33055687  115.66100311    2.94000006    2.28999996
   17.33388901  125.36699677    2.94000006    2.28999996
   17.33694458  120.69899750    2.94000006    2.28999996
   17.34027863  114.63200378    2.94000006    2.28999996
   17.34361267  118.99199677    2.94000006    2.28999996
   17.34666824  115.08200073    2.94000006    2.28999996
   17.35000038  116.47200012    2.94000006    2.28999996
   17.35277748  114.05799866    2.94000006    2.28999996
   17.35361099  120.41899872    2.94000006    2.28999996
   17.35694504  110.80000305    2.94000006    2.28999996
   17.36277771  110.80000305    2.94000006    2.28999996
   17.36694527  118.40499878    2.94000006    2.28999996
   17.37027740  119.30100250    2.94000006    2.28999996
   17.37333298  110.68000031    2.94000006    2.28999996
   17.37666702  113.32499695    2.94000006    2.28999996
   17.38000107  112.18399811    2.94000006    2.28999996
   17.38305473  118.63999939    2.94000006    2.28999996
   17.38611031  118.14499664    2.94000006    2.28999996
   17.38666725  115.74700165    2.94000006    2.28999996
   17.38999939  119.47100067    2.94000006    2.28999996
   17.39305496  117.85800171    2.94000006    2.28999996
   17.39638901  130.95100403    2.94000006    2.28999996
   17.39972115  130.07299805    2.94000006    2.28999996
   17.40555573  130.07299805    2.94000006    2.28999996
   17.40972137  133.59700012    2.94000006    2.28999996
   17.41305542  122.76100159    2.94000006    2.28999996
   17.41638756  119.70500183    2.94000006    2.28999996
   17.41944313  114.12500000    2.94000006    2.28999996
   17.41972160  117.24299622    2.94000006    2.28999996
   17.42305565  120.13099670    2.94000006    2.28999996
   17.42611122  118.53399658    2.94000006    2.28999996
   17.42944336  130.89199829    2.94000006    2.28999996
   17.43277740  118.88300323    2.94000006    2.28999996
   17.43583298  120.78700256    2.94000006    2.28999996
   17.43916512  128.13900757    2.94000006    2.28999996
   17.44249916  121.63099670    2.94000006    2.28999996
   17.44861031  121.63099670    2.94000006    2.28999996
   17.45277786  118.96900177    2.94000006    2.28999996
   17.45583344  116.62100220    2.94000006    2.28999996
   17.45916748  118.98100281    2.94000006    2.28999996
   17.46222305  123.67299652    2.94000006    2.28999996
   17.46555710  126.04900360    2.94000006    2.28999996
   17.46888924  125.31400299    2.94000006    2.28999996
   17.47194481  119.83599854    2.94000006    2.28999996
   17.47527885  119.14199829    2.94000006    2.28999996
   17.47861099  122.80699921    2.94000006    2.28999996
   17.48166656  124.02100372    2.94000006    2.28999996
   17.48500061  118.76899719    2.94000006    2.28999996
   17.48611069  124.56999969    2.94000006    2.28999996
   17.49138832  124.56999969    2.94000006    2.28999996
   17.49555588  125.67400360    2.94000006    2.28999996
   17.49861145  118.22000122    2.94000006    2.28999996
   17.50194359  118.55100250    2.94000006    2.28999996
   17.50527763  119.03199768    2.94000006    2.28999996
   17.50833321  124.13300323    2.94000006    2.28999996
   17.51166725  116.43800354    2.94000006    2.28999996
   17.51499939  120.33899689    2.94000006    2.28999996
   17.51805496  126.14099884    2.94000006    2.28999996
   17.51944351  124.05300140    2.94000006    2.28999996
   17.52166557  126.12200165    2.94000006    2.28999996
   17.52499962  122.07900238    2.94000006    2.28999996
   17.52833366  113.92099762    2.94000006    2.28999996
   17.53416634  113.92099762    2.94000006    2.28999996
   17.53833199  131.72799683    2.94000006    2.28999996
   17.54166603  113.01999664    2.94000006    2.28999996
   17.54472160  112.20800018    2.94000006    2.28999996
   17.54805565  116.47399902    2.94000006    2.28999996
   17.55138779  118.35600281    2.94000006    2.28999996
   17.55277634  121.79799652    2.94000006    2.28999996
   17.55472183  118.37400055    2.94000006    2.28999996
   17.55805397  118.02200317    2.94000006    2.28999996
   17.56138802  117.28299713    2.94000006    2.28999996
   17.56444359  123.20200348    2.94000006    2.28999996
   17.56777954  129.70100403    2.94000006    2.28999996
   17.57083511  117.84400177    2.94000006    2.28999996
   17.57694626  117.84400177    2.94000006    2.28999996
   17.58111191  129.21600342    2.94000006    2.28999996
   17.58444595  124.36299896    2.94000006    2.28999996
   17.58611107  122.97000122    2.94000006    2.28999996
   17.58805656  131.58700562    2.94000006    2.28999996
   17.59138870  127.36599731    2.94000006    2.28999996
   17.59472275  124.17900085    2.94000006    2.28999996
   17.59777832  117.58599854    2.94000006    2.28999996
   17.60111237  117.69200134    2.94000006    2.28999996
   17.60444450  112.13300323    2.94000006    2.28999996
   17.60750008  111.97499847    2.94000006    2.28999996
   17.61083412  114.58699799    2.94000006    2.28999996
   17.61388969  118.90599823    2.94000006    2.28999996
   17.62000084  118.90599823    2.94000006    2.28999996
   17.62416649  116.68900299    2.94000006    2.28999996
   17.62722206  119.23699951    2.94000006    2.28999996
   17.63055611  125.48100281    2.94000006    2.28999996
   17.63361168  133.47200012    2.94000006    2.28999996
   17.63694382  115.60800171    2.94000006    2.28999996
   17.64027786  122.96099854    2.94000006    2.28999996
   17.64333344  125.89499664    2.94000006    2.28999996
   17.64666748  119.60199738    2.94000006    2.28999996
   17.64999962  120.69699860    2.94000006    2.28999996
   17.65277672  117.20099640    2.94000006    2.28999996
   17.65333366  119.77700043    2.94000006    2.28999996
   17.65666580  121.30699921    2.94000006    2.28999996
   17.66277695  121.30699921    2.94000006    2.28999996
   17.66694450  113.00700378    2.94000006    2.28999996
   17.67000008  113.63099670    2.94000006    2.28999996
   17.67333221  118.34999847    2.94000006    2.28999996
   17.67666626  116.27100372    2.94000006    2.28999996
   17.67972183  117.19699860    2.94000006    2.28999996
   17.68305397  114.13999939    2.94000006    2.28999996
   17.68610954  114.49500275    2.94000006    2.28999996
   17.68666649  120.35299683    2.94000006    2.28999996
   17.68999863  115.94899750    2.94000006    2.28999996
   17.69333267  116.14499664    2.94000006    2.28999996
   17.69638824  118.82199860    2.94000006    2.28999996
   17.69972038  123.98000336    2.94000006    2.28999996
   17.70555687  123.98000336    2.94000006    2.28999996
   17.70972252  131.67599487    2.94000006    2.28999996
   17.71305656  114.44799805    2.94000006    2.28999996
   17.71611214  121.01200104    2.94000006    2.28999996
   17.71944427  114.68000031    2.94000006    2.28999996
   17.71972275  118.39600372    2.94000006    2.28999996
   17.72305679  116.09700012    2.94000006    2.28999996
   17.72638893  115.35600281    2.94000006    2.28999996
   17.72944450  111.93499756    2.94000006    2.28999996
   17.73277855  112.93499756    2.94000006    2.28999996
   17.73583412  117.13600159    2.94000006    2.28999996
   17.73916626  115.29199982    2.94000006    2.28999996
   17.74250031  119.16400146    2.94000006    2.28999996
   17.74833298  119.16400146    2.94000006    2.28999996
   17.75250053  122.92600250    2.94000006    2.28999996
   17.75305557  120.35199738    2.94000006    2.28999996
   17.75638962  113.91699982    2.94000006    2.28999996
   17.75944519  123.81700134    2.94000006    2.28999996
   17.76277733  124.25499725    2.94000006    2.28999996
   17.76611137  113.59300232    2.94000006    2.28999996
   17.76916695  120.09500122    2.94000006    2.28999996
   17.77249908  114.99900055    2.94000006    2.28999996
   17.77583313  115.15499878    2.94000006    2.28999996
   17.77888870  120.16200256    2.94000006    2.28999996
   17.78222275  112.26899719    2.94000006    2.28999996
   17.78555489  119.29499817    2.94000006    2.28999996
   17.78638840  117.85700226    2.94000006    2.28999996
   17.79138756  117.85700226    2.94000006    2.28999996
   17.79527664  110.18099976    2.94000006    2.28999996
   17.79861069  112.51799774    2.94000006    2.28999996
   17.80194283  117.28700256    2.94000006    2.28999996
   17.80499840  112.87699890    2.94000006    2.28999996
   17.80833244  111.60900116    2.94000006    2.28999996
   17.81166649  120.81500244    2.94000006    2.28999996
   17.81472206  119.30999756    2.94000006    2.28999996
   17.81805611  121.59400177    2.94000006    2.28999996
   17.81972313  114.33100128    2.94000006    2.28999996
   17.82166672  111.11399841    2.94000006    2.28999996
   17.82472229  123.77600098    2.94000006    2.28999996
   17.82805634  118.09799957    2.94000006    2.28999996
   17.83416748  118.09799957    2.94000006    2.28999996
   17.83833313  117.48699951    2.94000006    2.28999996
   17.84138870  117.11100006    2.94000006    2.28999996
   17.84472275  119.63999939    2.94000006    2.28999996
   17.84805679  120.79900360    2.94000006    2.28999996
   17.85111237  109.08300018    2.94000006    2.28999996
   17.85305595  112.49700165    2.94000006    2.28999996
   17.85472298  119.21099854    2.94000006    2.28999996
   17.85777855  129.78900146    2.94000006    2.28999996
   17.86111069  112.09100342    2.94000006    2.28999996
   17.86444473  117.61199951    2.94000006    2.28999996
   17.86750031  120.69699860    2.94000006    2.28999996
   17.87083435  111.79599762    2.94000006    2.28999996
   17.87694550  111.79599762    2.94000006    2.28999996
   17.88111115  120.77500153    2.94000006    2.28999996
   17.88444519  116.62500000    2.94000006    2.28999996
   17.88638878  118.62100220    2.94000006    2.28999996
   17.88805580  119.01999664    2.94000006    2.28999996
   17.89138794  115.97799683    2.94000006    2.28999996
   17.89444351  118.17600250    2.94000006    2.28999996
   17.89777756  117.67700195    2.94000006    2.28999996
   17.90083313  122.30200195    2.94000006    2.28999996
   17.90416718  115.87699890    2.94000006    2.28999996
   17.90749931  119.78900146    2.94000006    2.28999996
   17.91055489  116.25199890    2.94000006    2.28999996
   17.91388893  121.98100281    2.94000006    2.28999996
   17.91972160  121.98100281    2.94000006    2.28999996
   17.92388916  112.74099731    2.94000006    2.28999996
   17.92722130  119.89700317    2.94000006    2.28999996
   17.93027687  117.92500305    2.94000006    2.28999996
   17.93361092  120.76300049    2.94000006    2.28999996
   17.93694305  110.46399689    2.94000006    2.28999996
   17.93999863  115.75299835    2.94000006    2.28999996
   17.94333267  128.07299805    2.94000006    2.28999996
   17.94666672  112.95400238    2.94000006    2.28999996
   17.94972038  122.32399750    2.94000006    2.28999996
   17.95305634  115.54100037    2.94000006    2.28999996
   17.95472336  121.40200043    2.94000006    2.28999996
   17.95666695  116.54900360    2.94000006    2.28999996
   17.96277809  116.54900360    2.94000006    2.28999996
   17.96666718  123.56500244    2.94000006    2.28999996
   17.97000122  130.71000671    2.94000006    2.28999996
   17.97333336  123.23400116    2.94000006    2.28999996
   17.97638893  127.74800110    2.94000006    2.28999996
   17.97972298  117.55000305    2.94000006    2.28999996
   17.98305511  118.26499939    2.94000006    2.28999996
   17.98611069  119.95400238    2.94000006    2.28999996
   17.98833275  117.55799866    2.94000006    2.28999996
   17.98972321  114.53099823    2.94000006    2.28999996
   17.99305534  121.24800110    2.94000006    2.28999996
   17.99611092  121.18199921    2.94000006    2.28999996
   17.99944496  117.12000275    2.94000006    2.28999996
   18.00555611  117.12000275    2.94000006    2.28999996
   18.00972176  116.26799774    2.94000006    2.28999996
   18.01277733  117.51799774    2.94000006    2.28999996
   18.01611137  112.97699738    2.94000006    2.28999996
   18.01944351  120.19499969    2.94000006    2.28999996
   18.02166557  122.42299652    2.94000006    2.28999996
   18.02305603  121.49700165    2.94000006    2.28999996
   18.02638817  117.93699646    2.94000006    2.28999996
   18.02944374  123.76100159    2.94000006    2.28999996
   18.03277779  119.45099640    2.94000006    2.28999996
   18.03583336  114.65100098    2.94000006    2.28999996
   18.03916550  116.28900146    2.94000006    2.28999996
   18.04249954  115.02100372    2.94000006    2.28999996
   18.04833221  115.02100372    2.94000006    2.28999996
   18.05249977  123.61699677    2.94000006    2.28999996
   18.05499840  121.09899902    2.94000006    2.28999996
   18.05611038  122.16100311    2.94000006    2.28999996
   18.05944443  116.72899628    2.94000006    2.28999996
   18.06250000  125.91899872    2.94000006    2.28999996
   18.06583214  117.87699890    2.94000006    2.28999996
   18.06888962  122.91300201    2.94000006    2.28999996
   18.07222366  111.71299744    2.94000006    2.28999996
   18.07555580  113.01000214    2.94000006    2.28999996
   18.07861137  119.25299835    2.94000006    2.28999996
   18.08194542  119.76799774    2.94000006    2.28999996
   18.08527756  112.74500275    2.94000006    2.28999996
   18.09111214  112.74500275    2.94000006    2.28999996
   18.09527779  120.94799805    2.94000006    2.28999996
   18.09861183  112.41300201    2.94000006    2.28999996
   18.10166740  114.71900177    2.94000006    2.28999996
   18.10499954  119.44400024    2.94000006    2.28999996
   18.10833359  117.80200195    2.94000006    2.28999996
   18.11138916  121.41000366    2.94000006    2.28999996
   18.11472321  113.81700134    2.94000006    2.28999996
   18.11805534  116.92099762    2.94000006    2.28999996
   18.12111092  124.54199982    2.94000006    2.28999996
   18.12222290  114.01799774    2.94000006    2.28999996
   18.12472153  117.56400299    2.94000006    2.28999996
   18.12805557  117.08599854    2.94000006    2.28999996
   18.13416672  117.08599854    2.94000006    2.28999996
   18.13805580  118.63200378    2.94000006    2.28999996
   18.14138794  108.46800232    2.94000006    2.28999996
   18.14472198  115.53600311    2.94000006    2.28999996
   18.14777756  105.41699982    2.94000006    2.28999996
   18.15111160  111.55599976    2.94000006    2.28999996
   18.15444374  109.33200073    2.94000006    2.28999996
   18.15555573  109.81999969    2.94000006    2.28999996
   18.15777779  100.56999969    2.94000006    2.28999996
   18.16110992  107.09700012    2.94000006    2.28999996
   18.16416550  111.86599731    2.94000006    2.28999996
   18.16749954  107.12699890    2.94000006    2.28999996
   18.17083359  119.55899811    2.94000006    2.28999996
   18.17694473  119.55899811    2.94000006    2.28999996
   18.18111038  110.09700012    2.94000006    2.28999996
   18.18416595  108.27999878    2.94000006    2.28999996
   18.18750000  118.47200012    2.94000006    2.28999996
   18.18888855  114.28600311    2.94000006    2.28999996
   18.19111061  110.44799805    2.94000006    2.28999996
   18.19444275  105.95600128    2.94000006    2.28999996
   18.19749832  107.14399719    2.94000006    2.28999996
   18.20083427  110.91400146    2.94000006    2.28999996
   18.20416832  110.90499878    2.94000006    2.28999996
   18.20722389  112.40899658    2.94000006    2.28999996
   18.21055603  111.21199799    2.94000006    2.28999996
   18.21361160  116.30999756    2.94000006    2.28999996
   18.21972275  116.30999756    2.94000006    2.28999996
   18.23805618  107.97299957    2.94000006    2.28999996
   18.24138832  118.08999634    2.94000006    2.28999996
   18.24472237  107.54199982    2.94000006    2.28999996
   18.24777794  110.69999695    2.94000006    2.28999996
   18.25111198  123.59899902    2.94000006    2.28999996
   18.25416756  114.05500031    2.94000006    2.28999996
   18.25749969  126.73400116    2.94000006    2.28999996
   18.26277733  126.73400116    2.94000006    2.28999996
   18.26694489  128.21299744    2.94000006    2.28999996
   18.27027702  113.07900238    2.94000006    2.28999996
   18.27111053  124.26399994    2.94000006    2.28999996
   18.27388954  124.95999908    2.94000006    2.28999996
   18.27722168  113.47100067    2.94000006    2.28999996
   18.28027725  120.96199799    2.94000006    2.28999996
   18.28361130  128.21299744    2.94000006    2.28999996
   18.28666687  129.58799744    2.94000006    2.28999996
   18.28999901  133.96600342    2.94000006    2.28999996
   18.29333305  119.99700165    2.94000006    2.28999996
   18.29638863  130.65899658    2.94000006    2.28999996
   18.29972076  141.14900208    2.94000006    2.28999996
   18.30583191  141.14900208    2.94000006    2.28999996
   18.30972099  151.79400635    2.94000006    2.28999996
   18.31305504  145.46499634    2.94000006    2.28999996
   18.31638718  150.44700623    2.94000006    2.28999996
   18.31944466  171.95199585    2.94000006    2.28999996
   18.32277870  163.83500671    2.94000006    2.28999996
   18.32611275  173.22200012    2.94000006    2.28999996
   18.32916832  153.30099487    2.94000006    2.28999996
   18.33250046  191.41299438    2.94000006    2.28999996
   18.33555603  196.71200562    2.94000006    2.28999996
   18.33777809  221.15899658    2.94000006    2.28999996
   18.33944511  220.44999695    2.94000006    2.28999996
   18.34277916  192.28700256    2.94000006    2.28999996
   18.34861183  192.28700256    2.94000006    2.28999996
   18.35277748  203.98100281    2.94000006    2.28999996
   18.35583305  173.48899841    2.94000006    2.28999996
   18.35916710  188.38200378    2.94000006    2.28999996
   18.36250114  207.28599548    2.94000006    2.28999996
   18.36555672  199.00100708    2.94000006    2.28999996
   18.36888885  261.92199707    2.94000006    2.28999996
   18.37111092  223.25900269    2.94000006    2.28999996
   18.37249947  213.72300720    2.94000006    2.28999996
   18.37583351  236.06900024    2.94000006    2.28999996
   18.37888908  211.11000061    2.94000006    2.28999996
   18.38222313  231.33200073    2.94000006    2.28999996
   18.38555527  229.20199585    2.94000006    2.28999996
   18.39138794  229.20199585    2.94000006    2.28999996
   18.39555550  226.40100098    2.94000006    2.28999996
   18.39888954  208.82299805    2.94000006    2.28999996
   18.40194321  203.35299683    2.94000006    2.28999996
   18.40444374  188.73599243    2.94000006    2.28999996
   18.40555573  224.45500183    2.94000006    2.28999996
   18.40888786  212.66999817    2.94000006    2.28999996
   18.41194344  194.18600464    2.94000006    2.28999996
   18.41527748  184.44200134    2.94000006    2.28999996
   18.41860962  186.64599609    2.94000006    2.28999996
   18.42166519  205.66499329    2.94000006    2.28999996
   18.42499924  183.17300415    2.94000006    2.28999996
   18.42805481  218.19200134    2.94000006    2.28999996
   18.43416595  218.19200134    2.94000006    2.28999996
   18.43833160  187.62600708    2.94000006    2.28999996
   18.44166565  174.79899597    2.94000006    2.28999996
   18.44472122  202.92399597    2.94000006    2.28999996
   18.44805527  174.96699524    2.94000006    2.28999996
   18.45138931  206.59199524    2.94000006    2.28999996
   18.45444489  222.92199707    2.94000006    2.28999996
   18.45777893  209.40699768    2.94000006    2.28999996
   18.46111107  209.34899902    2.94000006    2.28999996
   18.46416664  178.00599670    2.94000006    2.28999996
   18.46750069  194.45700073    2.94000006    2.28999996
   18.47055626  188.43099976    2.94000006    2.28999996
   18.47111130  196.27400208    2.94000006    2.28999996
   18.47694588  196.27400208    2.94000006    2.28999996
   18.48111153  188.97799683    2.94000006    2.28999996
   18.48444557  170.99899292    2.94000006    2.28999996
   18.48777771  163.84500122    2.94000006    2.28999996
   18.49083328  160.01600647    2.94000006    2.28999996
   18.49416733  156.52299500    2.94000006    2.28999996
   18.49722290  162.09100342    2.94000006    2.28999996
   18.50055504  184.38800049    2.94000006    2.28999996
   18.50388908  167.77400208    2.94000006    2.28999996
   18.50444412  156.84100342    2.94000006    2.28999996
   18.50749969  174.54200745    2.94000006    2.28999996
   18.51083374  159.29899597    2.94000006    2.28999996
   18.51388931  181.89700317    2.94000006    2.28999996
   18.52000046  181.89700317    2.94000006    2.28999996
   18.52416611  138.10499573    2.94000006    2.28999996
   18.52722168  172.20100403    2.94000006    2.28999996
   18.53055573  176.64999390    2.94000006    2.28999996
   18.53361130  176.45399475    2.94000006    2.28999996
   18.53694344  162.10000610    2.94000006    2.28999996
   18.53777695  147.02699280    2.94000006    2.28999996
   18.54055595  170.41700745    2.94000006    2.28999996
   18.54388809  177.97799683    2.94000006    2.28999996
   18.54694366  166.30400085    2.94000006    2.28999996
   18.55027771  159.75500488    2.94000006    2.28999996
   18.55360985  191.85899353    2.94000006    2.28999996
   18.55666542  172.96899414    2.94000006    2.28999996
   18.56277657  172.96899414    2.94000006    2.28999996
   18.56694603  164.20599365    2.94000006    2.28999996
   18.57000160  162.20199585    2.94000006    2.28999996
   18.57111168  142.71800232    2.94000006    2.28999996
   18.57361221  164.62500000    2.94000006    2.28999996
   18.57694626  133.40600586    2.94000006    2.28999996
   18.58000183  145.19099426    2.94000006    2.28999996
   18.58333397  133.31100464    2.94000006    2.28999996
   18.58666801  163.02499390    2.94000006    2.28999996
   18.58972359  144.77000427    2.94000006    2.28999996
   18.59305573  160.99899292    2.94000006    2.28999996
   18.59611130  120.61399841    2.94000006    2.28999996
   18.59944534  159.41000366    2.94000006    2.28999996
   18.60555649  159.41000366    2.94000006    2.28999996
   18.60972214  144.98800659    2.94000006    2.28999996
   18.61305618  147.40100098    2.94000006    2.28999996
   18.61611176  159.43899536    2.94000006    2.28999996
   18.61944389  169.18600464    2.94000006    2.28999996
   18.62277794  153.89999390    2.94000006    2.28999996
   18.62583351  155.72000122    2.94000006    2.28999996
   18.62916756  139.39500427    2.94000006    2.28999996
   18.63249969  140.53500366    2.94000006    2.28999996
   18.63555527  128.07000732    2.94000006    2.28999996
   18.63777733  149.84500122    2.94000006    2.28999996
   18.63916588  125.41799927    2.94000006    2.28999996
   18.64249992  148.84300232    2.94000006    2.28999996
   18.64861107  148.84300232    2.94000006    2.28999996
   18.65250015  155.36999512    2.94000006    2.28999996
   18.65583229  139.47799683    2.94000006    2.28999996
   18.65916634  124.20600128    2.94000006    2.28999996
   18.66222191  135.30099487    2.94000006    2.28999996
   18.66555595  137.41299438    2.94000006    2.28999996
   18.66860962  143.88000488    2.94000006    2.28999996
   18.67138863  131.57699585    2.94000006    2.28999996
   18.67222214  149.93099976    2.94000006    2.28999996
   18.67555428  142.22300720    2.94000006    2.28999996
   18.67860985  134.56100464    2.94000006    2.28999996
   18.68194389  144.60499573    2.94000006    2.28999996
   18.68527603  132.07499695    2.94000006    2.28999996
   18.69138718  132.07499695    2.94000006    2.28999996
   18.69555473  143.29600525    2.94000006    2.28999996
   18.69861031  132.02699280    2.94000006    2.28999996
   18.70194435  143.73500061    2.94000006    2.28999996
   18.70472336  131.12399292    2.94000006    2.28999996
   18.70555687  132.69700623    2.94000006    2.28999996
   18.70888901  136.90899658    2.94000006    2.28999996
   18.71194458  127.66699982    2.94000006    2.28999996
   18.71527863  130.92599487    2.94000006    2.28999996
   18.71861076  132.36099243    2.94000006    2.28999996
   18.72166634  129.16999817    2.94000006    2.28999996
   18.72500038  126.74800110    2.94000006    2.28999996
   18.72833443  128.18299866    2.94000006    2.28999996
   18.73416710  128.18299866    2.94000006    2.28999996
   18.73833275  129.93400574    2.94000006    2.28999996
   18.74138832  132.25300598    2.94000006    2.28999996
   18.74472237  134.27999878    2.94000006    2.28999996
   18.74805641  132.82699585    2.94000006    2.28999996
   18.75111198  128.54100037    2.94000006    2.28999996
   18.75444412  126.89299774    2.94000006    2.28999996
   18.75777817  129.98300171    2.94000006    2.28999996
   18.76083374  123.71700287    2.94000006    2.28999996
   18.76416588  127.16500092    2.94000006    2.28999996
   18.76722145  127.06900024    2.94000006    2.28999996
   18.77055550  128.05799866    2.94000006    2.28999996
   18.77138901  124.13999939    2.94000006    2.28999996
   18.77694511  124.13999939    2.94000006    2.28999996
   18.78111076  126.35199738    2.94000006    2.28999996
   18.78444481  124.11799622    2.94000006    2.28999996
   18.78750038  121.05899811    2.94000006    2.28999996
   18.79083252  120.35900116    2.94000006    2.28999996
   18.79416656  120.06400299    2.94000006    2.28999996
   18.79722214  132.98599243    2.94000006    2.28999996
   18.80055428  122.91600037    2.94000006    2.28999996
   18.80388832  123.22100067    2.94000006    2.28999996
   18.80472183  123.14700317    2.94000006    2.28999996
   18.80749893  123.89600372    2.94000006    2.28999996
   18.81083298  130.86399841    2.94000006    2.28999996
   18.81388855  122.73600006    2.94000006    2.28999996
   18.81972313  122.73600006    2.94000006    2.28999996
   18.82389069  123.67800140    2.94000006    2.28999996
   18.82722282  131.97399902    2.94000006    2.28999996
   18.83055687  131.88699341    2.94000006    2.28999996
   18.83361244  115.40699768    2.94000006    2.28999996
   18.83694458  131.62300110    2.94000006    2.28999996
   18.83805656  126.56900024    2.94000006    2.28999996
   18.84055710  121.70400238    2.94000006    2.28999996
   18.84388924  123.98799896    2.94000006    2.28999996
   18.84694481  127.16500092    2.94000006    2.28999996
   18.85027885  137.45399475    2.94000006    2.28999996
   18.85361099  127.07299805    2.94000006    2.28999996
   18.85666656  130.98100281    2.94000006    2.28999996
   18.86277771  130.98100281    2.94000006    2.28999996
   18.86694527  127.90499878    2.94000006    2.28999996
   18.87000084  118.18900299    2.94000006    2.28999996
   18.87138939  116.80899811    2.94000006    2.28999996
   18.87361145  129.32299805    2.94000006    2.28999996
   18.87694550  127.58200073    2.94000006    2.28999996
   18.88027763  137.91000366    2.94000006    2.28999996
   18.88333321  122.12899780    2.94000006    2.28999996
   18.88666725  121.22399902    2.94000006    2.28999996
   18.88999939  115.41000366    2.94000006    2.28999996
   18.89305496  132.93699646    2.94000006    2.28999996
   18.89638901  128.90800476    2.94000006    2.28999996
   18.89944458  136.89999390    2.94000006    2.28999996
   18.90555573  136.89999390    2.94000006    2.28999996
   18.90972137  123.50000000    2.94000006    2.28999996
   18.91277695  134.34899902    2.94000006    2.28999996
   18.91611099  124.82700348    2.94000006    2.28999996
   18.91944313  132.00000000    2.94000006    2.28999996
   18.92249870  112.04000092    2.94000006    2.28999996
   18.92583275  123.92099762    2.94000006    2.28999996
   18.92916679  122.70800018    2.94000006    2.28999996
   18.93222237  121.34100342    2.94000006    2.28999996
   18.93555450  126.02300262    2.94000006    2.28999996
   18.93805504  145.53199768    2.94000006    2.28999996
   18.93916512  121.24500275    2.94000006    2.28999996
   18.94249916  121.11399841    2.94000006    2.28999996
   18.94833183  121.11399841    2.94000006    2.28999996
   18.95250130  129.43899536    2.94000006    2.28999996
   18.95583344  124.61100006    2.94000006    2.28999996
   18.95888901  129.22000122    2.94000006    2.28999996
   18.96222305  123.99900055    2.94000006    2.28999996
   18.96555710  137.17399597    2.94000006    2.28999996
   18.96861076  131.56100464    2.94000006    2.28999996
   18.97138977  127.56700134    2.94000006    2.28999996
   18.97222328  133.19700623    2.94000006    2.28999996
   18.97555542  131.30099487    2.94000006    2.28999996
   18.97888947  132.20199585    2.94000006    2.28999996
   18.98194504  127.75000000    2.94000006    2.28999996
   18.98527718  124.16699982    2.94000006    2.28999996
   18.99111176  124.16699982    2.94000006    2.28999996
   18.99527740  126.15799713    2.94000006    2.28999996
   18.99861145  125.89099884    2.94000006    2.28999996
   19.00194359  122.56800079    2.94000006    2.28999996
   19.00472260  131.63000488    2.94000006    2.28999996
   19.00527763  119.19400024    2.94000006    2.28999996
   19.00861168  121.27500153    2.94000006    2.28999996
   19.01194382  123.17800140    2.94000006    2.28999996
   19.01499939  126.79000092    2.94000006    2.28999996
   19.01833344  128.58099365    2.94000006    2.28999996
   19.02138901  118.01599884    2.94000006    2.28999996
   19.02472115  125.55100250    2.94000006    2.28999996
   19.02805519  127.39800262    2.94000006    2.28999996
   19.03416634  127.39800262    2.94000006    2.28999996
   19.03833199  126.12000275    2.94000006    2.28999996
   19.04138756  130.75999451    2.94000006    2.28999996
   19.04472160  122.68399811    2.94000006    2.28999996
   19.04777718  121.47499847    2.94000006    2.28999996
   19.05111122  126.42500305    2.94000006    2.28999996
   19.05444336  124.49700165    2.94000006    2.28999996
   19.05749893  124.71399689    2.94000006    2.28999996
   19.06083298  124.00000000    2.94000006    2.28999996
   19.06416512  123.90000153    2.94000006    2.28999996
   19.06722260  124.25000000    2.94000006    2.28999996
   19.07055664  131.83900452    2.94000006    2.28999996
   19.07139015  125.23400116    2.94000006    2.28999996
   19.07694626  125.23400116    2.94000006    2.28999996
   19.08111191  129.13299561    2.94000006    2.28999996
   19.08416748  130.59800720    2.94000006    2.28999996
   19.08750153  125.91799927    2.94000006    2.28999996
   19.09083366  124.76499939    2.94000006    2.28999996
   19.09388924  124.23300171    2.94000006    2.28999996
   19.09722328  125.64600372    2.94000006    2.28999996
   19.10055542  125.53900146    2.94000006    2.28999996
   19.10361099  126.23400116    2.94000006    2.28999996
   19.10472298  124.20700073    2.94000006    2.28999996
   19.10722351  130.36000061    2.94000006    2.28999996
   19.11055565  123.51399994    2.94000006    2.28999996
   19.11388969  125.12200165    2.94000006    2.28999996
   19.11972237  125.12200165    2.94000006    2.28999996
   19.12388992  122.94799805    2.94000006    2.28999996
   19.12722206  115.99700165    2.94000006    2.28999996
   19.13027763  122.90599823    2.94000006    2.28999996
   19.13361168  121.90499878    2.94000006    2.28999996
   19.13694382  126.57800293    2.94000006    2.28999996
   19.13805580  131.88299561    2.94000006    2.28999996
   19.14027786  126.98500061    2.94000006    2.28999996
   19.14361191  126.19999695    2.94000006    2.28999996
   19.14694405  127.36799622    2.94000006    2.28999996
   19.14999962  118.42700195    2.94000006    2.28999996
   19.15333366  128.83099365    2.94000006    2.28999996
   19.15638924  125.33100128    2.94000006    2.28999996
   19.16250038  125.33100128    2.94000006    2.28999996
   19.16666603  118.94400024    2.94000006    2.28999996
   19.17000008  127.68299866    2.94000006    2.28999996
   19.17138863  127.75399780    2.94000006    2.28999996
   19.17361069  130.72599792    2.94000006    2.28999996
   19.17694473  131.74299622    2.94000006    2.28999996
   19.18027687  122.60500336    2.94000006    2.28999996
   19.18333244  124.49900055    2.94000006    2.28999996
   19.18666649  125.05500031    2.94000006    2.28999996
   19.18999863  119.62799835    2.94000006    2.28999996
   19.19305420  128.69999695    2.94000006    2.28999996
   19.19638824  123.16000366    2.94000006    2.28999996
   19.19944382  123.97000122    2.94000006    2.28999996
   19.20555687  123.97000122    2.94000006    2.28999996
   19.20972252  130.15699768    2.94000006    2.28999996
   19.21277809  121.60600281    2.94000006    2.28999996
   19.21611214  122.39800262    2.94000006    2.28999996
   19.21916771  135.78399658    2.94000006    2.28999996
   19.22249985  118.53299713    2.94000006    2.28999996
   19.22583389  128.35299683    2.94000006    2.28999996
   19.22888947  125.09300232    2.94000006    2.28999996
   19.23222351  123.67299652    2.94000006    2.28999996
   19.23555565  129.45799255    2.94000006    2.28999996
   19.23805618  125.03099823    2.94000006    2.28999996
   19.25861168  125.03099823    2.94000006    2.28999996
   19.26277733  123.98000336    2.94000006    2.28999996
   19.26611137  120.47599792    2.94000006    2.28999996
   19.26916695  120.94000244    2.94000006    2.28999996
   19.27138901  120.14399719    2.94000006    2.28999996
   19.27277756  125.56800079    2.94000006    2.28999996
   19.27611160  128.65800476    2.94000006    2.28999996
   19.27944374  123.35299683    2.94000006    2.28999996
   19.28249931  126.48999786    2.94000006    2.28999996
   19.28583336  122.95300293    2.94000006    2.28999996
   19.28916550  129.26899719    2.94000006    2.28999996
   19.29222107  124.77799988    2.94000006    2.28999996
   19.29555511  123.44999695    2.94000006    2.28999996
   19.30138779  123.44999695    2.94000006    2.28999996
   19.30555534  121.98899841    2.94000006    2.28999996
   19.30861092  121.75000000    2.94000006    2.28999996
   19.31194305  115.07599640    2.94000006    2.28999996
   19.31527710  120.50700378    2.94000006    2.28999996
   19.31833458  116.13700104    2.94000006    2.28999996
   19.32166672  118.61299896    2.94000006    2.28999996
   19.32500076  118.81300354    2.94000006    2.28999996
   19.32805634  122.38400269    2.94000006    2.28999996
   19.33139038  122.04299927    2.94000006    2.28999996
   19.33444595  128.95500183    2.94000006    2.28999996
   19.33777809  119.98999786    2.94000006    2.28999996
   19.33833313  125.10199738    2.94000006    2.28999996
   19.34416771  125.10199738    2.94000006    2.28999996
   19.34833336  119.44999695    2.94000006    2.28999996
   19.35166740  120.74400330    2.94000006    2.28999996
   19.35472298  121.17800140    2.94000006    2.28999996
   19.35805511  123.77400208    2.94000006    2.28999996
   19.36138916  123.36699677    2.94000006    2.28999996
   19.36444473  122.89299774    2.94000006    2.28999996
   19.36777878  124.93900299    2.94000006    2.28999996
   19.37083435  121.76399994    2.94000006    2.28999996
   19.37166595  122.65599823    2.94000006    2.28999996
   19.37472153  129.31599426    2.94000006    2.28999996
   19.37777710  133.10600281    2.94000006    2.28999996
   19.38111115  128.54400635    2.94000006    2.28999996
   19.38694382  128.54400635    2.94000006    2.28999996
   19.39111137  126.78600311    2.94000006    2.28999996
   19.39444351  120.28600311    2.94000006    2.28999996
   19.39777756  123.72399902    2.94000006    2.28999996
   19.40083313  121.14499664    2.94000006    2.28999996
   19.40416718  118.69899750    2.94000006    2.28999996
   19.40499878  118.04000092    2.94000006    2.28999996
   19.40777779  116.97499847    2.94000006    2.28999996
   19.41083336  124.54100037    2.94000006    2.28999996
   19.41416550  127.07499695    2.94000006    2.28999996
   19.41749954  121.54599762    2.94000006    2.28999996
   19.42055511  129.42300415    2.94000006    2.28999996
   19.42388916  125.08499908    2.94000006    2.28999996
   19.43000031  125.08499908    2.94000006    2.28999996
   19.43416595  122.61299896    2.94000006    2.28999996
   19.43722153  126.54299927    2.94000006    2.28999996
   19.43833160  132.58399963    2.94000006    2.28999996
   19.44111061  131.65699768    2.94000006    2.28999996
   19.44416618  122.76200104    2.94000006    2.28999996
   19.44749832  122.69000244    2.94000006    2.28999996
   19.45083427  124.72100067    2.94000006    2.28999996
   19.45416832  131.14599609    2.94000006    2.28999996
   19.45750046  119.79799652    2.94000006    2.28999996
   19.46083450  123.48899841    2.94000006    2.28999996
   19.46389008  123.38600159    2.94000006    2.28999996
   19.46722221  123.87000275    2.94000006    2.28999996
   19.47277832  123.87000275    2.94000006    2.28999996
   19.47694588  122.73300171    2.94000006    2.28999996
   19.48000145  126.38899994    2.94000006    2.28999996
   19.48333359  117.18599701    2.94000006    2.28999996
   19.48666763  130.17199707    2.94000006    2.28999996
   19.48972321  122.03800201    2.94000006    2.28999996
   19.49305534  115.97699738    2.94000006    2.28999996
   19.49638939  122.28199768    2.94000006    2.28999996
   19.49944496  124.04799652    2.94000006    2.28999996
   19.50277710  114.68900299    2.94000006    2.28999996
   19.50499916  119.72299957    2.94000006    2.28999996
   19.50638962  114.92299652    2.94000006    2.28999996
   19.50944519  122.06999969    2.94000006    2.28999996
   19.51555634  122.06999969    2.94000006    2.28999996
   19.51972198  114.86299896    2.94000006    2.28999996
   19.52305603  114.29599762    2.94000006    2.28999996
   19.52611160  116.96800232    2.94000006    2.28999996
   19.52944374  120.30400085    2.94000006    2.28999996
   19.53277779  124.05100250    2.94000006    2.28999996
   19.53583336  121.14900208    2.94000006    2.28999996
   19.53833199  121.34600067    2.94000006    2.28999996
   19.53972244  118.08799744    2.94000006    2.28999996
   19.54277802  123.71499634    2.94000006    2.28999996
   19.54611015  119.66999817    2.94000006    2.28999996
   19.54944420  132.02600098    2.94000006    2.28999996
   19.55249977  123.93499756    2.94000006    2.28999996
   19.55833244  123.93499756    2.94000006    2.28999996
   19.56250000  124.06500244    2.94000006    2.28999996
   19.56583214  126.75599670    2.94000006    2.28999996
   19.56916809  124.77700043    2.94000006    2.28999996
   19.57166672  125.79499817    2.94000006    2.28999996
   19.57277870  118.97899628    2.94000006    2.28999996
   19.57583427  127.36699677    2.94000006    2.28999996
   19.57916832  127.63600159    2.94000006    2.28999996
   19.58250046  126.70300293    2.94000006    2.28999996
   19.58555603  124.62899780    2.94000006    2.28999996
   19.58889008  128.77699280    2.94000006    2.28999996
   19.59194565  118.87899780    2.94000006    2.28999996
   19.59527779  117.83799744    2.94000006    2.28999996
   19.60138893  117.83799744    2.94000006    2.28999996
   19.60555649  119.52899933    2.94000006    2.28999996
   19.60861206  129.11999512    2.94000006    2.28999996
   19.61194420  126.55899811    2.94000006    2.28999996
   19.61499977  119.61000061    2.94000006    2.28999996
   19.61833382  125.57700348    2.94000006    2.28999996
   19.62166595  124.84700012    2.94000006    2.28999996
   19.62472153  125.80500031    2.94000006    2.28999996
   19.62805557  122.24299622    2.94000006    2.28999996
   19.63138962  128.74200439    2.94000006    2.28999996
   19.63444519  122.85800171    2.94000006    2.28999996
   19.63777733  118.33899689    2.94000006    2.28999996
   19.63833237  123.31199646    2.94000006    2.28999996
   19.64416695  123.31199646    2.94000006    2.28999996
   19.64833260  121.89299774    2.94000006    2.28999996
   19.65138817  122.81500244    2.94000006    2.28999996
   19.65472221  116.54100037    2.94000006    2.28999996
   19.65805435  119.60800171    2.94000006    2.28999996
   19.66110992  117.38200378    2.94000006    2.28999996
   19.66444397  129.85000610    2.94000006    2.28999996
   19.66777802  127.46900177    2.94000006    2.28999996
   19.67083359  130.13999939    2.94000006    2.28999996
   19.67166519  124.47899628    2.94000006    2.28999996
   19.67472076  120.22799683    2.94000006    2.28999996
   19.67777634  124.72699738    2.94000006    2.28999996
   19.68111038  123.05500031    2.94000006    2.28999996
   19.68694305  123.05500031    2.94000006    2.28999996
   19.69111061  121.41100311    2.94000006    2.28999996
   19.69444275  121.79000092    2.94000006    2.28999996
   19.69749832  126.48400116    2.94000006    2.28999996
   19.70083427  127.99500275    2.94000006    2.28999996
   19.70388985  129.20500183    2.94000006    2.28999996
   19.70499992  121.25199890    2.94000006    2.28999996
   19.70777893  127.71399689    2.94000006    2.28999996
   19.71083450  122.88600159    2.94000006    2.28999996
   19.71416664  126.85199738    2.94000006    2.28999996
   19.71750069  120.80500031    2.94000006    2.28999996
   19.72055626  133.02400208    2.94000006    2.28999996
   19.72389030  126.72799683    2.94000006    2.28999996
   19.72972298  126.72799683    2.94000006    2.28999996
   19.73388863  121.08599854    2.94000006    2.28999996
   19.73722267  120.16999817    2.94000006    2.28999996
   19.73833275  126.77500153    2.94000006    2.28999996
   19.74083328  126.72399902    2.94000006    2.28999996
   19.74388885  128.93299866    2.94000006    2.28999996
   19.74722290  122.83200073    2.94000006    2.28999996
   19.75055504  125.94000244    2.94000006    2.28999996
   19.75361061  120.32099915    2.94000006    2.28999996
   19.75694466  120.85199738    2.94000006    2.28999996
   19.76027870  122.91999817    2.94000006    2.28999996
   19.76333427  133.06300354    2.94000006    2.28999996
   19.76666641  117.62400055    2.94000006    2.28999996
   19.77277756  117.62400055    2.94000006    2.28999996
   19.77666664  130.47099304    2.94000006    2.28999996
   19.78000069  128.40400696    2.94000006    2.28999996
   19.78333282  121.78500366    2.94000006    2.28999996
   19.78638840  126.84300232    2.94000006    2.28999996
   19.78972244  125.22299957    2.94000006    2.28999996
   19.79305458  123.12599945    2.94000006    2.28999996
   19.79611015  127.40799713    2.94000006    2.28999996
   19.79944420  124.83499908    2.94000006    2.28999996
   19.80249977  128.74200439    2.94000006    2.28999996
   19.80499840  132.70199585    2.94000006    2.28999996
   19.80638885  124.27700043    2.94000006    2.28999996
   19.80944443  123.46199799    2.94000006    2.28999996
   19.81555557  123.46199799    2.94000006    2.28999996
   19.81972313  129.08599854    2.94000006    2.28999996
   19.82277870  121.49099731    2.94000006    2.28999996
   19.82611275  126.78900146    2.94000006    2.28999996
   19.82944489  129.73599243    2.94000006    2.28999996
   19.83250046  129.17900085    2.94000006    2.28999996
   19.83583450  131.34100342    2.94000006    2.28999996
   19.83833313  137.35899353    2.94000006    2.28999996
   19.83944511  127.37100220    2.94000006    2.28999996
   19.84250069  121.36199951    2.94000006    2.28999996
   19.84583473  122.28700256    2.94000006    2.28999996
   19.84916687  129.39399719    2.94000006    2.28999996
   19.85222244  126.33000183    2.94000006    2.28999996
   19.85833359  126.33000183    2.94000006    2.28999996
   19.86250114  131.46699524    2.94000006    2.28999996
   19.86583328  122.41200256    2.94000006    2.28999996
   19.86888885  120.96399689    2.94000006    2.28999996
   19.87166595  128.12500000    2.94000006    2.28999996
   19.87249947  136.13200378    2.94000006    2.28999996
   19.87555504  123.23500061    2.94000006    2.28999996
   19.87888908  126.08699799    2.94000006    2.28999996
   19.88222313  129.73399353    2.94000006    2.28999996
   19.88527679  126.84200287    2.94000006    2.28999996
   19.88861084  129.78100586    2.94000006    2.28999996
   19.89194489  129.91000366    2.94000006    2.28999996
   19.89500046  137.42500305    2.94000006    2.28999996
   19.90111160  137.42500305    2.94000006    2.28999996
   19.90527725  132.42599487    2.94000006    2.28999996
   19.90861130  130.55999756    2.94000006    2.28999996
   19.91194344  135.07800293    2.94000006    2.28999996
   19.91499901  127.63600159    2.94000006    2.28999996
   19.91833305  129.69599915    2.94000006    2.28999996
   19.92138863  133.57899475    2.94000006    2.28999996
   19.92472076  131.07400513    2.94000006    2.28999996
   19.92805481  131.99600220    2.94000006    2.28999996
   19.93111038  127.00199890    2.94000006    2.28999996
   19.93444443  132.20799255    2.94000006    2.28999996
   19.93777657  133.57600403    2.94000006    2.28999996
   19.93833160  133.11799622    2.94000006    2.28999996
   19.94416618  133.11799622    2.94000006    2.28999996
   19.94805527  129.65100098    2.94000006    2.28999996
   19.95138931  124.84799957    2.94000006    2.28999996
   19.95472336  138.09599304    2.94000006    2.28999996
   19.95777893  128.89700317    2.94000006    2.28999996
   19.96111107  118.70899963    2.94000006    2.28999996
   19.96444511  132.41900635    2.94000006    2.28999996
   19.96750069  124.77999878    2.94000006    2.28999996
   19.97083473  119.92099762    2.94000006    2.28999996
   19.97166634  126.90399933    2.94000006    2.28999996
   19.97444534  122.16600037    2.94000006    2.28999996
   19.97777748  125.96299744    2.94000006    2.28999996
   19.98083305  124.98699951    2.94000006    2.28999996
   19.98694420  124.98699951    2.94000006    2.28999996
   19.99111176  128.55700684    2.94000006    2.28999996
   19.99416733  124.85399628    2.94000006    2.28999996
   19.99749947  130.82699585    2.94000006    2.28999996
   20.00083351  122.44699860    2.94000006    2.28999996
   20.00388908  128.40699768    2.94000006    2.28999996
   20.00499916  135.34100342    2.94000006    2.28999996
   20.00749969  132.55700684    2.94000006    2.28999996
   20.01083374  134.44599915    2.94000006    2.28999996
   20.01388931  130.73899841    2.94000006    2.28999996
   20.01722145  130.11999512    2.94000006    2.28999996
   20.02027702  129.55900574    2.94000006    2.28999996
   20.02361107  134.21600342    2.94000006    2.28999996
   20.02972221  134.21600342    2.94000006    2.28999996
   20.03388786  133.08099365    2.94000006    2.28999996
   20.03722191  131.45199585    2.94000006    2.28999996
   20.03833199  128.14500427    2.94000006    2.28999996
   20.04083252  127.93800354    2.94000006    2.28999996
   20.04416656  136.36300659    2.94000006    2.28999996
   20.04722214  126.95999908    2.94000006    2.28999996
   20.05055428  128.76400757    2.94000006    2.28999996
   20.05360985  130.46200562    2.94000006    2.28999996
   20.05694389  136.82899475    2.94000006    2.28999996
   20.06027794  129.21000671    2.94000006    2.28999996
   20.06333351  131.65699768    2.94000006    2.28999996
   20.06666756  124.86699677    2.94000006    2.28999996
   20.07250023  124.86699677    2.94000006    2.28999996
   20.07666779  137.19700623    2.94000006    2.28999996
   20.08000183  132.77900696    2.94000006    2.28999996
   20.08361244  128.31799316    2.94000006    2.28999996
   20.08666801  133.05799866    2.94000006    2.28999996
   20.09000015  128.32499695    2.94000006    2.28999996
   20.09305573  132.72399902    2.94000006    2.28999996
   20.09638977  135.52400208    2.94000006    2.28999996
   20.09972191  127.43099976    2.94000006    2.28999996
   20.10277748  128.45199585    2.94000006    2.28999996
   20.10499954  138.57299805    2.94000006    2.28999996
   20.10639000  138.56399536    2.94000006    2.28999996
   20.10972214  135.09899902    2.94000006    2.28999996
   20.11555672  135.09899902    2.94000006    2.28999996
   20.11944389  128.52699280    2.94000006    2.28999996
   20.12277794  136.45599365    2.94000006    2.28999996
   20.12611198  136.56900024    2.94000006    2.28999996
   20.12916756  138.62899780    2.94000006    2.28999996
   20.13249969  129.37800598    2.94000006    2.28999996
   20.13555527  131.41299438    2.94000006    2.28999996
   20.13833237  147.68800354    2.94000006    2.28999996
   20.13944435  133.24699402    2.94000006    2.28999996
   20.14277840  141.97200012    2.94000006    2.28999996
   20.14583397  144.91299438    2.94000006    2.28999996
   20.14916611  125.79799652    2.94000006    2.28999996
   20.15250015  140.03599548    2.94000006    2.28999996
   20.15833282  140.03599548    2.94000006    2.28999996
   20.16250038  125.16899872    2.94000006    2.28999996
   20.16555595  134.95899963    2.94000006    2.28999996
   20.16888809  133.87300110    2.94000006    2.28999996
   20.17166519  153.36500549    2.94000006    2.28999996
   20.17249870  135.35499573    2.94000006    2.28999996
   20.17583275  126.86599731    2.94000006    2.28999996
   20.17888832  163.72900391    2.94000006    2.28999996
   20.18222237  196.44099426    2.94000006    2.28999996
   20.18555450  271.06201172    2.94000006    2.28999996
   20.18861008  351.79800415    2.94000006    2.28999996
   20.19055557  430.95199585    2.94000006    2.28999996
   20.19194412  438.66799927    2.94000006    2.28999996
   20.19333267  390.55899048    2.94000006    2.28999996
   20.19472122  177.77499390    2.94000006    2.28999996
   20.19472122  134.95899963    2.94000006    2.28999996
   20.19499969  133.87300110    2.94000006    2.28999996
   20.19499969  135.35499573    2.94000006    2.28999996
   20.19499969  126.86599731    2.94000006    2.28999996
   20.19527626  163.72900391    2.94000006    2.28999996
   20.19527626  196.44099426    2.94000006    2.28999996
   20.19555473  271.06201172    2.94000006    2.28999996
   20.19555473  351.79800415    2.94000006    2.28999996
   20.19555473  125.16899872    2.94000006    2.28999996
   20.19610977  116.80300140    2.94000006    2.28999996
   20.19944382  103.15599823    2.94000006    2.28999996
   20.20250130   -1.00000000    2.94000006    2.28999996
   20.20583344   -1.00000000    2.94000006    2.28999996
   20.20916748   -1.00000000    2.94000006    2.28999996
   20.21972275   -1.00000000    2.94000006    2.28999996
   20.22277832   -1.00000000    2.94000006    2.28999996
   20.22611237   -1.00000000    2.94000006    2.28999996
   20.22944450   -1.00000000    2.94000006    2.28999996
   20.23277855   -1.00000000    2.94000006    2.28999996
   20.23611069   -1.00000000    2.94000006    2.28999996
   20.23916626   -1.00000000    2.94000006    2.28999996
   20.24250031   -1.00000000    2.94000006    2.28999996
   20.24555588   -1.00000000    2.94000006    2.28999996
   20.24888992   -1.00000000    2.94000006    2.28999996
   20.25222206   -1.00000000    2.94000006    2.28999996
   20.27305603   -1.00000000    2.94000006    2.28999996
   20.27611160   -1.00000000    2.94000006    2.28999996
   20.27944374   -1.00000000    2.94000006    2.28999996
   20.28249931   -1.00000000    2.94000006    2.28999996
   20.28583336   -1.00000000    2.94000006    2.28999996
   20.28916550   -1.00000000    2.94000006    2.28999996
   20.29222107   -1.00000000    2.94000006    2.28999996
   20.29555511   -1.00000000    2.94000006    2.28999996
   20.30527687   -1.00000000    2.94000006    2.28999996
