    HOUR (UT)   FLARE FACTOR    SKY TESTER    SUN TESTER
   12.88472176   -1.00000000   -1.00000000   -1.00000000
   12.97583294  101.44300079    1.16999996    0.46000001
   12.97916603  106.79000092    0.07000000    0.13000000
   12.98222160  102.89399719    0.07000000    0.05000000
   12.98555565  109.08499908    0.07000000    0.05000000
   12.98861122   96.05819702    0.07000000    0.05000000
   12.99194431   99.21980286    0.07000000    0.05000000
   12.99611092   99.21980286    0.07000000    0.05000000
   13.00027752  108.32900238    0.07000000    0.05000000
   13.00333309  105.18099976    0.07000000    0.05000000
   13.00666714   98.41030121    0.07000000    0.05000000
   13.00916672  105.09200287    0.07000000    0.05000000
   13.01027775  104.92700195    0.07000000    0.05000000
   13.01361084  104.47799683    0.07000000    0.05000000
   13.01694393  105.99900055    0.07000000    0.05000000
   13.01999950  104.95200348    0.07000000    0.05000000
   13.02333355   97.05619812    0.07000000    0.05000000
   13.02666664  105.19400024    0.07000000    0.05000000
   13.02972221  104.08000183    0.07000000    0.05000000
   13.03305531  103.34799957    0.07000000    0.05000000
   13.03888893  103.34799957    0.07000000    0.05000000
   13.04305553   99.91899872    0.07000000    0.05000000
   13.04638958   97.96179962    0.07000000    0.05000000
   13.04944515   99.63629913    0.07000000    0.05000000
   13.05277824  103.59300232    0.07000000    0.05000000
   13.05611134  110.21600342    0.07000000    0.05000000
   13.05944443  105.66600037    0.07000000    0.05000000
   13.06250000   92.79810333    0.07000000    0.05000000
   13.06583309  107.75399780    0.07000000    0.05000000
   13.06888866  107.19300079    0.07000000    0.05000000
   13.07222176   99.55030060    0.07000000    0.05000000
   13.07555580  101.02700043    0.07000000    0.05000000
   13.07611084  106.19499969    0.07000000    0.05000000
   13.08194447  106.19499969    0.07000000    0.05000000
   13.08583260  114.08300018    0.07000000    0.05000000
   13.08916664  102.57399750    0.07000000    0.05000000
   13.09249973  101.04299927    0.07000000    0.05000000
   13.09555531   99.90219879    0.07000000    0.05000000
   13.09888840  101.79799652    0.07000000    0.05000000
   13.10194492  105.27999878    0.07000000    0.05000000
   13.10527802  107.77200317    0.07000000    0.05000000
   13.10861111  109.79599762    0.07000000    0.05000000
   13.10944462  102.51200104    0.07000000    0.05000000
   13.11194515  102.88600159    0.07000000    0.05000000
   13.11527824   97.05870056    0.07000000    0.05000000
   13.11861134  107.38800049    0.07000000    0.05000000
   13.12472248  107.38800049    0.07000000    0.05000000
   13.12888908  101.47799683    0.07000000    0.05000000
   13.13194466  116.81300354    0.07000000    0.05000000
   13.13527775  102.49199677    0.07000000    0.05000000
   13.13861084  125.87200165    0.07000000    0.05000000
   13.14166641  100.52899933    0.07000000    0.05000000
   13.14277744  107.24700165    0.07000000    0.05000000
   13.14527798  102.98799896    0.07000000    0.05000000
   13.14861107  106.14700317    0.07000000    0.05000000
   13.15194416  100.99400330    0.07000000    0.05000000
   13.15499973  100.33699799    0.07000000    0.05000000
   13.15833282  104.98100281    0.07000000    0.05000000
   13.16138840  107.87300110    0.07000000    0.05000000
   13.16750050  107.87300110    0.07000000    0.05000000
   13.17166710   97.56780243    0.07000000    0.05000000
   13.17500019  109.13200378    0.07000000    0.05000000
   13.17611122  111.06900024    0.07000000    0.05000000
   13.17833328   94.22920227    0.07000000    0.05000000
   13.18166733   93.89669800    0.07000000    0.05000000
   13.18500042  113.88400269    0.07000000    0.05000000
   13.18805599  109.63300323    0.07000000    0.05000000
   13.19138908  114.53299713    0.07000000    0.05000000
   13.19444466  104.06400299    0.07000000    0.05000000
   13.19777775  101.76399994    0.07000000    0.05000000
   13.20111084  103.29599762    0.07000000    0.05000000
   13.20416641  105.27600098    0.07000000    0.05000000
   13.21027756  105.27600098    0.07000000    0.05000000
   13.21444416  107.47200012    0.07000000    0.05000000
   13.21777725  118.13400269    0.07000000    0.05000000
   13.22083282  106.24700165    0.07000000    0.05000000
   13.22416592  111.81500244    0.07000000    0.05000000
   13.22749996  102.62000275    0.70999998    0.34000000
   13.23055553  113.46399689    0.86000001    0.34000000
   13.23388958  109.61399841    0.86000001    0.34000000
   13.23750019  101.92500305    0.36000001    0.17000000
   13.24055576  107.51599884    0.09000000    0.03000000
   13.24277782  110.80799866    1.09000003    1.03999996
   13.24416733  116.59500122    1.07000005    0.51999998
   13.24750042  100.99299622    1.13000000    2.26999998
   13.25305557  100.99299622    1.07000005    0.64999998
   13.25722218  112.51599884    4.90999985    2.40000010
   13.26055527  109.72499847    4.90999985    2.40000010
   13.26388931  114.38400269    4.90999985    2.39000010
   13.26749992  110.56900024    0.00000000    0.00000000
   13.27138901  119.51599884    0.00000000    0.00000000
   13.27527714  118.60600281    0.00000000    0.00000000
   13.27611065  109.17900085    0.00000000    0.00000000
   13.27972221  126.08399963    0.00000000    0.00000000
   13.28388977  122.57199860    0.00000000    0.00000000
   13.28750038  113.39099884    0.00000000    0.00000000
   13.29138947  103.35199738    0.00000000    0.00000000
   13.29666710  103.35199738    0.00000000    0.00000000
   13.30138874  108.54000092    0.00000000    0.00000000
   13.30527782   99.33689880    0.00000000    0.00000000
   13.30916691   99.41120148    0.00000000    0.00000000
   13.30972195  106.13099670    0.00000000    0.00000000
   13.31277752  107.53800201    4.90999985    2.39000010
   13.31583309  114.47200012    4.90999985    2.39000010
   13.31916618   99.39589691    4.90999985    2.39000010
   13.32222176  113.38300323    4.90999985    2.39000010
   13.32555580  105.25900269    4.90999985    2.39000010
   13.32888889  103.05300140    4.90999985    2.39000010
   13.33222198  107.84300232    4.90999985    2.39000010
   13.33888817  107.84300232    4.90999985    2.39000010
   13.34305477  106.86000061    4.90999985    2.39000010
   13.34361076  105.44999695    4.90999985    2.39000010
   13.34666634  123.37999725    4.90999985    2.39000010
   13.35000038  112.87300110    4.90999985    2.39000010
   13.35305595  112.42199707    4.90999985    2.39000010
   13.35638905  118.55899811    4.90999985    2.39000010
   13.35972214  116.83300018    4.90999985    2.39000010
   13.36277771  110.24800110    4.90999985    2.39000010
   13.36611176  117.16300201    4.90999985    2.39000010
   13.36944485  111.85099792    4.90999985    2.39000010
   13.37250042  109.18199921    4.90999985    2.39000010
   13.37583351  114.03500366    4.90999985    2.39000010
   13.37638855  111.80599976    4.90999985    2.39000010
   13.38166714  111.80599976    4.90999985    2.39000010
   13.38583279  119.35299683    4.90999985    2.39000010
   13.38916683  115.20300293    4.90999985    2.39000010
   13.39222240  116.54399872    4.90999985    2.39000010
   13.39555550  106.70300293    4.90999985    2.39000010
   13.39888859  112.44799805    4.90999985    2.39000010
   13.40194416  115.31600189    4.90999985    2.39000010
   13.40527725   99.98329926    4.90999985    2.39000010
   13.40833282  116.84400177    4.90999985    2.39000010
   13.40972137  118.47299957    4.90999985    2.39000010
   13.41222191  109.72599792    4.90999985    2.39000010
   13.41527748  115.83200073    4.90999985    2.39000010
   13.41861153  113.40599823    4.90999985    2.39000010
   13.42444515  113.40599823    4.90999985    2.39000010
   13.42861176  109.25800323    4.90999985    2.39000010
   13.43194485  111.38999939    4.90999985    2.39000010
   13.43527794  108.82199860    0.70999998    0.23000000
   13.43833351  110.20300293    0.70999998    0.25000000
   13.44166660  115.23999786    0.70999998    0.25000000
   13.44305515  112.89800262    0.70999998    0.44000000
   13.44527817  110.31999969    4.90999985    2.40000010
   13.44833374  109.25700378    1.41999996    2.36999989
   13.45166683  102.07700348    1.44000006    2.36999989
   13.45499992  111.05799866    1.44000006    2.36999989
   13.45805550  106.52500153    1.44000006    2.36999989
   13.46138859  106.79299927    1.44000006    2.39000010
   13.46749973  106.79299927    1.46000004    2.36999989
   13.47166634  103.53199768    1.44000006    2.39000010
   13.47472191  107.12400055    1.44000006    2.39000010
   13.47638798  106.45899963    1.44000006    2.39000010
   13.47861099  104.48600006    1.44000006    2.36999989
   13.48166656  104.86399841    1.44000006    2.36999989
   13.48500061   98.72389984    1.44000006    2.39000010
   13.48833370  110.37699890    1.44000006    2.39000010
   13.49138927  107.63999939    1.44000006    2.39000010
   13.49472237  102.68000031    1.41999996    2.39000010
   13.49777794  110.90299988    1.41999996    2.39000010
   13.50111103  110.22899628    1.44000006    2.39000010
   13.50444412  107.43800354    1.44000006    2.39000010
   13.51027775  107.43800354    1.41999996    2.40000010
   13.51444435  107.11299896    1.41999996    2.40000010
   13.51777744  109.33599854    1.41999996    2.39000010
   13.52111053  102.83899689    1.39999998    2.39000010
   13.52416611  110.20200348    1.39999998    2.39000010
   13.52750015  113.95099640    1.39999998    2.39000010
   13.53055573  106.64900208    1.39999998    2.39000010
   13.53388977  109.48300171    1.39999998    2.39000010
   13.53722286  111.38400269    1.39999998    2.39000010
   13.54055595  103.90200043    1.39999998    2.40000010
   13.54305553  114.80200195    1.39999998    2.40000010
   13.54416752  103.76699829    1.39999998    2.40000010
   13.54722309  109.23300171    1.39999998    2.40000010
   13.55333328  109.23300171    1.39999998    2.39000010
   13.55749989  106.50599670    1.39999998    2.39000010
   13.56055546  106.94799805    1.39999998    2.39000010
   13.56388950   99.84429932    1.39999998    2.40000010
   13.56694412  106.46499634    1.39999998    2.40000010
   13.57027817  104.73999786    1.39999998    2.39000010
   13.57361126  113.15899658    1.38000000    2.40000010
   13.57638836  103.58100128    1.38000000    2.40000010
   13.57722187  108.04100037    1.39999998    2.40000010
   13.58027744  107.96499634    1.38000000    2.40000010
   13.58361053  112.47599792    1.38000000    2.40000010
   13.58694458  108.55200195    1.38000000    2.40000010
   13.59000015  105.00700378    1.38000000    2.39000010
   13.59611034  105.00700378    1.38000000    2.40000010
   13.60027790  104.74800110    1.38000000    2.40000010
   13.78888893   -1.00000000   -1.00000000   -1.00000000
   13.85555553  118.41799927    1.33000004    2.46000004
   13.85888958  119.62699890    1.33000004    2.46000004
   13.86222267  112.40100098    1.33000004    2.46000004
   13.86527824  119.46800232    1.33000004    2.46000004
   13.86861134  114.62599945    1.33000004    2.46000004
   13.87194443  125.77600098    1.33000004    2.46000004
   13.87611103  125.77600098    1.33000004    2.46000004
   13.88027763  130.26199341    1.33000004    2.46000004
   13.88361073  131.57099915    1.33000004    2.46000004
   13.88666630  137.72200012    1.33000004    2.46000004
   13.88888836  140.24099731    1.33000004    2.46000004
   13.89055538  122.89600372    1.33000004    2.46000004
   13.89388847  125.78299713    1.33000004    2.46000004
   13.89722252  122.26899719    1.33000004    2.48000002
   13.90027714  128.96899414    1.33000004    2.48000002
   13.90361118  115.52100372    1.33000004    2.46000004
   13.90666676  112.36599731    1.33000004    2.46000004
   13.90999985  130.89700317    1.34000003    2.46000004
   13.91333294  122.54499817    1.34000003    2.46000004
   13.91888905  122.54499817    1.34000003    2.46000004
   13.92305565  120.06400299    1.36000001    2.48000002
   13.92611122  119.34300232    1.34000003    2.46000004
   13.92944431  132.35800171    1.34000003    2.46000004
   13.93249989  100.26499939    1.34000003    2.46000004
   13.93583298  111.55400085    1.34000003    2.46000004
   13.93916702  114.11000061    1.34000003    2.46000004
   13.94222260  112.64099884    1.34000003    2.46000004
   13.94555569  117.15000153    1.34000003    2.48000002
   13.94888878  102.83300018    1.34000003    2.46000004
   13.95194435  126.63500214    1.34000003    2.46000004
   13.95527744  115.55599976    1.34000003    2.48000002
   13.95583344  122.11699677    1.34000003    2.48000002
   13.96166611  122.11699677    1.34000003    2.48000002
   13.96583271  127.54799652    1.34000003    2.48000002
   13.96916580  118.07900238    1.34000003    2.48000002
   13.97222137  119.03399658    1.34000003    2.48000002
   13.97555542  122.38300323    1.34000003    2.48000002
   13.97888851  125.51399994    1.34000003    2.48000002
   13.98194408  124.20200348    1.34000003    2.46000004
   13.98527813  117.43599701    1.34000003    2.46000004
   13.98833370  116.92199707    1.34000003    2.46000004
   13.98916721  124.68900299    1.34000003    2.46000004
   13.99222279  122.31900024    1.34000003    2.48000002
   13.99527836  121.93599701    1.34000003    2.48000002
   13.99861145  113.52300262    1.34000003    2.46000004
   14.00444412  113.52300262    1.33000004    2.48000002
   14.00861073  108.84600067    1.34000003    2.50000000
   14.01194477  116.09200287    1.34000003    2.48000002
   14.01500034  122.64099884    1.34000003    2.48000002
   14.01833344  120.10700226    1.34000003    2.46000004
   14.02166653  124.63999939    1.34000003    2.48000002
   14.02250004  101.46800232    1.34000003    2.48000002
   14.02527714  125.72799683    1.34000003    2.48000002
   14.02833271  120.22399902    1.34000003    2.48000002
   14.03166676  118.75599670    1.34000003    2.48000002
   14.03472233  113.38999939    1.34000003    2.48000002
   14.03805637  116.02100372    1.34000003    2.48000002
   14.04138947  116.44300079    1.34000003    2.48000002
   14.04750061  116.44300079    1.34000003    2.48000002
   14.05138874  116.57199860    1.34000003    2.48000002
   14.05472279  135.56500244    1.34000003    2.48000002
   14.05583382  116.16000366    1.34000003    2.48000002
   14.05833340  113.40000153    1.34000003    2.48000002
   14.06166649  124.92500305    1.34000003    2.48000002
   14.06500053  119.87599945    1.34000003    2.48000002
   14.06805515  116.04699707    1.34000003    2.48000002
   14.07138920  123.79299927    1.36000001    2.48000002
   14.07472229  124.82499695    1.34000003    2.50000000
   14.07777786  117.41600037    1.36000001    2.48000002
   14.08111095  119.69499969    1.36000001    2.48000002
   14.08444405  126.71099854    1.36000001    2.48000002
   14.09027767  126.71099854    1.36000001    2.48000002
   14.09444427  120.83200073    1.36000001    2.48000002
   14.09749985  117.46399689    1.36000001    2.50000000
   14.10083389  113.88999939    1.36000001    2.48000002
   14.10388947  123.67500305    1.38000000    2.48000002
   14.10722256  115.88600159    1.38000000    2.48000002
   14.11055565  117.78700256    1.38000000    2.48000002
   14.11361122  125.31500244    1.38000000    2.48000002
   14.11694431  115.43299866    1.38000000    2.50000000
   14.12027836  130.52799988    1.38000000    2.48000002
   14.12250042  121.52200317    1.38000000    2.48000002
   14.12361145  114.12200165    1.38000000    2.48000002
   14.12694454  121.34600067    1.38000000    2.48000002
   14.13305569  121.34600067    1.39999998    2.48000002
   14.13722229  124.59400177    1.38000000    2.48000002
   14.14027786  129.14500427    1.38000000    2.48000002
   14.14361095  129.12500000    1.38000000    2.48000002
   14.14694405  121.34400177    1.38000000    2.50000000
   14.14999962  125.44000244    1.38000000    2.48000002
   14.15333271  132.90100098    1.38000000    2.48000002
   14.15583324  124.02400208    1.39999998    2.48000002
   14.15694427  124.61799622    1.39999998    2.48000002
   14.16027737  129.28399658    1.38000000    2.50000000
   14.16361046  126.18399811    1.39999998    2.48000002
   14.16666698  124.41000366    1.38000000    2.50000000
   14.17000008  104.18199921    1.38000000    2.48000002
   14.17583370  104.18199921    1.39999998    2.50000000
   14.18000031  116.98400116    1.38000000    2.50000000
   14.18333340  120.98600006    1.39999998    2.48000002
   14.18638897  124.03299713    1.39999998    2.48000002
   14.18916702  119.37799835    1.38000000    2.50000000
   14.19000053  119.41400146    1.38000000    2.50000000
   14.19333363  122.01399994    1.39999998    2.50000000
   14.19666672  122.51599884    1.39999998    2.50000000
   14.19972229  113.52500153    1.39999998    2.50000000
   14.20305538  120.26399994    1.39999998    2.50000000
   14.20638847  114.82800293    1.39999998    2.48000002
   14.20944405  120.41999817    1.39999998    2.50000000
   14.21277714  114.40200043    1.41999996    2.50000000
   14.21861076  114.40200043    1.39999998    2.50000000
   14.22277737  104.90100098    1.41999996    2.50000000
   14.22611046  120.00900269    1.41999996    2.51999998
   14.22944355  126.75099945    1.41999996    2.51999998
   14.23249912  127.81800079    1.41999996    2.50000000
   14.23583317  118.34500122    1.41999996    2.51999998
   14.23888874  106.94499969    1.41999996    2.50000000
   14.24222279  131.96800232    1.41999996    2.50000000
   14.24555588  118.99900055    1.41999996    2.50000000
   14.24861145  134.15199280    1.39999998    2.50000000
   14.25194454  136.35600281    1.41999996    2.50000000
   14.25527763  128.84899902    1.39999998    2.50000000
   14.25583363  138.61900330    1.39999998    2.50000000
   14.26166630  138.61900330    1.39999998    2.50000000
   14.26583290  118.84899902    1.39999998    2.50000000
   14.26888847  119.93699646    1.39999998    2.50000000
   14.27222157  130.96299744    1.39999998    2.51999998
   14.27527714  127.36799622    1.41999996    2.51999998
   14.27861118  106.83799744    1.39999998    2.50000000
   14.28194427  119.53600311    1.39999998    2.50000000
   14.28527832  133.19000244    1.39999998    2.50000000
   14.28833389  128.74000549    1.39999998    2.50000000
   14.28916740  125.58000183    1.39999998    2.50000000
   14.29222298  132.42399597    1.39999998    2.50000000
   14.29527855  125.28500366    1.41999996    2.50000000
   14.29861164  120.90699768    1.41999996    2.50000000
   14.30444431  120.90699768    1.41999996    2.50000000
   14.30861092  121.07700348    1.41999996    2.50000000
   14.31166649  126.98699951    1.41999996    2.50000000
   14.31500053  125.16200256    1.41999996    2.50000000
   14.31833363  126.40799713    1.41999996    2.50000000
   14.32138920  126.47599792    1.41999996    2.50000000
   14.32250023  126.43399811    1.41999996    2.50000000
   14.32527733  128.75500488    1.41999996    2.50000000
   14.32833290  125.61000061    1.41999996    2.50000000
   14.33166695  120.74099731    1.41999996    2.48000002
   14.33472157  127.50099945    1.41999996    2.51999998
   14.33805561  122.88800049    1.41999996    2.50000000
   14.34138870  132.38499451    1.41999996    2.50000000
   14.34722233  132.38499451    1.41999996    2.50000000
   14.35138893  121.72799683    1.41999996    2.50000000
   14.35472298  113.07700348    1.41999996    2.50000000
   14.35583401  104.86499786    1.41999996    2.50000000
   14.35833359  107.85900116    1.41999996    2.50000000
   14.36138916  125.02600098    1.41999996    2.51999998
   14.36472225  121.95999908    1.41999996    2.50000000
   14.36805534  116.79799652    1.41999996    2.50000000
   14.37111092  115.85700226    1.41999996    2.51999998
   14.37444496  125.22299957    1.41999996    2.51999998
   14.37750053  117.53500366    1.41999996    2.50000000
   14.38083363  119.37599945    1.41999996    2.51999998
   14.38416672  120.15799713    1.41999996    2.50000000
   14.39027786  120.15799713    1.41999996    2.50000000
   14.39416695  118.01399994    1.41999996    2.51999998
   14.39750004  116.62100220    1.41999996    2.51999998
   14.40083313  126.35600281    1.41999996    2.51999998
   14.40388870  125.24500275    1.44000006    2.51999998
   14.40722179  114.37699890    1.41999996    2.51999998
   14.41027737  113.70700073    1.41999996    2.51999998
   14.41361046  121.15799713    1.41999996    2.50000000
   14.41694450  113.97100067    1.44000006    2.50000000
   14.42000008  110.69899750    1.44000006    2.51999998
   14.42250061  113.71099854    1.44000006    2.51999998
   14.42388916  120.55799866    1.44000006    2.51999998
   14.42694473  111.12100220    1.44000006    2.50000000
   14.43305588  111.12100220    1.44000006    2.51999998
   14.43722248  114.44699860    1.44000006    2.51999998
   14.44027805  117.84300232    1.44000006    2.51999998
   14.44361115  119.15000153    1.44000006    2.51999998
   14.44666672  118.81700134    1.44000006    2.51999998
   14.44999981  108.31099701    1.44000006    2.51999998
   14.45333290  112.55699921    1.44000006    2.50000000
   14.45583344  116.74800110    1.44000006    2.50000000
   14.45694447  111.87899780    1.44000006    2.50000000
   14.46000004  119.98500061    1.44000006    2.50000000
   14.46333313  120.97399902    1.44000006    2.50000000
   14.46666622  113.95700073    1.44000006    2.50000000
   14.46972179  115.13800049    1.44000006    2.51999998
   14.47583294  115.13800049    1.44000006    2.51999998
   14.47999954  109.97799683    1.44000006    2.51999998
   14.48305511  116.89099884    1.44000006    2.51999998
   14.48638916  121.21600342    1.44000006    2.50000000
   14.48916721  123.49900055    1.44000006    2.51999998
   14.49027824  120.11399841    1.44000006    2.51999998
   14.49333382  117.83499908    1.46000004    2.51999998
   14.49666691  120.84300232    1.44000006    2.51999998
   14.49972248  121.95300293    1.44000006    2.51999998
   14.50333309  145.86199951    1.46000004    2.51999998
   14.50638866  121.23200226    1.46000004    2.51999998
   14.50972176  115.55300140    1.44000006    2.51999998
   14.51277733  124.67099762    1.44000006    2.51999998
   14.51861095  124.67099762    1.46000004    2.51999998
   14.52277756  114.42900085    1.44000006    2.51999998
   14.52611065  128.36000061    1.44000006    2.51999998
   14.52916622  104.40499878    1.44000006    2.51999998
   14.53249931  117.23000336    1.44000006    2.51999998
   14.53583336  124.65399933    1.44000006    2.51999998
   14.53888893  112.19300079    1.44000006    2.51999998
   14.54222298  120.33799744    1.44000006    2.51999998
   14.54527855  115.11199951    1.44000006    2.51999998
   14.54861164  116.93699646    1.46000004    2.50000000
   14.55194473  121.27899933    1.44000006    2.51999998
   14.55500031  111.93099976    1.44000006    2.51999998
   14.55583382  112.60199738    1.44000006    2.51999998
   14.56138897  112.60199738    1.46000004    2.51999998
   14.56555557  128.73199463    1.46000004    2.51999998
   14.56888866  117.88899994    1.44000006    2.51999998
   14.57222176  127.47100067    1.44000006    2.51999998
   14.57527733  116.00499725    1.46000004    2.51999998
   14.57861137  113.38999939    1.44000006    2.51999998
   14.58194447  110.43800354    1.44000006    2.51999998
   14.58500004  118.70800018    1.46000004    2.51999998
   14.58833313  116.05000305    1.46000004    2.53999996
   14.58916664  119.15299988    1.46000004    2.51999998
   14.59194374  111.56900024    1.46000004    2.51999998
   14.59499931  117.41400146    1.46000004    2.51999998
   14.59833336  119.10700226    1.46000004    2.51999998
   14.60444450  119.10700226    1.46000004    2.51999998
   14.60861111  106.85500336    1.46000004    2.53999996
   14.61166668  113.39900208    1.46000004    2.51999998
   14.61500072  113.82800293    1.46000004    2.53999996
   14.61833382  117.15299988    1.44000006    2.51999998
   14.62138939  118.86599731    1.44000006    2.51999998
   14.62250042  116.09999847    1.44000006    2.51999998
   14.62527752  123.07800293    1.44000006    2.51999998
   14.62833309  120.83699799    1.44000006    2.51999998
   14.63166714  119.41699982    1.44000006    2.53999996
   14.63500023  116.97699738    1.46000004    2.53999996
   14.63805580  108.43399811    1.46000004    2.53999996
   14.64138889  116.45700073    1.44000006    2.53999996
   14.64722252  116.45700073    1.44000006    2.53999996
   14.65138817  124.14399719    1.41999996    2.51999998
   14.65444374  123.29100037    1.41999996    2.51999998
   14.65583324  123.98400116    1.41999996    2.53999996
   14.65833282  118.78700256    1.41999996    2.53999996
   14.66138840  116.26399994    1.41999996    2.53999996
   14.66472149  128.69700623    1.41999996    2.53999996
   14.66805553  128.46099854    1.41999996    2.53999996
   14.67111111  120.53099823    1.41999996    2.53999996
   14.67444515  118.66899872    1.41999996    2.55999994
   14.67777824  114.22100067    1.41999996    2.53999996
   14.68083382  108.80500031    1.41999996    2.53999996
   14.68416691  126.98400116    1.41999996    2.53999996
   14.69000053  126.98400116    1.41999996    2.51999998
   14.69416714  112.42900085    1.41999996    2.53999996
   14.69750023  100.73000336    1.41999996    2.53999996
   14.70055580  116.98200226    1.41999996    2.53999996
   14.70388889  118.48600006    1.41999996    2.53999996
   14.70722198  119.62000275    1.41999996    2.53999996
   14.71027756  112.20300293    1.41999996    2.55999994
   14.71361065  115.87899780    1.41999996    2.55999994
   14.71666622  117.33799744    1.41999996    2.53999996
   14.71999931  108.58899689    1.41999996    2.53999996
   14.72249985  114.80100250    1.41999996    2.53999996
   14.72361088  110.79399872    1.41999996    2.53999996
   14.72666645  113.16000366    1.41999996    2.53999996
   14.73305511  113.16000366    1.41999996    2.53999996
   14.73694515  112.18499756    1.41999996    2.53999996
   14.74055576  115.42700195    1.41999996    2.53999996
   14.74361134  121.83899689    1.41999996    2.53999996
   14.74694443  118.68900299    1.41999996    2.53999996
   14.75027752  107.70400238    1.41999996    2.51999998
   14.75333309  114.43499756    1.41999996    2.55999994
   14.75583363  110.02700043    1.41999996    2.55999994
   14.75722218  111.87500000    1.41999996    2.53999996
   14.76027775  109.40799713    1.41999996    2.53999996
   14.76361084  119.03700256    1.41999996    2.53999996
   14.76694393  114.69499969    1.44000006    2.53999996
   14.76999950  104.02999878    1.41999996    2.53999996
   14.77583313  104.02999878    1.41999996    2.53999996
   14.77999973  113.60099792    1.41999996    2.53999996
   14.78305531  108.37000275    1.41999996    2.53999996
   14.78638935  113.87799835    1.41999996    2.53999996
   14.78916740  108.86199951    1.39999998    2.53999996
   14.79000092  112.52200317    1.39999998    2.53999996
   14.79305553  108.98100281    1.39999998    2.55999994
   14.79638958  110.27700043    1.39999998    2.53999996
   14.79972267  115.06800079    1.41999996    2.53999996
   14.80277824  109.64099884    1.39999998    2.53999996
   14.80611134  111.69300079    1.39999998    2.55999994
   14.80916691  110.35399628    1.39999998    2.53999996
   14.81250000  105.70999908    1.38000000    2.55999994
   14.81861115  105.70999908    1.39999998    2.55999994
   14.82277775  111.84899902    1.38000000    2.55999994
   14.82583332  118.69599915    1.38000000    2.53999996
   14.82916641  111.53299713    1.38000000    2.53999996
   14.83249950  105.36399841    1.38000000    2.53999996
   14.83555508  111.84400177    1.38000000    2.53999996
   14.83888817  105.08999634    1.38000000    2.53999996
   14.84222221  108.81700134    1.38000000    2.53999996
   14.84527779  114.91799927    1.36000001    2.53999996
   14.84861088  113.21700287    1.36000001    2.53999996
   14.85194492  106.15899658    1.36000001    2.53999996
   14.85500050  118.30899811    1.34000003    2.55999994
   14.85583401  112.97100067    1.36000001    2.55999994
   14.87666702  112.97100067    1.33000004    2.55999994
   14.88083363  105.38800049    1.33000004    2.55999994
   14.88388920  113.17600250    1.30999994    2.55999994
   14.88722229  110.87000275    1.30999994    2.55999994
   14.88916683  121.71399689    1.30999994    2.55999994
   14.89083290  115.89600372    1.30999994    2.55999994
   14.89388847  109.73000336    1.30999994    2.57999992
   14.89722252  116.09200287    1.30999994    2.55999994
   14.90055561  115.49600220    1.28999996    2.55999994
   14.90361118  110.42199707    1.28999996    2.55999994
   14.90694427   96.32450104    1.28999996    2.55999994
   14.91027737  111.86799622    1.26999998    2.55999994
   14.91333294  107.02700043    1.26999998    2.57999992
   14.91944504  107.02700043    1.26999998    2.57999992
   14.92361164  112.51599884    1.26999998    2.57999992
   14.92666721  107.85299683    1.25000000    2.57999992
   14.93000031  115.35900116    1.25000000    2.57999992
   14.93305588  105.48200226    1.25000000    2.57999992
   14.93638897  106.77400208    1.25000000    2.55999994
   14.93972206  104.39199829    1.23000002    2.57999992
   14.94277763  110.42099762    1.25000000    2.55999994
   14.94611073  113.26399994    1.23000002    2.57999992
   14.94944477  107.73999786    1.23000002    2.57999992
   14.95249939  107.85900116    1.23000002    2.57999992
   14.95583344  109.16200256    1.21000004    2.57999992
   14.95638847  109.39099884    1.21000004    2.57999992
   14.96222210  109.39099884    1.21000004    2.57999992
   14.96638870  111.86900330    1.21000004    2.57999992
   14.96944427  115.20700073    1.21000004    2.57999992
   14.97277737  116.32399750    1.19000006    2.57999992
   14.97611046  113.43399811    1.19000006    2.57999992
   14.97916603  110.08200073    1.19000006    2.57999992
   14.98249912  102.47899628    1.19000006    2.57999992
   14.98555565  109.74600220    1.19000006    2.57999992
   14.98888874  105.50099945    1.16999996    2.57999992
   14.98972225  102.92900085    1.16999996    2.57999992
   14.99250031  112.45099640    1.16999996    2.59999990
   14.99583340  108.14199829    1.16999996    2.57999992
   14.99916649  111.46299744    1.14999998    2.59999990
   15.00500011  111.46299744    1.13000000    2.59999990
   15.00916672  106.66899872    1.13000000    2.57999992
   15.01249981  106.15899658    1.14999998    2.57999992
   15.01555538  110.80400085    1.13000000    2.59999990
   15.01888847  120.40899658    1.13000000    2.59999990
   15.02194405  113.13300323    1.13000000    2.59999990
   15.02305508  114.78800201    1.13000000    2.59999990
   15.02555561  114.18900299    1.13000000    2.59999990
   15.02888870  119.01699829    1.11000001    2.57999992
   15.03222179  112.67800140    1.11000001    2.59999990
   15.03555584  121.19999695    1.11000001    2.59999990
   15.03861141  127.17500305    1.11000001    2.59999990
   15.04194450  117.99199677    1.11000001    2.59999990
   15.04777813  117.99199677    1.09000003    2.59999990
   15.05194473  115.72200012    1.09000003    2.57999992
   15.05527782  118.04299927    1.11000001    2.59999990
   15.05638885  117.75199890    1.11000001    2.59999990
   15.05861092  128.56599426    1.09000003    2.59999990
   15.06194496  117.61000061    1.11000001    2.59999990
   15.06527805  114.88800049    1.11000001    2.59999990
   15.16388893   -1.00000000   -1.00000000   -1.00000000
   15.28694534   -1.00000000   -1.00000000   -1.00000000
   15.42194462   -1.00000000   -1.00000000   -1.00000000
   15.45222187   84.20559692    1.30999994    2.59999990
   15.45527744  116.46199799    1.28999996    2.59999990
   15.45861053  113.20700073    1.26999998    2.59999990
   15.46194458  112.36499786    1.25000000    2.59999990
   15.46527767  114.95300293    1.25000000    2.59999990
   15.46833324  118.05200195    1.30999994    2.59999990
   15.47249985  118.05200195    1.33000004    2.59999990
   15.47666645  115.31099701    1.38000000    2.59999990
   15.47999954  114.83699799    1.38000000    2.59999990
   15.48305511  115.21499634    1.39999998    2.59999990
   15.48555565  115.76599884    1.39999998    2.59999990
   15.48666668  108.99600220    1.36000001    2.59999990
   15.49000072  118.70600128    1.30999994    2.61999989
   15.49333382  113.85299683    1.28999996    2.59999990
   15.49638939  112.45400238    1.30999994    2.61999989
   15.49972248  115.08100128    1.30999994    2.59999990
   15.50305557  105.47200012    1.33000004    2.61999989
   15.50611115  116.43800354    1.33000004    2.59999990
   15.50944424  109.84400177    1.30999994    2.59999990
   15.51527786  109.84400177    1.30999994    2.59999990
   15.51944447  116.31199646    1.34000003    2.59999990
   15.52277756  116.01899719    1.34000003    2.61999989
   15.52583313  107.69699860    1.33000004    2.59999990
   15.52916622  111.26799774    1.34000003    2.59999990
   15.53249931  103.44200134    1.30999994    2.59999990
   15.53555584  112.59200287    1.25000000    2.59999990
   15.53888893  106.54799652    1.25000000    2.59999990
   15.54222298  109.76300049    1.33000004    2.59999990
   15.54527855  113.68399811    1.26999998    2.59999990
   15.54861164  108.60900116    1.26999998    2.59999990
   15.55194473  109.27700043    1.28999996    2.59999990
   15.55222225  114.53900146    1.28999996    2.59999990
   15.55833340  114.53900146    1.26999998    2.59999990
   15.56222248  105.62100220    1.28999996    2.59999990
   15.56555557  110.57599640    1.30999994    2.59999990
   15.56888866  115.10900116    1.30999994    2.59999990
   15.57194424  118.62300110    1.30999994    2.59999990
   15.57527733  118.57099915    1.30999994    2.59999990
   15.57861137  114.73400116    1.34000003    2.59999990
   15.58166695  113.77400208    1.36000001    2.59999990
   15.58500004  105.65799713    1.38000000    2.59999990
   15.58555508  125.72000122    1.39999998    2.59999990
   15.58861065  117.03399658    1.36000001    2.59999990
   15.59194374  115.76000214    1.34000003    2.59999990
   15.59499931  115.28299713    1.34000003    2.59999990
   15.60111141  115.28299713    1.34000003    2.59999990
   15.60527802  104.66500092    1.34000003    2.59999990
   15.60833359  121.34300232    1.39999998    2.59999990
   15.61166668  121.53900146    1.41999996    2.59999990
   15.61500072  118.18299866    1.44000006    2.59999990
   15.61805534  108.54799652    1.48000002    2.59999990
   15.61888885  108.51499939    1.48000002    2.59999990
   15.62166691  103.22399902    1.44000006    2.59999990
   15.62500000  114.31199646    1.44000006    2.59999990
   15.62805557  130.61300659    1.44000006    2.59999990
   15.63138866  112.56500244    1.39999998    2.59999990
   15.63472176  109.43299866    1.39999998    2.59999990
   15.63777733  100.92600250    1.38000000    2.59999990
   15.64388847  100.92600250    1.36000001    2.59999990
   15.64805508  103.51399994    1.36000001    2.59999990
   15.65138817  114.33499908    1.36000001    2.59999990
   15.65249920  104.46199799    1.38000000    2.59999990
   15.65472221  112.10199738    1.38000000    2.59999990
   15.65805531  107.64199829    1.38000000    2.59999990
   15.66138840  106.29399872    1.39999998    2.59999990
   15.66444397  107.41100311    1.39999998    2.59999990
   15.66777802  112.16100311    1.39999998    2.59999990
   15.67083359  107.29699707    1.39999998    2.59999990
   15.67416668  104.32399750    1.39999998    2.59999990
   15.67750072  111.95300293    1.41999996    2.61999989
   15.68055630  110.82800293    1.39999998    2.59999990
   15.68666649  110.82800293    1.39999998    2.59999990
   15.69083309  111.75099945    1.41999996    2.59999990
   15.69416714  111.16999817    1.41999996    2.59999990
   15.69722271  113.38099670    1.39999998    2.59999990
   15.70055580  104.58799744    1.38000000    2.59999990
   15.70388889  113.02700043    1.50000000    2.59999990
   15.70694447  114.66400146    1.44000006    2.59999990
   15.71027756  105.90399933    1.41999996    2.59999990
   15.71361065   99.94550323    1.44000006    2.59999990
   15.71666622  108.27400208    1.44000006    2.59999990
   15.71916580  105.35199738    1.46000004    2.59999990
   15.72027779  110.99700165    1.46000004    2.59999990
   15.72361088  111.53800201    1.50000000    2.59999990
   15.72972202  111.53800201    1.50000000    2.59999990
   15.73361111  107.82499695    1.55999994    2.59999990
   15.73694515  108.67400360    1.53999996    2.59999990
   15.74027824  107.95500183    1.55999994    2.59999990
   15.74333382  110.19100189    1.51999998    2.59999990
   15.74666691  103.58399963    1.51999998    2.59999990
   15.75000000  120.94999695    1.50000000    2.59999990
   15.75249958  115.55300140    1.46000004    2.59999990
   15.75333309  119.48899841    1.46000004    2.59999990
   15.75666714  110.39199829    1.39999998    2.59999990
   15.76000023  110.10500336    1.39999998    2.59999990
   15.76305580  112.84300232    1.39999998    2.59999990
   15.76638889  110.06099701    1.38000000    2.59999990
   15.77250004  110.06099701    1.41999996    2.59999990
   15.77666664  118.64499664    1.41999996    2.59999990
   15.77972221  109.27300262    1.44000006    2.59999990
   15.78305531  111.53600311    1.39999998    2.59999990
   15.78583336  110.66699982    1.41999996    2.59999990
   15.78666687  105.60800171    1.41999996    2.59999990
   15.79000092  110.43699646    1.41999996    2.59999990
   15.79333401  107.47200012    1.41999996    2.59999990
   15.79638958  107.19400024    1.39999998    2.59999990
   15.79972267  117.89700317    1.39999998    2.59999990
   15.80277824  111.70600128    1.38000000    2.59999990
   15.80611134  106.46499634    1.38000000    2.59999990
   15.80944443  113.82900238    1.38000000    2.59999990
   15.81527805  113.82900238    1.41999996    2.59999990
   15.81944466  103.62100220    1.41999996    2.59999990
   15.82277775  107.97299957    1.41999996    2.59999990
   15.82583332  106.58499908    1.41999996    2.59999990
   15.82916641  111.47100067    1.44000006    2.59999990
   15.83249950  121.50700378    1.44000006    2.59999990
   15.83555508   97.23130035    1.44000006    2.59999990
   15.83888817  108.25000000    1.46000004    2.59999990
   15.84194374  111.68099976    1.46000004    2.59999990
   15.84527779  110.37699890    1.46000004    2.59999990
   15.84861088  104.93000031    1.41999996    2.59999990
   15.85166740  109.87999725    1.41999996    2.59999990
   15.85249996  110.93800354    1.41999996    2.59999990
   15.85805607  110.93800354    1.44000006    2.59999990
   15.86222267  116.59100342    1.44000006    2.59999990
   15.86555576  110.13500214    1.44000006    2.59999990
   15.86861134  116.05500031    1.41999996    2.59999990
   15.87194443  104.93199921    1.44000006    2.59999990
   15.87527752  123.82800293    1.41999996    2.59999990
   15.87833309  124.09999847    1.41999996    2.61999989
   15.88166714  111.55699921    1.41999996    2.61999989
   15.88500023  119.05899811    1.38000000    2.59999990
   15.88583279  126.10399628    1.38000000    2.59999990
   15.88833332  114.09700012    1.36000001    2.61999989
   15.89166641  125.05599976    1.36000001    2.59999990
   15.89499950  127.25499725    1.36000001    2.59999990
   15.90083313  127.25499725    1.36000001    2.59999990
   15.90499973  117.99800110    1.36000001    2.59999990
   15.90833282  114.77200317    1.36000001    2.59999990
   15.91166592  114.89800262    1.38000000    2.59999990
   15.91472149  126.53099823    1.39999998    2.57999992
   15.91805553  124.53700256    1.38000000    2.57999992
   15.91916656  120.61199951    1.38000000    2.57999992
   15.92166710  119.97299957    1.38000000    2.59999990
   15.92500019  118.54499817    1.38000000    2.59999990
   15.92833328  116.57399750    1.36000001    2.59999990
   15.93138885  116.00800323    1.34000003    2.57999992
   15.93472195  103.50199890    1.34000003    2.59999990
   15.93777752  105.81800079    1.34000003    2.59999990
   15.94388866  105.81800079    1.34000003    2.59999990
   15.94805527  126.09400177    1.34000003    2.61999989
   15.95111084  126.65100098    1.34000003    2.59999990
   15.95249939  100.05899811    1.34000003    2.59999990
   15.95472240  116.30699921    1.34000003    2.59999990
   15.95805550  117.70600128    1.36000001    2.59999990
   15.96138859  114.27899933    1.36000001    2.59999990
   15.96444416  118.42600250    1.34000003    2.59999990
   15.96777725  116.47100067    1.34000003    2.61999989
   15.97111034  114.21499634    1.34000003    2.59999990
   15.97416592  123.42800140    1.36000001    2.59999990
   15.97749996  118.64199829    1.34000003    2.61999989
   15.98083305  111.80999756    1.34000003    2.61999989
   15.98666668  111.80999756    1.34000003    2.61999989
   15.99083328  119.85700226    1.34000003    2.61999989
   15.99416733  106.46600342    1.34000003    2.59999990
   15.99722290  107.34200287    1.34000003    2.59999990
   16.00055504  115.47299957    1.34000003    2.59999990
   16.00361061  110.57099915    1.34000003    2.59999990
   16.00694466  105.92800140    1.34000003    2.59999990
   16.01027870  115.39299774    1.34000003    2.59999990
   16.01333427  113.44100189    1.34000003    2.61999989
   16.01666641  117.88999939    1.34000003    2.59999990
   16.01916695  117.22100067    1.34000003    2.59999990
   16.02027702  121.13999939    1.34000003    2.59999990
   16.02361107  120.48400116    1.34000003    2.59999990
   16.02944374  120.48400116    1.34000003    2.59999990
   16.03361130  114.74099731    1.34000003    2.61999989
   16.03694344  116.78900146    1.34000003    2.59999990
   16.03999901  116.88600159    1.33000004    2.59999990
   16.04333305  112.03199768    1.33000004    2.59999990
   16.04666710  117.92800140    1.33000004    2.59999990
   16.04972076  118.69300079    1.33000004    2.59999990
   16.05249977  116.89600372    1.33000004    2.59999990
   16.05333328  118.69999695    1.34000003    2.59999990
   16.05666542  117.46700287    1.34000003    2.59999990
   16.05999947  118.15200043    1.34000003    2.59999990
   16.06305504  120.06900024    1.34000003    2.59999990
   16.06638718  129.42500305    1.34000003    2.59999990
   16.07250023  129.42500305    1.36000001    2.59999990
   16.07638931  117.56400299    1.36000001    2.61999989
   16.07972336  111.79399872    1.34000003    2.59999990
   16.08305550  114.31500244    1.34000003    2.61999989
   16.08583450  103.42299652    1.34000003    2.59999990
   16.08638954  115.62500000    1.36000001    2.59999990
   16.08972359  116.59600067    1.36000001    2.59999990
   16.09305573  113.86599731    1.34000003    2.59999990
   16.09611130  112.39299774    1.34000003    2.59999990
   16.09944534  113.87899780    1.34000003    2.59999990
   16.10277748  109.11299896    1.34000003    2.59999990
   16.10583305  118.68299866    1.34000003    2.59999990
   16.10916710  114.63999939    1.33000004    2.61999989
   16.11527824  114.63999939    1.33000004    2.61999989
   16.11944389  108.97000122    1.33000004    2.61999989
   16.12249947  116.58699799    1.33000004    2.59999990
   16.12583351  111.76499939    1.33000004    2.61999989
   16.12888908  118.02300262    1.33000004    2.61999989
   16.13222313  109.84400177    1.33000004    2.59999990
   16.13555527  111.18299866    1.33000004    2.64000010
   16.13861084  124.22100067    1.33000004    2.61999989
   16.14194489  116.48500061    1.30999994    2.59999990
   16.14527702  128.22399902    1.30999994    2.61999989
   16.14833260  124.02300262    1.30999994    2.61999989
   16.15166664  111.97200012    1.30999994    2.61999989
   16.15250015  108.31500244    1.30999994    2.59999990
   16.15805435  108.31500244    1.30999994    2.59999990
   16.16222191  108.25900269    1.33000004    2.61999989
   16.16527748  110.18599701    1.30999994    2.61999989
   16.16860962  101.71800232    1.33000004    2.61999989
   16.17194366  116.65799713    1.33000004    2.61999989
   16.17499924  107.01499939    1.33000004    2.61999989
   16.17833328  113.71800232    1.33000004    2.59999990
   16.18166542  124.48600006    1.33000004    2.61999989
   16.18472099  108.59400177    1.33000004    2.61999989
   16.18583298  116.76999664    1.33000004    2.61999989
   16.18833160  120.97399902    1.34000003    2.61999989
   16.19166565  123.55999756    1.33000004    2.59999990
   16.19499969  114.17199707    1.33000004    2.61999989
   16.20083427  114.17199707    1.34000003    2.61999989
   16.20499992  106.43599701    1.33000004    2.61999989
   16.20833397  108.17600250    1.33000004    2.61999989
   16.21138954  108.36299896    1.33000004    2.59999990
   16.21472359  109.28900146    1.33000004    2.61999989
   16.21805573  112.34400177    1.33000004    2.61999989
   16.21916771  115.98699951    1.33000004    2.61999989
   16.22138977  116.93199921    1.33000004    2.59999990
   16.22472191  114.48500061    1.30999994    2.61999989
   16.22805595  110.44300079    1.33000004    2.61999989
   16.23111153  116.90499878    1.33000004    2.61999989
   16.23444557  116.82800293    1.33000004    2.61999989
   16.23777771  119.99099731    1.33000004    2.59999990
   16.24388885  119.99099731    1.30999994    2.64000010
   16.24777794  115.30300140    1.30999994    2.61999989
   16.25111198  114.48300171    1.30999994    2.64000010
   16.25250053  108.63899994    1.30999994    2.64000010
   16.25472260  116.19499969    1.30999994    2.61999989
   16.25805473  110.09500122    1.30999994    2.61999989
   16.26138878  113.48200226    1.30999994    2.61999989
   16.26444435  105.70899963    1.30999994    2.64000010
   16.26777840  107.69200134    1.28999996    2.59999990
   16.27111053  114.51699829    1.30999994    2.61999989
   16.27416611  100.58999634    1.30999994    2.61999989
   16.27750015  108.62300110    1.28999996    2.61999989
   16.28055573  103.89900208    1.28999996    2.61999989
   16.28666687  103.89900208    1.28999996    2.64000010
   16.29083252  114.11900330    1.26999998    2.64000010
   16.29388809  108.30500031    1.28999996    2.64000010
   16.29722214  110.16899872    1.26999998    2.64000010
   16.30027771  118.52200317    1.26999998    2.61999989
   16.30360985  109.95999908    1.26999998    2.61999989
   16.30694389  111.22200012    1.26999998    2.61999989
   16.31027794  103.18299866    1.26999998    2.61999989
   16.31333351  107.18299866    1.26999998    2.61999989
   16.31666756  111.59200287    1.26999998    2.61999989
   16.31916809  103.60399628    1.25000000    2.61999989
   16.32000160  120.80400085    1.25000000    2.61999989
   16.32333374  106.05400085    1.25000000    2.64000010
   16.32944489  106.05400085    1.23000002    2.61999989
   16.33361244  109.64700317    1.23000002    2.61999989
   16.33666801  113.44799805    1.23000002    2.61999989
   16.34000015  102.61199951    1.21000004    2.61999989
   16.34333420  107.67299652    1.21000004    2.61999989
   16.34638977  106.86900330    1.21000004    2.64000010
   16.34972191  107.66300201    1.21000004    2.64000010
   16.35250092  108.16400146    1.21000004    2.61999989
   16.35333443  106.65100098    1.21000004    2.64000010
   16.35666656  108.13300323    1.21000004    2.61999989
   16.36000061  107.06700134    1.21000004    2.64000010
   16.36305618  104.86399841    1.21000004    2.64000010
   16.36638832  108.39700317    1.21000004    2.61999989
   16.37222290  108.39700317    1.19000006    2.64000010
   16.37638855  104.95800018    1.19000006    2.64000010
   16.37972260  102.48400116    1.21000004    2.64000010
   16.38277817  106.30400085    1.19000006    2.61999989
   16.38583374  102.75299835    1.19000006    2.61999989
   16.38638878  100.85900116    1.19000006    2.61999989
   16.38972282  102.17500305    1.21000004    2.59999990
   16.39305496  105.10800171    1.19000006    2.64000010
   16.39611053  101.93699646    1.19000006    2.64000010
   16.39944458   98.60030365    1.19000006    2.64000010
   16.40277672  102.35399628    1.19000006    2.64000010
   16.40583229  105.30799866    1.19000006    2.64000010
   16.40916634   94.72260284    1.19000006    2.64000010
   16.41499901   94.72260284    1.16999996    2.61999989
   16.41916656  105.39800262    1.14999998    2.64000010
   16.42249870  109.08399963    1.14999998    2.64000010
   16.42583275  110.38300323    1.14999998    2.64000010
   16.42888832  112.28500366    1.14999998    2.64000010
   16.43222237  106.71199799    1.13000000    2.59999990
   16.43555450  110.49400330    1.13000000    2.64000010
   16.43861008  107.17800140    1.13000000    2.64000010
   16.44194412  111.58399963    1.13000000    2.64000010
   16.44499969  121.99700165    1.13000000    2.64000010
   16.44833183  121.27300262    1.11000001    2.64000010
   16.45166779  102.78399658    1.11000001    2.64000010
   16.45250130  110.88600159    1.11000001    2.64000010
   16.47305679  110.88600159    1.09000003    2.64000010
   16.47722244  113.10199738    1.09000003    2.61999989
   16.48055649  113.17299652    1.09000003    2.64000010
   16.48388863  112.79100037    1.07000005    2.61999989
   16.48583412  111.23899841    1.07000005    2.64000010
   16.48750114  124.03199768    1.07000005    2.64000010
   16.49055672  112.28500366    1.07000005    2.64000010
   16.49388885  108.85900116    1.05999994    2.66000009
   16.49694443  105.52400208    1.05999994    2.66000009
   16.50027847   95.02940369    1.05999994    2.64000010
   16.50361061  107.47499847    1.05999994    2.61999989
   16.50666618  113.46199799    1.03999996    2.66000009
   16.51000023  101.95400238    1.05999994    2.64000010
   16.51583290  101.95400238    1.03999996    2.64000010
   16.52000046  101.35500336    1.03999996    2.66000009
   16.52333260  109.58599854    1.03999996    2.64000010
   16.52666664  108.24500275    1.03999996    2.64000010
   16.52972221  108.92900085    1.03999996    2.64000010
   16.53305435  111.76399994    1.03999996    2.66000009
   16.53610992  111.58799744    1.03999996    2.64000010
   16.53944397  107.31700134    1.01999998    2.64000010
   16.54277802  112.77999878    1.01999998    2.64000010
   16.54583359  106.23200226    1.01999998    2.66000009
   16.54916573  106.28199768    1.01999998    2.64000010
   16.55249977  109.16500092    1.01999998    2.64000010
   16.55277634  111.07299805    1.01999998    2.64000010
   16.55888748  111.07299805    1.01999998    2.64000010
   16.56277657  101.77600098    1.00000000    2.64000010
   16.56611061  104.80300140    1.00000000    2.64000010
   16.56944466   98.37390137    1.00000000    2.64000010
   16.57250023  109.26100159    1.00000000    2.64000010
   16.57583427   96.49810028    1.00000000    2.64000010
   16.57888985   94.47429657    1.00000000    2.64000010
   16.58222389  101.40100098    1.00000000    2.66000009
   16.58555603  104.19799805    0.98000002    2.64000010
   16.58611107   98.59259796    0.98000002    2.64000010
   16.58916664  105.72799683    1.00000000    2.66000009
   16.59250069  105.72399902    0.98000002    2.64000010
   16.59555626   92.09809875    0.98000002    2.66000009
   16.60166740   92.09809875    0.98000002    2.66000009
   16.60583305  102.76300049    0.98000002    2.66000009
   16.60888863   90.88240051    0.98000002    2.64000010
   16.61222267  111.19400024    1.00000000    2.67000008
   16.61527824  107.07199860    1.00000000    2.64000010
   16.61861038  104.44100189    0.98000002    2.64000010
   16.61944389  107.73400116    0.98000002    2.66000009
   16.62222290  103.27500153    0.98000002    2.66000009
   16.62555504  102.95600128    0.98000002    2.66000009
   16.62861061   92.52809906    0.98000002    2.67000008
   16.63194466   94.21499634    1.00000000    2.66000009
   16.63527679  102.40399933    1.00000000    2.66000009
   16.63833237  110.05699921    0.98000002    2.64000010
   16.64444351  110.05699921    0.98000002    2.64000010
   16.64861107   96.23789978    0.98000002    2.66000009
   16.65194321   93.85829926    1.00000000    2.64000010
   16.65277672   97.03240204    1.00000000    2.64000010
   16.65527725   96.10729980    0.98000002    2.66000009
   16.65861130  102.22000122    1.00000000    2.64000010
   16.66166687  104.73999786    1.00000000    2.64000010
   16.66499901   90.50009918    0.98000002    2.64000010
   16.66833305   91.96769714    0.95999998    2.66000009
   16.67138863  107.02700043    0.95999998    2.64000010
   16.67472076   92.76830292    0.98000002    2.64000010
   16.67805481   97.31169891    0.95999998    2.64000010
   16.68111038  105.17400360    0.95999998    2.66000009
   16.68722153  105.17400360    0.95999998    2.66000009
   16.69138718  105.10700226    0.95999998    2.67000008
   16.69472122  101.27799988    0.95999998    2.66000009
   16.69777679   92.97029877    0.95999998    2.66000009
   16.70111275   97.34500122    0.95999998    2.64000010
   16.70444489  104.52899933    0.95999998    2.66000009
   16.70750046   98.45300293    0.95999998    2.64000010
   16.71083450   84.40509796    0.95999998    2.64000010
   16.71416664  105.01599884    0.95999998    2.64000010
   16.71722221   95.56880188    0.95999998    2.66000009
   16.71972275  107.99500275    0.95999998    2.66000009
   16.72083473  109.61799622    0.95999998    2.66000009
   16.72416687   94.72530365    0.95999998    2.66000009
   16.73027802   94.72530365    0.95999998    2.66000009
   16.73416710  104.32700348    0.98000002    2.66000009
   16.73750114  105.08000183    0.95999998    2.67000008
   16.74083328  108.04100037    0.98000002    2.66000009
   16.74388885  109.07599640    0.98000002    2.64000010
   16.74722290  110.22499847    0.95999998    2.66000009
   16.75055504  109.80599976    0.98000002    2.64000010
   16.75305557  108.35900116    0.98000002    2.66000009
   16.75388908   98.01640320    0.98000002    2.66000009
   16.75722313  106.13500214    0.98000002    2.66000009
   16.76027870  105.63600159    0.95999998    2.66000009
   16.76361084  108.25299835    0.98000002    2.64000010
   16.76694489  101.60399628    0.98000002    2.66000009
   16.77305603  101.60399628    0.95999998    2.64000010
   16.77722168  109.50000000    0.95999998    2.64000010
   16.78027725   98.24220276    0.95999998    2.66000009
   16.78361130   92.72669983    0.98000002    2.66000009
   16.78638840  109.55300140    0.98000002    2.66000009
   16.78722191   96.09040070    0.98000002    2.66000009
   16.79055595  109.03900146    0.98000002    2.64000010
   16.79388809  112.05000305    1.00000000    2.64000010
   16.79694366  110.15599823    0.98000002    2.64000010
   16.80027771  103.43299866    0.98000002    2.64000010
   16.80333328  112.16400146    0.98000002    2.64000010
   16.80666542   99.05110168    1.00000000    2.64000010
   16.80999947   98.44699860    1.00000000    2.64000010
   16.81583214   98.44699860    1.00000000    2.64000010
   16.82000160  128.33799744    1.00000000    2.64000010
   16.82305717  100.40200043    1.00000000    2.64000010
   16.82638931  130.24699402    1.00000000    2.64000010
   16.82972336  110.58100128    1.00000000    2.66000009
   16.83277893  103.98400116    1.00000000    2.64000010
   16.83611107  112.54199982    1.00000000    2.64000010
   16.83944511  121.74299622    0.98000002    2.66000009
   16.84250069  106.72699738    0.98000002    2.66000009
   16.84583473  105.50800323    0.98000002    2.64000010
   16.84889030  116.63099670    0.98000002    2.66000009
   16.85222244  124.96499634    0.98000002    2.64000010
   16.85305595  107.14600372    0.98000002    2.64000010
   16.85861206  107.14600372    0.98000002    2.64000010
   16.86277771  122.11199951    1.00000000    2.66000009
   16.86611176  109.60199738    1.00000000    2.66000009
   16.86944389  121.70800018    1.00000000    2.64000010
   16.87249947  110.61299896    0.98000002    2.64000010
   16.87583351  112.99900055    0.98000002    2.64000010
   16.87888908  115.94200134    1.00000000    2.64000010
   16.88222313  106.49900055    0.98000002    2.64000010
   16.88555527  106.17700195    0.98000002    2.64000010
   16.88638878  113.01399994    0.98000002    2.64000010
   16.88916588  112.28299713    0.98000002    2.64000010
   16.89249992  106.26000214    0.98000002    2.64000010
   16.89583397  117.46900177    1.00000000    2.66000009
   16.90166664  117.46900177    0.98000002    2.66000009
   16.90555573  115.81800079    1.00000000    2.64000010
   16.90888786  119.74500275    0.98000002    2.66000009
   16.91222191  133.00199890    0.98000002    2.64000010
   16.91527748  126.27999878    0.98000002    2.64000010
   16.91860962  123.14099884    1.00000000    2.64000010
   16.91972160  109.16600037    0.98000002    2.64000010
   16.92222214  119.67099762    0.98000002    2.64000010
   16.92555428  109.52300262    1.00000000    2.64000010
   16.92860985  108.54799652    1.00000000    2.64000010
   16.93194389  110.69300079    1.00000000    2.64000010
   16.93527603  110.05300140    1.00000000    2.64000010
   16.93833160  111.04399872    1.00000000    2.64000010
   16.94444275  111.04399872    1.00000000    2.64000010
   16.94861031  103.97799683    1.00000000    2.64000010
   16.95166779  106.54100037    1.00000000    2.64000010
   16.95305634  111.75700378    1.00000000    2.64000010
   16.95527840  115.98999786    1.00000000    2.66000009
   16.95861244  116.17800140    1.00000000    2.66000009
   16.96166801   98.09580231    1.00000000    2.66000009
   16.96500015  117.62899780    1.01999998    2.64000010
   16.96833420  112.66699982    1.00000000    2.66000009
   16.97138977  110.77400208    1.01999998    2.64000010
   16.97472191  113.25900269    1.00000000    2.66000009
   16.97805595   91.69969940    1.01999998    2.64000010
   16.98111153  109.73000336    1.00000000    2.64000010
   16.98722267  109.73000336    1.01999998    2.66000009
   16.99138832  110.35900116    1.00000000    2.64000010
   16.99472237  102.54299927    1.01999998    2.64000010
   16.99777794  112.01999664    1.00000000    2.64000010
   17.00111198   98.81980133    1.01999998    2.64000010
   17.00416756  104.32800293    1.00000000    2.64000010
   17.00749969  104.85900116    1.01999998    2.66000009
   17.01083374   98.57559967    1.01999998    2.66000009
   17.01388931   96.40470123    1.01999998    2.64000010
   17.01722145  101.61900330    1.01999998    2.64000010
   17.01972198  108.81300354    1.01999998    2.64000010
   17.02083397   98.80629730    1.01999998    2.64000010
   17.02416611   90.63220215    1.01999998    2.64000010
   17.03000069   90.63220215    1.01999998    2.67000008
   17.03416634   95.27159882    1.01999998    2.64000010
   17.03750038  108.63700104    1.01999998    2.64000010
   17.04055595  106.33699799    1.01999998    2.64000010
   17.04388809  114.25199890    1.01999998    2.64000010
   17.04722214   98.00890350    1.01999998    2.66000009
   17.05027771   97.06600189    1.01999998    2.64000010
   17.05305481   97.53540039    1.01999998    2.64000010
   17.05388832  101.05799866    1.01999998    2.64000010
   17.05722237  107.50299835    1.03999996    2.66000009
   17.06055450   99.55100250    1.01999998    2.66000009
   17.06361008  100.40599823    1.01999998    2.64000010
   17.06694603  103.23400116    1.01999998    2.64000010
   17.07305717  103.23400116    1.03999996    2.64000010
   17.07694626  100.19699860    1.03999996    2.64000010
   17.08027840  100.91000366    1.03999996    2.64000010
   17.08361244   93.63490295    1.03999996    2.64000010
   17.08638954  104.41600037    1.03999996    2.64000010
   17.08722305  107.70600128    1.03999996    2.64000010
   17.09055710   96.04850006    1.03999996    2.64000010
   17.09388924  108.48400116    1.03999996    2.64000010
   17.09694481  103.51399994    1.03999996    2.64000010
   17.10027885  103.80999756    1.03999996    2.66000009
   17.10361099   98.33910370    1.03999996    2.64000010
   17.10666656   97.86699677    1.03999996    2.64000010
   17.11000061  108.76799774    1.03999996    2.64000010
   17.11583328  108.76799774    1.03999996    2.66000009
   17.12000084  103.18599701    1.05999994    2.61999989
   17.12305641  103.06700134    1.05999994    2.61999989
   17.12638855  100.13800049    1.05999994    2.61999989
   17.12944412  115.64800262    1.03999996    2.64000010
   17.13277817  102.47799683    1.03999996    2.64000010
   17.13611031  126.51499939    1.03999996    2.64000010
   17.13916588   98.84390259    1.05999994    2.64000010
   17.14249992  122.13400269    1.03999996    2.64000010
   17.14583397  107.46299744    1.03999996    2.64000010
   17.14888954  117.41600037    1.03999996    2.64000010
   17.15222168  100.98000336    1.03999996    2.64000010
   17.15305519  100.02500153    1.05999994    2.64000010
   17.15861130  100.02500153    1.03999996    2.64000010
   17.16277695  109.75599670    1.03999996    2.64000010
   17.16611099   97.02390289    1.03999996    2.66000009
   17.16916656  112.34500122    1.05999994    2.64000010
   17.17249870  108.20400238    1.05999994    2.64000010
   17.17555428  100.50399780    1.05999994    2.61999989
   17.17888832  100.01499939    1.05999994    2.64000010
   17.18222237   90.71839905    1.05999994    2.66000009
   17.18527603  107.77300262    1.05999994    2.64000010
   17.18638802  117.58899689    1.05999994    2.64000010
   17.18888855  104.45400238    1.05999994    2.64000010
   17.19222069  108.37999725    1.05999994    2.64000010
   17.19555473  125.74700165    1.07000005    2.64000010
   17.20138931  125.74700165    1.07000005    2.64000010
   17.20555687  119.23600006    1.09000003    2.64000010
   17.20888901  100.41699982    1.09000003    2.64000010
   17.21194458   98.40650177    1.09000003    2.64000010
   17.21527863  113.77700043    1.09000003    2.64000010
   17.21861076  132.53900146    1.07000005    2.64000010
   17.21972275  120.00700378    1.07000005    2.64000010
   17.22194481  111.47100067    1.07000005    2.64000010
   17.22527885  107.32499695    1.07000005    2.64000010
   17.22861099  104.96900177    1.07000005    2.64000010
   17.23166656  109.73300171    1.07000005    2.64000010
   17.23500061  123.50599670    1.09000003    2.64000010
   17.23805618  122.09300232    1.07000005    2.64000010
   17.24416733  122.09300232    1.07000005    2.64000010
   17.24833298   93.05650330    1.09000003    2.64000010
   17.25166702  109.19999695    1.09000003    2.64000010
   17.25305557  114.50099945    1.09000003    2.64000010
   17.25527763  101.42299652    1.09000003    2.64000010
   17.25861168  102.98000336    1.07000005    2.64000010
   17.26194382   97.89579773    1.07000005    2.61999989
   17.26499939  109.73400116    1.07000005    2.64000010
   17.26833344   94.70130157    1.07000005    2.61999989
   17.27138901  114.27400208    1.07000005    2.64000010
   17.27472115   97.88760376    1.09000003    2.64000010
   17.27805519  100.72399902    1.09000003    2.64000010
   17.28111076  109.69899750    1.07000005    2.64000010
   17.28722191  109.69899750    1.09000003    2.61999989
   17.29138756  117.98300171    1.11000001    2.61999989
   17.29444313  112.40899658    1.09000003    2.64000010
   17.29777718   91.00710297    1.11000001    2.61999989
   17.30083275  110.07199860    1.11000001    2.64000010
   17.30416679  112.96900177    1.11000001    2.61999989
   17.30749893  117.37200165    1.11000001    2.61999989
   17.31055450  121.36499786    1.11000001    2.61999989
   17.31388855   96.27030182    1.11000001    2.61999989
   17.31722260   97.61779785    1.11000001    2.61999989
   17.31972313  115.15699768    1.11000001    2.61999989
   17.32055664  114.97299957    1.11000001    2.61999989
   17.32389069  106.44000244    1.11000001    2.64000010
   17.33000183  106.44000244    1.11000001    2.64000010
   17.33416748  119.53900146    1.11000001    2.64000010
   17.33750153   93.85160065    1.11000001    2.64000010
   17.34055710  105.75299835    1.11000001    2.61999989
   17.34388924  107.07700348    1.11000001    2.61999989
   17.34722328   99.62619781    1.09000003    2.61999989
   17.35027885   95.40309906    1.09000003    2.64000010
   17.35305595  100.86799622    1.09000003    2.64000010
   17.35388947   96.38120270    1.09000003    2.64000010
   17.35722351  109.31700134    1.09000003    2.64000010
   17.36055565   99.14080048    1.09000003    2.64000010
   17.36361122   99.69789886    1.09000003    2.64000010
   17.36694527   98.59030151    1.09000003    2.64000010
   17.37277794   98.59030151    1.09000003    2.61999989
   17.37694550   99.70099640    1.11000001    2.64000010
   17.38027763   98.61009979    1.11000001    2.64000010
   17.38333321  105.11399841    1.11000001    2.64000010
   17.38638878  110.46700287    1.11000001    2.61999989
   17.38694382  102.68499756    1.11000001    2.61999989
   17.39027786  103.08300018    1.11000001    2.64000010
   17.39361191  114.83499908    1.11000001    2.64000010
   17.39666748  102.86299896    1.13000000    2.64000010
   17.39999962   94.71450043    1.13000000    2.61999989
   17.40333366   99.28749847    1.13000000    2.64000010
   17.40638924   98.38009644    1.13000000    2.64000010
   17.40972137   96.69059753    1.13000000    2.64000010
   17.41583252   96.69059753    1.13000000    2.61999989
   17.41972160  104.15899658    1.13000000    2.64000010
   17.42305565  112.99500275    1.14999998    2.61999989
   17.42638779  103.83999634    1.21000004    2.64000010
   17.42944336  113.34100342    1.21000004    2.61999989
   17.43277740  116.57599640    1.21000004    2.61999989
   17.43583298  114.81400299    1.16999996    2.61999989
   17.43916512   97.21189880    1.16999996    2.64000010
   17.44249916  114.02899933    1.16999996    2.61999989
   17.44555473   92.33940125    1.16999996    2.61999989
   17.44888878  112.74900055    1.16999996    2.59999990
   17.45222282   92.05670166    1.16999996    2.61999989
   17.45305634  105.34600067    1.16999996    2.61999989
   17.45861244  105.34600067    1.16999996    2.61999989
   17.46277809  121.87799835    1.16999996    2.61999989
   17.46583366  118.84600067    1.16999996    2.61999989
   17.46916771  102.63899994    1.16999996    2.61999989
   17.48666763   95.46980286    1.16999996    2.64000010
   17.48916626   90.30249786    1.16999996    2.64000010
   17.49250031   82.42569733    1.16999996    2.61999989
   17.49555588  100.30999756    1.16999996    2.61999989
   17.50166702  100.30999756    1.16999996    2.61999989
   17.50583267  106.01899719    1.19000006    2.61999989
   17.50888824   90.65940094    1.19000006    2.59999990
   17.51222229   89.34989929    1.19000006    2.59999990
   17.51527786   95.45680237    1.19000006    2.61999989
   17.51861000  110.94599915    1.19000006    2.61999989
   17.52000046   93.53019714    1.19000006    2.61999989
   17.52249908   93.48380280    1.19000006    2.61999989
   17.52555466   91.79129791    1.19000006    2.64000010
   17.52888870   98.44719696    1.19000006    2.61999989
   17.53194427   82.96289825    1.19000006    2.61999989
   17.53527641   99.71430206    1.19000006    2.61999989
   17.53861046   80.70449829    1.19000006    2.61999989
   17.54444313   80.70449829    1.19000006    2.59999990
   17.54861069   95.20880127    1.19000006    2.61999989
   17.55166626   84.94680023    1.21000004    2.61999989
   17.55333328  101.74199677    1.19000006    2.61999989
   17.55555534   84.78639984    1.19000006    2.61999989
   17.55861092   83.91670227    1.19000006    2.61999989
   17.56194305   82.02970123    1.19000006    2.61999989
   17.56499863   88.47959900    1.21000004    2.61999989
   17.56833458   97.13459778    1.21000004    2.61999989
   17.57166672   88.36019897    1.21000004    2.59999990
   17.57472229   85.36569977    1.23000002    2.61999989
   17.57833481   94.05989838    1.23000002    2.61999989
   17.58139038   91.28659821    1.23000002    2.61999989
   17.58722305   91.28659821    1.23000002    2.59999990
   17.59138870   88.77110291    1.23000002    2.59999990
   17.59472275   75.90940094    1.30999994    2.59999990
   17.59777832  105.02999878    1.33000004    2.59999990
   17.60111237   82.00240326    1.30999994    2.59999990
   17.60444450   80.54239655    1.28999996    2.59999990
   17.60750008  105.47499847    1.28999996    2.59999990
   17.61083412   91.19760132    1.28999996    2.59999990
   17.61388969   90.41919708    1.28999996    2.61999989
   17.61722183   90.06970215    1.30999994    2.59999990
   17.62000084   79.72229767    1.28999996    2.59999990
   17.62111092   88.48500061    1.28999996    2.59999990
   17.62416649   87.17990112    1.28999996    2.59999990
   17.63000107   87.17990112    1.28999996    2.59999990
   17.63416672   79.79399872    1.30999994    2.59999990
   17.63750076   84.75749969    1.28999996    2.59999990
   17.64055634   83.21790314    1.28999996    2.59999990
   17.64388847   82.47599792    1.30999994    2.59999990
   17.64722252   85.10959625    1.30999994    2.59999990
   17.65027809   97.41259766    1.28999996    2.59999990
   17.65333366   82.67659760    1.30999994    2.59999990
   17.65416718   90.29440308    1.30999994    2.59999990
   17.65722275   79.44470215    1.30999994    2.61999989
   17.66055489   90.37180328    1.28999996    2.59999990
   17.66361046   95.96880341    1.28999996    2.59999990
   17.66694450   96.85749817    1.30999994    2.59999990
   17.67305565   96.85749817    1.28999996    2.59999990
   17.67722130   92.12010193    1.28999996    2.61999989
   17.68027687   98.23889923    1.28999996    2.61999989
   17.68361092   99.98210144    1.28999996    2.61999989
   17.68666649   97.40450287    1.28999996    2.59999990
   17.68722153   97.10359955    1.28999996    2.59999990
   17.69027710   92.41670227    1.28999996    2.61999989
   17.69361115   88.67829895    1.28999996    2.59999990
   17.69666672   96.45950317    1.26999998    2.61999989
   17.70000076   90.38700104    1.26999998    2.59999990
   17.70333481   87.78350067    1.26999998    2.61999989
   17.70639038   78.99469757    1.26999998    2.59999990
   17.70972252   84.68750000    1.26999998    2.59999990
   17.71583366   84.68750000    1.26999998    2.59999990
   17.72000122   95.98349762    1.26999998    2.59999990
   17.72055626   85.46620178    1.26999998    2.59999990
   17.72361183   93.73179626    1.26999998    2.59999990
   17.72694588   90.72329712    1.28999996    2.61999989
   17.73000145   91.15329742    1.28999996    2.61999989
   17.73333359   89.26210022    1.26999998    2.61999989
   17.73666763   97.52259827    1.26999998    2.59999990
   17.73972321   94.12139893    1.28999996    2.59999990
   17.74305534   91.52899933    1.28999996    2.59999990
   17.74638939   84.56479645    1.30999994    2.59999990
   17.74944496   93.77410126    1.28999996    2.59999990
   17.75277710   89.31060028    1.28999996    2.59999990
   17.75333405   88.33930206    1.28999996    2.59999990
   17.75861168   88.33930206    1.30999994    2.59999990
   17.76277733   89.63330078    1.30999994    2.59999990
   17.76611137   90.04419708    1.33000004    2.59999990
   17.76916695   86.73660278    1.33000004    2.59999990
   17.77249908   91.44889832    1.33000004    2.59999990
   17.77555466   80.92299652    1.33000004    2.59999990
   17.77888870   77.17179871    1.33000004    2.57999992
   17.78222275   84.81649780    1.33000004    2.59999990
   17.78527641   88.97450256    1.33000004    2.59999990
   17.78666687   86.66159821    1.33000004    2.59999990
   17.78916550   87.59799957    1.33000004    2.59999990
   17.79222107   83.28119659    1.34000003    2.59999990
   17.79555511   85.95220184    1.34000003    2.59999990
   17.80138779   85.95220184    1.34000003    2.57999992
   17.80555534   89.26309967    1.36000001    2.61999989
   17.80888748   84.36080170    1.36000001    2.57999992
   17.81222153   99.48000336    1.36000001    2.57999992
   17.81527710   90.06919861    1.36000001    2.57999992
   17.81861115   87.59220123    1.36000001    2.61999989
   17.82000160   79.09220123    1.36000001    2.61999989
   17.82222366   87.93070221    1.36000001    2.59999990
   17.82527924   87.56960297    1.36000001    2.57999992
   17.82861137   88.56169891    1.36000001    2.57999992
   17.83194542   77.66660309    1.36000001    2.59999990
   17.83500099   79.09790039    1.38000000    2.59999990
   17.83833313   85.91329956    1.38000000    2.57999992
   17.84444427   85.91329956    1.38000000    2.59999990
   17.84833336   84.66929626    1.38000000    2.57999992
   17.85166740   86.38110352    1.38000000    2.57999992
   17.85333443   87.68530273    1.38000000    2.57999992
   17.85527802   84.85109711    1.38000000    2.59999990
   17.85833359   85.77600098    1.38000000    2.57999992
   17.86166763   84.36070251    1.38000000    2.59999990
   17.86499977   88.06800079    1.38000000    2.59999990
   17.86805534   79.55699921    1.38000000    2.59999990
   17.87138939   90.05229950    1.38000000    2.57999992
   17.87472153   85.81259918    1.38000000    2.57999992
   17.87777710   84.48739624    1.38000000    2.57999992
   17.88111115   89.57849884    1.38000000    2.57999992
   17.88722229   89.57849884    1.38000000    2.57999992
   17.89138794   97.95349884    1.38000000    2.57999992
   17.89444351   86.12870026    1.38000000    2.59999990
   17.89777756   83.12180328    1.38000000    2.59999990
   17.90111160   88.50199890    1.38000000    2.59999990
   17.90416718   90.49259949    1.38000000    2.59999990
   17.90749931   88.30400085    1.38000000    2.59999990
   17.91083336   82.06449890    1.38000000    2.57999992
   17.91388893   87.29540253    1.38000000    2.57999992
   17.91722107   79.87039948    1.38000000    2.57999992
   17.92000008   81.37480164    1.38000000    2.59999990
   17.92083359   91.77909851    1.38000000    2.57999992
   17.92388916   76.71759796    1.38000000    2.57999992
   17.93000031   76.71759796    1.39999998    2.59999990
   17.93416595   82.23729706    1.39999998    2.61999989
   17.93750000   85.91660309    1.38000000    2.59999990
   17.94055557   81.80599976    1.39999998    2.57999992
   17.94388771   86.65090179    1.38000000    2.57999992
   17.94722176   89.32839966    1.38000000    2.57999992
   17.95027924   93.06710052    1.38000000    2.57999992
   17.95333481   94.43859863    1.38000000    2.57999992
   17.95416832   92.74379730    1.38000000    2.57999992
   17.95722389   92.29869843    1.38000000    2.57999992
   17.96055603   89.49890137    1.38000000    2.57999992
   17.96389008   92.15579987    1.38000000    2.57999992
   17.96694565   92.04399872    1.38000000    2.59999990
   17.97277832   92.04399872    1.38000000    2.57999992
   17.97694588   86.19390106    1.38000000    2.59999990
   17.98027802   85.40280151    1.38000000    2.59999990
   17.98333359   83.25569916    1.38000000    2.59999990
   17.98666763   85.14980316    1.38000000    2.59999990
   17.98722267   90.07769775    1.38000000    2.57999992
   17.99027824   96.04350281    1.38000000    2.55999994
   17.99361229   87.54190063    1.38000000    2.57999992
   17.99694443   91.18000031    1.39999998    2.59999990
   18.00000000   91.58049774    1.39999998    2.59999990
   18.00333405   83.04360199    1.38000000    2.57999992
   18.00638962   87.40350342    1.39999998    2.59999990
   18.00972176   80.19920349    1.39999998    2.59999990
   18.01583290   80.19920349    1.39999998    2.59999990
   18.01972198   96.14469910    1.39999998    2.59999990
   18.02027702   90.70719910    1.39999998    2.59999990
   18.02361107   90.77490234    1.39999998    2.57999992
   18.02694511   88.76509857    1.39999998    2.57999992
   18.03000069   92.93360138    1.39999998    2.57999992
   18.03333282   87.41899872    1.39999998    2.57999992
   18.03666687   90.03720093    1.41999996    2.57999992
   18.03972244   89.32499695    1.41999996    2.57999992
   18.04305458   90.14739990    1.41999996    2.57999992
   18.04611015   93.28790283    1.44000006    2.57999992
   18.04944420   87.37660217    1.44000006    2.57999992
   18.05277634   86.93499756    1.44000006    2.57999992
   18.05360985   92.78189850    1.44000006    2.57999992
   18.05861092   92.78189850    1.46000004    2.57999992
   18.06277657   85.60520172    1.46000004    2.57999992
   18.06583214   86.22740173    1.46000004    2.55999994
   18.06916809   89.49960327    1.48000002    2.57999992
   18.07250023   85.74109650    1.46000004    2.57999992
   18.07555580   91.73110199    1.46000004    2.57999992
   18.07888985   85.56529999    1.48000002    2.57999992
   18.08222389   85.80239868    1.48000002    2.57999992
   18.08527756   85.36499786    1.48000002    2.55999994
   18.08694458   84.02189636    1.48000002    2.55999994
   18.08889008   86.78829956    1.50000000    2.57999992
   18.09222221   83.68360138    1.48000002    2.55999994
   18.09527779   85.59770203    1.50000000    2.57999992
   18.10138893   85.59770203    1.50000000    2.55999994
   18.10555649   90.88420105    1.50000000    2.57999992
   18.10888863   84.20880127    1.50000000    2.55999994
   18.11194420   92.71700287    1.50000000    2.57999992
   18.11555672   92.72190094    1.51999998    2.55999994
   18.11861038   89.50579834    1.51999998    2.55999994
   18.12027740   84.25409698    1.51999998    2.57999992
   18.12222290   86.84989929    1.51999998    2.57999992
   18.12555504   90.38439941    1.51999998    2.55999994
   18.12861061   92.50849915    1.53999996    2.55999994
   18.13194466   91.47979736    1.53999996    2.55999994
   18.13527679   94.66719818    1.53999996    2.55999994
   18.13833237   92.95490265    1.53999996    2.55999994
   18.14416695   92.95490265    1.53999996    2.55999994
   18.14833260   96.79900360    1.53999996    2.55999994
   18.15166664   91.42340088    1.53999996    2.55999994
   18.15361023  101.07599640    1.53999996    2.55999994
   18.15527725   92.96829987    1.53999996    2.55999994
   18.15861130   88.98179626    1.53999996    2.55999994
   18.16166687   98.30719757    1.53999996    2.55999994
   18.16499901   97.48000336    1.53999996    2.55999994
   18.16833305   99.98609924    1.53999996    2.57999992
   18.17138863   99.38339996    1.53999996    2.55999994
   18.17472076   85.47380066    1.53999996    2.55999994
   18.17805481   88.66780090    1.53999996    2.55999994
   18.18111038  102.08599854    1.53999996    2.57999992
   18.18722153  102.08599854    1.53999996    2.55999994
   18.19111061   95.31770325    1.53999996    2.55999994
   18.19444275   98.47779846    1.53999996    2.55999994
   18.19777679   90.32050323    1.53999996    2.55999994
   18.20083427   87.72309875    1.53999996    2.55999994
   18.20416832   96.17900085    1.53999996    2.55999994
   18.20750046   91.25409698    1.53999996    2.55999994
   18.21055603   84.88159943    1.53999996    2.55999994
   18.21389008   96.95079803    1.53999996    2.55999994
   18.21694565   91.88310242    1.53999996    2.55999994
   18.22027779   92.48919678    1.53999996    2.55999994
   18.22083473   98.37969971    1.53999996    2.55999994
   18.22416687   93.33609772    1.53999996    2.55999994
   18.23000145   93.33609772    1.53999996    2.55999994
   18.23416710  104.77700043    1.55999994    2.55999994
   18.23722267   91.10829926    1.53999996    2.55999994
   18.24055672   90.33850098    1.55999994    2.55999994
   18.24388885   94.92530060    1.55999994    2.55999994
   18.24694443   94.47440338    1.55999994    2.55999994
   18.25027847  101.04699707    1.55999994    2.55999994
   18.25333405   94.86740112    1.55999994    2.55999994
   18.25416756   89.02580261    1.55999994    2.55999994
   18.25722313   90.58290100    1.55999994    2.55999994
   18.26027870   87.43959808    1.55999994    2.55999994
   18.26361084  100.00399780    1.58000004    2.55999994
   18.26694489   86.16089630    1.58000004    2.53999996
   18.27277756   86.16089630    1.58000004    2.55999994
   18.27694511   97.11720276    1.58000004    2.55999994
   18.28000069   94.66439819    1.58000004    2.55999994
   18.28333282   90.69280243    1.58000004    2.55999994
   18.28666687   98.79900360    1.58000004    2.55999994
   18.28750038   96.79329681    1.58000004    2.55999994
   18.29027748   98.96160126    1.58000004    2.55999994
   18.29333305   90.03060150    1.60000002    2.53999996
   18.29666710   91.02919769    1.60000002    2.55999994
   18.29999924   94.96690369    1.60000002    2.55999994
   18.30305481   88.40370178    1.60000002    2.53999996
   18.30638885   91.26640320    1.60000002    2.53999996
   18.30944443  104.14700317    1.63000000    2.55999994
   18.31555557  104.14700317    1.63000000    2.53999996
   18.31972313   91.05909729    1.63000000    2.53999996
   18.32083511   97.26830292    1.63000000    2.53999996
   18.32333374   99.09420013    1.63000000    2.51999998
   18.32638931   99.47149658    1.63000000    2.53999996
   18.32972336   98.63289642    1.64999998    2.53999996
   18.33305550  103.63700104    1.64999998    2.53999996
   18.33611107   93.96510315    1.64999998    2.53999996
   18.33944511   97.91280365    1.64999998    2.53999996
   18.34250069   88.77410126    1.64999998    2.53999996
   18.34583473   95.95610046    1.66999996    2.53999996
   18.34916687   96.37760162    1.66999996    2.53999996
   18.35222244   84.58589935    1.66999996    2.51999998
   18.35416794   92.10199738    1.66999996    2.51999998
   18.35861206   92.10199738    1.69000006    2.53999996
   18.36250114   94.53050232    1.66999996    2.51999998
   18.36583328   93.09290314    1.69000006    2.53999996
   18.36916733  100.15200043    1.69000006    2.51999998
   18.37222290   94.55310059    1.71000004    2.53999996
   18.37555504   86.84570313    1.71000004    2.53999996
   18.37888908   84.94069672    1.69000006    2.51999998
   18.38194466   95.90609741    1.71000004    2.51999998
   18.38527679   99.35040283    1.71000004    2.53999996
   18.38750076   89.33809662    1.71000004    2.53999996
   18.38888931  101.72899628    1.71000004    2.53999996
   18.39194489   86.33699799    1.71000004    2.51999998
   18.39527702   98.59750366    1.71000004    2.51999998
   18.40138817   98.59750366    1.71000004    2.53999996
   18.40555573  115.03700256    1.73000002    2.53999996
   18.40861130   95.83429718    1.71000004    2.51999998
   18.41194344  102.63500214    1.71000004    2.53999996
   18.41527748   92.36959839    1.71000004    2.51999998
   18.41833305   82.69490051    1.73000002    2.53999996
   18.42083359  105.21299744    1.73000002    2.53999996
   18.42222214  106.72899628    1.73000002    2.51999998
   18.42527771   88.15399933    1.73000002    2.51999998
   18.42860985   95.93000031    1.73000002    2.51999998
   18.43194389   88.29290009    1.73000002    2.51999998
   18.43499947  101.40200043    1.73000002    2.51999998
   18.43833160   97.23739624    1.73000002    2.51999998
   18.44416618   97.23739624    1.73000002    2.51999998
   18.44833183   99.23549652    1.73000002    2.51999998
   18.45166779  115.74199677    1.73000002    2.51999998
   18.45416832  108.76300049    1.73000002    2.53999996
   18.45527840  102.73300171    1.73000002    2.53999996
   18.45833397  108.14199829    1.73000002    2.51999998
   18.46166801   94.08370209    1.73000002    2.51999998
   18.46500015   98.57630157    1.75000000    2.51999998
   18.46805573   96.84790039    1.75000000    2.51999998
   18.47138977   98.89389801    1.75000000    2.51999998
   18.47444534   94.18520355    1.75000000    2.51999998
   18.47777748   93.95690155    1.76999998    2.51999998
   18.48111153   82.81430054    1.76999998    2.53999996
   18.48694420   82.81430054    1.76999998    2.51999998
   18.50527763  103.59100342    1.78999996    2.51999998
   18.50861168  103.34300232    1.80999994    2.51999998
   18.51194382  101.30699921    1.80999994    2.51999998
   18.51499939  103.55300140    1.80999994    2.50000000
   18.51833344  103.94999695    1.80999994    2.51999998
   18.52166557  104.13300323    1.80999994    2.51999998
   18.52472115   94.34889984    1.83000004    2.51999998
   18.53000069   94.34889984    1.80999994    2.51999998
   18.53416634   92.97280121    1.83000004    2.51999998
   18.53750038   99.87359619    1.83000004    2.50000000
   18.53861046   98.00440216    1.83000004    2.50000000
   18.54111099   99.54940033    1.83000004    2.51999998
   18.54444313  100.24600220    1.83000004    2.51999998
   18.54749870   95.32409668    1.85000002    2.51999998
   18.55083275   95.57189941    1.83000004    2.50000000
   18.55416679   98.84799957    1.85000002    2.50000000
   18.55722237   96.13410187    1.85000002    2.50000000
   18.56055450   93.43270111    1.86000001    2.51999998
   18.56388855   95.32160187    1.86000001    2.50000000
   18.56694603   93.83709717    1.86000001    2.50000000
   18.57305717   93.83709717    1.88000000    2.50000000
   18.57722282   95.75009918    1.89999998    2.50000000
   18.58027840   94.76930237    1.89999998    2.50000000
   18.58361244   94.48729706    1.91999996    2.50000000
   18.58666801  101.15799713    1.91999996    2.50000000
   18.59000015   99.08930206    1.91999996    2.50000000
   18.59333420   97.11609650    1.91999996    2.50000000
   18.59638977   94.01989746    1.91999996    2.50000000
   18.59972191   95.66280365    1.89999998    2.50000000
   18.60305595  100.68299866    1.91999996    2.50000000
   18.60499954   88.90889740    1.91999996    2.50000000
   18.60666656   98.60720062    1.91999996    2.50000000
   18.61000061   94.78720093    1.94000006    2.50000000
   18.61583328   94.78720093    1.94000006    2.50000000
   18.62000084  100.61900330    1.94000006    2.48000002
   18.62305641   99.76519775    1.94000006    2.50000000
   18.62638855   96.85919952    1.96000004    2.50000000
   18.62972260   99.84110260    1.96000004    2.50000000
   18.63277817   90.21759796    1.96000004    2.50000000
   18.63611031   94.24520111    1.96000004    2.48000002
   18.63833237  100.21199799    1.96000004    2.48000002
   18.63972282   90.08709717    1.98000002    2.50000000
   18.64305496   96.18109894    1.98000002    2.48000002
   18.64638901   95.63220215    2.00000000    2.48000002
   18.64972115   91.38310242    2.00000000    2.48000002
   18.65277672   95.12169647    2.00000000    2.48000002
   18.65861130   95.12169647    2.01999998    2.48000002
   18.66277695  112.49199677    2.01999998    2.48000002
   18.66611099  116.84200287    2.17000008    2.48000002
   18.66916656   97.31759644    1.30999994    1.00000000
   18.67166519   91.29340363    0.73000002    0.41999999
   18.67277718   92.77279663    0.73000002    0.41999999
   18.67611122   99.83170319    0.52999997    0.19000000
   18.67916679  112.06800079    0.46000001    0.07000000
   18.68249893   93.27639771    0.46000001    0.07000000
   18.68583298  107.40799713    0.46000001    0.07000000
   18.68888855  106.06400299    0.46000001    0.07000000
   18.69222069  104.51599884    0.46000001    0.07000000
   18.69555473  100.70200348    0.46000001    0.07000000
   18.70138931  100.70200348    0.46000001    0.07000000
   18.70555687   90.49690247    0.46000001    0.07000000
   18.70888901   86.91120148    0.46000001    0.07000000
   18.71222305   89.33609772    0.46000001    0.07000000
   18.71527863   97.27069855    0.46000001    0.07000000
   18.71861076   92.81469727    0.46000001    0.07000000
   18.72166634   95.20709991    0.46000001    0.07000000
   18.72500038   98.02449799    0.46000001    0.07000000
   18.72833443  103.21199799    0.46000001    0.07000000
   18.73139000  106.90799713    0.46000001    0.07000000
   18.73472214   98.10189819    0.46000001    0.07000000
   18.73805618   93.97360229    0.46000001    0.07000000
   18.73833275   93.82959747    0.46000001    0.07000000
   18.74444389   93.82959747    0.46000001    0.07000000
   18.74861145  104.67900085    0.46000001    0.07000000
   18.75166702  104.66899872    0.46000001    0.07000000
   18.75499916  103.23100281    0.46000001    0.07000000
   18.75833321  107.87699890    0.46000001    0.07000000
   18.76138878  103.76399994    0.46000001    0.07000000
   18.76472282  102.73600006    0.46000001    0.07000000
   18.76777840  106.98699951    0.46000001    0.07000000
   18.77111053  124.84899902    0.46000001    0.07000000
   18.77194405  117.03299713    0.46000001    0.07000000
   18.77472115   98.36990356    0.46000001    0.07000000
   18.77805519  103.93000031    0.46000001    0.07000000
   18.78111076   84.69539642    0.46000001    0.07000000
   18.78722191   84.69539642    0.46000001    0.07000000
   18.79138756   97.05069733    0.46000001    0.07000000
   18.79444313  109.26000214    0.46000001    0.07000000
   18.79777718  118.73799896    0.46000001    0.07000000
   18.80111122  109.86000061    0.46000001    0.07000000
   18.80416679   96.41200256    0.46000001    0.07000000
   18.80527687   86.07679749    0.46000001    0.07000000
   18.80777740   97.99880219    0.46000001    0.07000000
   18.81110954   92.86419678    0.46000001    0.07000000
   18.81416512  108.03099823    0.46000001    0.07000000
   18.81750107  122.44899750    0.46000001    0.07000000
   18.82083511  114.92700195    0.46000001    0.07000000
   18.82389069  100.34999847    0.46000001    0.07000000
   18.83000183  100.34999847    0.46000001    0.07000000
   18.83416748  104.95400238    0.46000001    0.07000000
   18.83750153  114.23799896    0.46000001    0.07000000
   18.83861160  105.56999969    0.46000001    0.07000000
   18.84083366   98.58129883    0.46000001    0.07000000
   18.84416771   99.40989685    0.46000001    0.07000000
   18.84722328  103.22899628    0.46000001    0.07000000
   18.85055542  110.70700073    0.46000001    0.07000000
   18.85388947  111.34100342    0.46000001    0.07000000
   18.85694504  114.44799805    0.46000001    0.07000000
   18.86027908  105.33799744    0.46000001    0.07000000
   18.86361122  112.80999756    0.46000001    0.07000000
   18.86666679   99.65519714    0.46000001    0.07000000
   18.87277794   99.65519714    0.46000001    0.07000000
   18.87694550   92.36969757    0.46000001    0.07000000
   18.88027763  106.08599854    0.46000001    0.07000000
   18.88333321  101.30000305    0.46000001    0.07000000
   18.88666725  103.49199677    0.46000001    0.07000000
