    HOUR (UT)   FLARE FACTOR    SKY TESTER    SUN TESTER
   11.16555500   -1.00000000   -1.00000000   -1.00000000
   11.20277786  222.49899292    4.90999985    2.25000000
   11.20861053  348.97900391    4.90999985    2.05999994
   11.21194458  342.89099121    4.90999985    2.03999996
   11.21500015  288.39001465    4.90999985    2.07999992
   11.21833324  238.35000610    4.90999985    2.09999990
   11.22138882  179.97799683    4.90999985    2.15000010
   11.22472191  152.53700256    4.90999985    2.34999990
   11.22805500  160.44900513    4.90999985    2.50000000
   11.23111057  158.86300659    4.90999985    2.51999998
   11.23444462  153.13000488    4.86999989    2.50000000
   11.23611164  147.57899475    4.65999985    2.51999998
   11.23805618  147.77699280    4.15999985    2.50000000
   11.24138927  153.36199951    3.36999989    2.50000000
   11.24444485  148.61599731    2.66000009    2.50000000
   11.24777794  152.75799561    1.73000002    2.51999998
   11.25111103  152.62300110    1.41999996    2.50000000
   11.25416660  145.12300110    1.13000000    2.50000000
   11.25749969  150.53999329    1.03999996    2.51999998
   11.26083374  155.82400513    1.01999998    2.51999998
   11.26388931  155.79699707    1.01999998    2.51999998
   11.26722240  159.44799805    1.00000000    2.51999998
   11.26944447  167.69400024    1.00000000    2.51999998
   11.27083302  152.60400391    1.00000000    2.51999998
   11.27416611  168.11300659    1.00000000    2.51999998
   11.27722168  161.06399536    1.00000000    2.51999998
   11.28055573  160.65899658    1.00000000    2.51999998
   11.28388977  145.73100281    0.98000002    2.51999998
   11.28694534  165.63099670    0.98000002    2.51999998
   11.29027843  159.05099487    0.98000002    2.51999998
   11.29361153  156.45100403    0.98000002    2.51999998
   11.29666710  147.32200623    0.98000002    2.51999998
   11.30000019  152.51499939    0.95999998    2.53999996
   11.30277824  155.91999817    0.95999998    2.53999996
   11.30361176  152.61500549    0.95999998    2.53999996
   11.30694485  148.50700378    0.95999998    2.53999996
   11.31027794  146.65299988    0.95999998    2.53999996
   11.31333351  149.63600159    0.98000002    2.53999996
   11.31666660  146.88000488    0.95999998    2.53999996
   11.31972218  158.85099792    0.95999998    2.53999996
   11.32305527  148.54100037    0.95999998    2.53999996
   11.32638836  146.62500000    0.95999998    2.53999996
   11.32944393  183.90100098    0.95999998    2.53999996
   11.33277798  173.35499573    0.98000002    2.53999996
   11.33611107  159.61700439    0.95999998    2.53999996
   11.33638859  171.02999878    0.95999998    2.53999996
   11.33972168  165.99400330    0.98000002    2.53999996
   11.34305477  159.57400513    0.98000002    2.53999996
   11.34611034  148.23100281    0.98000002    2.53999996
   11.34944439  157.91499329    0.98000002    2.53999996
   11.35277843  159.34800720    0.98000002    2.53999996
   11.35583401  161.83599854    0.95999998    2.55999994
   11.35916710  167.53500366    0.95999998    2.55999994
   11.36222267  156.61700439    0.95999998    2.53999996
   11.36555576  153.28900146    0.95999998    2.55999994
   11.36888885  145.86399841    0.95999998    2.55999994
   11.36944485  148.16000366    0.95999998    2.55999994
   11.37222195  143.91400146    0.95999998    2.55999994
   11.37555599  149.92500305    0.95999998    2.53999996
   11.37888908  148.02099609    0.95999998    2.55999994
   11.38194466  145.31300354    0.95999998    2.55999994
   11.38527775  144.95500183    0.95999998    2.55999994
   11.38833332  156.59899902    0.95999998    2.55999994
   11.39166641  155.93800354    0.95999998    2.57999992
   11.39499950  141.65899658    0.98000002    2.55999994
   11.39805508  152.87899780    0.95999998    2.55999994
   11.40138817  149.76600647    0.98000002    2.55999994
   11.40277767  139.03199768    0.98000002    2.55999994
   11.40499973  143.71600342    0.95999998    2.57999992
   11.40833282  139.47799683    0.95999998    2.55999994
   11.41166592  148.57499695    0.98000002    2.55999994
   11.41472149  140.20799255    0.98000002    2.55999994
   11.41805553  137.22799683    0.98000002    2.57999992
   11.42138958  139.16099548    0.95999998    2.57999992
   11.42444515  144.40600586    0.95999998    2.57999992
   11.42777824  144.92399597    0.95999998    2.55999994
   11.43111134  144.40600586    0.95999998    2.55999994
   11.43416691  136.82699585    0.95999998    2.55999994
   11.43611145  138.58999634    0.95999998    2.59999990
   11.43777752  151.45700073    0.95999998    2.57999992
   11.44111156  140.13900757    0.95999998    2.57999992
   11.44444466  155.73399353    0.95999998    2.59999990
   11.44750023  141.97900391    0.95999998    2.57999992
   11.45083332  138.52999878    0.95999998    2.59999990
   11.45416641  153.34800720    0.95999998    2.59999990
   11.45722198  138.90800476    0.95999998    2.59999990
   11.46055508  140.33900452    0.94000000    2.57999992
   11.46361065  137.41700745    0.94000000    2.57999992
   11.46694374  139.98699951    0.94000000    2.57999992
   11.46944427  143.11500549    0.94000000    2.57999992
   11.47055531  139.98899841    0.94000000    2.57999992
   11.47388840  143.17199707    0.92000002    2.57999992
   11.47722149  142.60800171    0.92000002    2.57999992
   11.48027706  133.46600342    0.92000002    2.59999990
   11.48361111  141.91099548    0.94000000    2.59999990
   11.48694515  137.30999756    0.94000000    2.59999990
   11.49000072  140.21600342    0.94000000    2.57999992
   11.49333382  142.59800720    0.94000000    2.59999990
   11.49638939  132.43499756    0.94000000    2.59999990
   11.49972248  135.35499573    0.95999998    2.59999990
   11.50277805  134.11199951    0.95999998    2.59999990
   11.50333309  134.64700317    0.94000000    2.59999990
   11.50666714  142.64399719    0.94000000    2.59999990
   11.51000023  140.55200195    0.95999998    2.59999990
   11.51305580  135.61399841    0.95999998    2.59999990
   11.51638889  138.16600037    0.95999998    2.61999989
   11.51972198  137.41499329    0.95999998    2.59999990
   11.52277756  133.13600159    0.95999998    2.59999990
   11.52611065  138.29400635    0.95999998    2.59999990
   11.52944374  140.92399597    0.95999998    2.59999990
   11.53249931  138.55200195    0.95999998    2.59999990
   11.53583336  145.78700256    0.95999998    2.59999990
   11.53638935  139.00799561    0.95999998    2.59999990
   11.53944492  135.82899475    0.95999998    2.59999990
   11.54277802  137.12600708    0.95999998    2.61999989
   11.54611111  136.04299927    0.95999998    2.61999989
   11.54916668  136.75599670    0.95999998    2.61999989
   11.55249977  140.08599854    0.95999998    2.61999989
   11.55583382  131.80200195    0.95999998    2.59999990
   11.55888939  135.82099915    0.95999998    2.61999989
   11.56222248  137.94799805    0.95999998    2.61999989
   11.56527805  136.19900513    0.95999998    2.61999989
   11.56861115  138.75000000    0.95999998    2.61999989
   11.56972218  145.46899414    0.95999998    2.61999989
   11.57222176  139.37699890    0.95999998    2.61999989
   11.57555580  148.64300537    0.95999998    2.61999989
   11.57888889  142.57000732    0.94000000    2.61999989
   11.58194447  147.21800232    0.94000000    2.61999989
   11.58527756  142.49200439    0.94000000    2.64000010
   11.58861065  144.23699951    0.95999998    2.64000010
   11.59166622  142.45899963    0.95999998    2.64000010
   11.59499931  143.73300171    0.95999998    2.64000010
   11.59805489  137.84800720    0.94000000    2.61999989
   11.60138893  140.48100281    0.95999998    2.64000010
   11.60305595  131.64799500    0.95999998    2.64000010
   11.60500050  140.15299988    0.95999998    2.64000010
   11.60833359  137.58500671    0.95999998    2.61999989
   11.61166668  134.17300415    0.95999998    2.61999989
   11.61472225  133.33200073    0.95999998    2.64000010
   11.61805534  141.90400696    0.95999998    2.64000010
   11.62138939  146.90899658    0.95999998    2.64000010
   11.62444496  137.91400146    0.95999998    2.61999989
   11.62777805  139.99400330    0.95999998    2.64000010
   11.63111115  130.62500000    0.95999998    2.64000010
   11.63416672  136.29699707    0.95999998    2.64000010
   11.63638878  137.14999390    0.95999998    2.61999989
   11.63777733  131.47099304    0.95999998    2.61999989
   11.64111137  137.03900146    0.95999998    2.61999989
   11.64444447  129.56799316    0.95999998    2.61999989
   11.64750004  135.23399353    0.95999998    2.64000010
   11.65083313  140.72500610    0.95999998    2.61999989
   11.65416622  130.19200134    0.94000000    2.64000010
   11.65722179  136.18400574    0.94000000    2.64000010
   11.66055489  138.67599487    0.95999998    2.64000010
   11.66361046  139.37199402    0.95999998    2.64000010
   11.66694450  141.69000244    0.95999998    2.64000010
   11.66972256  135.74800110    0.95999998    2.64000010
   11.67055607  137.28100586    0.95999998    2.64000010
   11.67388916  138.30499268    0.95999998    2.64000010
   11.67722225  145.83999634    0.95999998    2.64000010
   11.68027782  138.02900696    0.95999998    2.64000010
   11.68361092  139.68499756    0.95999998    2.64000010
   11.68694496  140.10099792    0.94000000    2.66000009
   11.69000053  138.13099670    0.92000002    2.64000010
   11.69333363  135.30999756    0.92000002    2.66000009
   11.69638920  138.59500122    0.92000002    2.64000010
   11.69972229  131.37399292    0.94000000    2.66000009
   11.70305538  139.49699402    0.94000000    2.66000009
   11.70333290  138.43600464    0.94000000    2.64000010
   11.70666695  138.39399719    0.94000000    2.66000009
   11.71000004  136.00000000    0.94000000    2.64000010
   11.71305561  136.03399658    0.94000000    2.66000009
   11.71638870  133.95399475    0.95999998    2.66000009
   11.71972179  138.41600037    0.95999998    2.66000009
   11.72277737  135.05400085    0.95999998    2.64000010
   11.72611046  137.00100708    0.95999998    2.66000009
   11.72916603  138.47999573    0.98000002    2.66000009
   11.73249912  136.96600342    0.98000002    2.67000008
   11.73583317  131.44299316    0.98000002    2.66000009
   11.73638916  132.79400635    0.98000002    2.66000009
   11.73916721  134.36900330    1.00000000    2.66000009
   11.74250031  138.12199402    1.00000000    2.66000009
   11.74583340  139.42199707    1.00000000    2.66000009
   11.74888897  133.91400146    1.00000000    2.66000009
   11.75222206  132.60899353    1.00000000    2.66000009
   11.75555515  141.13999939    1.00000000    2.67000008
   11.75861073  143.45799255    1.00000000    2.66000009
   11.76194477  136.37699890    1.00000000    2.66000009
   11.76500034  138.08799744    1.00000000    2.66000009
   11.76833344  134.13099670    1.00000000    2.66000009
   11.76972198  137.25000000    1.00000000    2.66000009
   11.77194405  131.65800476    1.00000000    2.66000009
   11.77527714  131.22000122    0.98000002    2.66000009
   11.77861118  137.72399902    0.98000002    2.67000008
   11.78166676  132.06799316    0.98000002    2.66000009
   11.78500080  133.94500732    1.00000000    2.66000009
   11.78833389  133.34199524    1.00000000    2.66000009
   11.79138947  124.16300201    0.98000002    2.67000008
   11.79472256  129.51699829    0.98000002    2.66000009
   11.79805565  132.07000732    0.98000002    2.67000008
   11.80111122  127.89499664    0.98000002    2.67000008
   11.80305576  138.75199890    0.98000002    2.67000008
   11.80500031  144.82499695    0.98000002    2.66000009
   11.80805588  123.11799622    0.98000002    2.67000008
   11.81138897  132.51699829    0.95999998    2.67000008
   11.81444454  132.88200378    0.95999998    2.67000008
   11.81777763  140.92999268    0.95999998    2.67000008
   11.82111073  136.51100159    0.95999998    2.67000008
   11.82416630  132.89300537    0.94000000    2.67000008
   11.82750034  131.23100281    0.95999998    2.69000006
   11.83083344  126.85399628    0.95999998    2.67000008
   11.83388901  137.66700745    0.95999998    2.67000008
   11.83638859  130.10400391    0.95999998    2.67000008
   11.83777714  137.20899963    0.95999998    2.69000006
   11.84083271  136.28300476    0.95999998    2.67000008
   11.84416676  132.62899780    0.95999998    2.67000008
   11.84722233  135.59500122    0.94000000    2.69000006
   11.85055637  130.32600403    0.94000000    2.67000008
   11.85388947  131.98199463    0.94000000    2.69000006
   11.85694504  138.79899597    0.94000000    2.69000006
   11.86027813  127.89900208    0.94000000    2.69000006
   11.86361122  134.79100037    0.94000000    2.67000008
   11.86666679  137.67300415    0.94000000    2.67000008
   11.86972237  133.82600403    0.94000000    2.69000006
   11.87027836  132.49299622    0.94000000    2.69000006
   11.87361145  139.59300232    0.94000000    2.69000006
   11.87694454  136.92900085    0.94000000    2.69000006
   11.88000011  129.45399475    0.94000000    2.69000006
   11.88333321  131.95599365    0.92000002    2.69000006
   11.88666630  141.60600281    0.92000002    2.69000006
   11.88972187  146.94799805    0.92000002    2.67000008
   11.89305496  143.27900696    0.94000000    2.69000006
   11.89611053  123.62400055    0.92000002    2.69000006
   11.89944458  131.40899658    0.92000002    2.71000004
   11.90277767  140.44700623    0.92000002    2.71000004
   11.90333271  134.42399597    0.92000002    2.71000004
   11.90638828  133.53999329    0.92000002    2.67000008
   11.90972137  151.07899475    0.92000002    2.67000008
   11.91305542  132.18400574    0.92000002    2.69000006
   11.91611099  147.42100525    0.92000002    2.69000006
   11.91944504  133.46400452    0.92000002    2.67000008
   11.92277813  139.79200745    0.94000000    2.69000006
   11.92583370  135.69799805    0.92000002    2.69000006
   11.92916679  138.13299561    0.92000002    2.69000006
   11.93249989  145.02200317    0.92000002    2.71000004
   11.93555546  130.17599487    0.92000002    2.71000004
   11.93666649  132.52699280    0.92000002    2.71000004
   11.93916702  136.54299927    0.92000002    2.71000004
   11.94250011  135.85200500    0.92000002    2.71000004
   11.94583321  128.63999939    0.92000002    2.69000006
   11.94888878  138.53300476    0.92000002    2.69000006
   11.95222187  130.20599365    0.92000002    2.69000006
   11.95527744  135.35400391    0.94000000    2.71000004
   11.95861053  121.16100311    0.92000002    2.69000006
   11.96194458  127.13099670    0.94000000    2.71000004
   11.96500015  139.39100647    0.94000000    2.71000004
   11.96833324  141.00199890    0.94000000    2.71000004
   11.96999931  133.04499817    0.94000000    2.71000004
   11.97194386  125.59100342    0.94000000    2.71000004
   11.97527695  123.44899750    0.94000000    2.71000004
   11.97861099  140.02200317    0.94000000    2.71000004
   11.98166656  132.26699829    0.94000000    2.73000002
   11.98500061  130.25900269    0.94000000    2.73000002
   11.98805618  130.55499268    0.95999998    2.71000004
   11.99138927  127.65100098    0.95999998    2.69000006
   11.99472237  114.74800110    0.95999998    2.71000004
   11.99777794  124.27100372    0.95999998    2.71000004
   12.00111103  119.68299866    0.95999998    2.71000004
   12.00333309  125.01999664    0.95999998    2.71000004
   12.00472260  121.63700104    0.95999998    2.71000004
   12.00805569  128.96499634    0.95999998    2.71000004
   12.01138878  128.12300110    0.95999998    2.71000004
   12.01444435  130.58500671    0.95999998    2.71000004
   12.01777744  126.81900024    0.98000002    2.71000004
   12.02111053  122.09999847    0.98000002    2.71000004
   12.02416611  131.67900085    0.98000002    2.71000004
   12.02750015  130.05200195    0.98000002    2.71000004
   12.03055573  131.38099670    1.00000000    2.71000004
   12.03388977  130.19700623    1.00000000    2.71000004
   12.03666687  136.32800293    1.01999998    2.71000004
   12.03777790  127.09799957    1.01999998    2.71000004
   12.04083347  131.03399658    1.01999998    2.71000004
   12.04416752  131.72900391    1.01999998    2.71000004
   12.04722309  133.33999634    1.01999998    2.71000004
   12.05055618  135.64500427    1.01999998    2.71000004
   12.05388927  132.24099731    1.01999998    2.73000002
   12.05694485  129.17199707    1.03999996    2.71000004
   12.06027794  137.81199646    1.03999996    2.71000004
   12.06361103  137.75700378    1.03999996    2.71000004
   12.06666660  132.08000183    1.03999996    2.71000004
   12.06999969  137.14799500    1.03999996    2.71000004
   12.07055569  133.61599731    1.03999996    2.71000004
   12.07361126  127.88300323    1.03999996    2.71000004
   12.07694435  122.09600067    1.03999996    2.71000004
   12.07999992  134.10299683    1.03999996    2.71000004
   12.08333302  145.04499817    1.03999996    2.71000004
   12.08666611  132.78599548    1.03999996    2.71000004
   12.08972168  127.55799866    1.01999998    2.71000004
   12.09305477  135.44900513    1.01999998    2.73000002
   12.09638882  131.49699402    1.01999998    2.73000002
   12.09944439  139.47700500    1.00000000    2.73000002
   12.10277843  139.46899414    0.98000002    2.73000002
   12.10333347  136.93899536    0.98000002    2.73000002
   12.10638905  138.25999451    0.98000002    2.73000002
   12.10944462  136.60800171    0.98000002    2.73000002
   12.11277771  136.78900146    0.98000002    2.71000004
   12.11583328  135.95599365    0.95999998    2.73000002
   12.11916637  139.61099243    0.95999998    2.71000004
   12.12250042  138.81399536    0.95999998    2.73000002
   12.12555599  140.58900452    0.94000000    2.73000002
   12.12888908  129.12300110    0.94000000    2.73000002
   12.13222218  125.87500000    0.94000000    2.71000004
   12.13527775  131.60800171    0.94000000    2.75000000
   12.13666630  145.79299927    0.94000000    2.75000000
   12.13916683  126.23699951    0.98000002    2.73000002
   12.14222240  131.82299805    0.98000002    2.75000000
   12.14555550  135.08900452    1.00000000    2.73000002
   12.14861107  134.92500305    1.00000000    2.73000002
   12.15194416  132.14199829    1.00000000    2.73000002
   12.15527725  139.61199951    1.00000000    2.73000002
   12.15833282  139.41799927    1.00000000    2.73000002
   12.16166592  128.88400269    1.00000000    2.73000002
   12.16499996  131.24099731    1.00000000    2.73000002
   12.16805553  131.86000061    1.00000000    2.73000002
   12.17000008  134.82699585    1.00000000    2.73000002
   12.17194462  135.16999817    0.98000002    2.73000002
   12.17500019  131.17399597    0.98000002    2.73000002
   12.17833328  133.22000122    0.98000002    2.73000002
   12.18138885  127.30899811    0.95999998    2.75000000
   12.18472195  121.35600281    0.94000000    2.75000000
   12.18805599  135.44599915    0.92000002    2.75000000
   12.19111156  132.87899780    0.92000002    2.75000000
   12.19444466  140.81700134    0.92000002    2.75000000
   12.19777775  139.51199341    0.95999998    2.73000002
   12.20083332  123.85399628    0.95999998    2.73000002
   12.21972179  127.30400085    1.01999998    2.73000002
   12.22111034  129.13000488    1.01999998    2.73000002
   12.22416592  129.40499878    1.01999998    2.75000000
   12.22749996  120.20099640    1.01999998    2.75000000
   12.23083305  127.00199890    1.01999998    2.73000002
   12.23388958  136.17799377    1.03999996    2.73000002
   12.23722267  133.85400391    1.03999996    2.73000002
   12.24027824  131.62399292    1.03999996    2.75000000
   12.24361134  134.52600098    1.03999996    2.75000000
   12.24694443  129.89100647    1.01999998    2.75000000
   12.25000000  123.33999634    1.03999996    2.75000000
   12.25249958  130.70799255    1.03999996    2.75000000
   12.25361156  135.86500549    1.03999996    2.75000000
   12.25694466  130.89199829    1.03999996    2.75000000
   12.26000023  124.60900116    1.03999996    2.75000000
   12.26333332  132.07200623    1.03999996    2.75000000
   12.26638889  138.19700623    1.05999994    2.75000000
   12.26972198  138.83700562    1.05999994    2.75000000
   12.27305508  131.54899597    1.05999994    2.75000000
   12.27611065  133.08399963    1.05999994    2.75000000
   12.27944374  130.32000732    1.05999994    2.75000000
   12.28277779  128.99699402    1.05999994    2.76999998
   12.28583336  133.01300049    1.05999994    2.76999998
   12.28638935  130.78399658    1.05999994    2.76999998
   12.28972244  125.31400299    1.05999994    2.75000000
   12.29277802  134.27099609    1.05999994    2.75000000
   12.29611111  138.72599792    1.05999994    2.75000000
   12.29944515  133.92100525    1.01999998    2.75000000
   12.30249977  121.17600250    1.01999998    2.75000000
   12.30583382  123.30699921    1.01999998    2.75000000
   12.30888939  128.73699951    1.01999998    2.75000000
   12.31222248  127.39099884    1.00000000    2.76999998
   12.31555557  135.70599365    1.00000000    2.76999998
   12.31861115  132.78799438    1.00000000    2.76999998
   12.31916618  131.65199280    1.00000000    2.76999998
   12.32222176  132.07200623    0.98000002    2.76999998
   12.32555580  128.00999451    0.95999998    2.76999998
   12.32861137  137.04200745    0.94000000    2.76999998
   12.33194447  128.77699280    0.94000000    2.75000000
   12.33527756  130.73599243    0.94000000    2.75000000
   12.33833313  120.49299622    0.95999998    2.76999998
   12.34166622  132.97000122    0.95999998    2.75000000
   12.34499931  138.57600403    0.95999998    2.76999998
   12.34805489  136.58799744    0.95999998    2.78999996
   12.35138893  136.03500366    0.98000002    2.76999998
   12.35249996  140.05000305    0.98000002    2.76999998
   12.35500050  123.59600067    0.95999998    2.75000000
   12.35833359  136.48500061    0.95999998    2.76999998
   12.36138916  144.63200378    0.98000002    2.75000000
   12.36472225  128.78399658    0.98000002    2.75000000
   12.36805534  131.26800537    0.98000002    2.76999998
   12.37111092  131.97700500    1.00000000    2.76999998
   12.37444496  123.99199677    1.00000000    2.76999998
   12.37750053  132.86500549    1.00000000    2.76999998
   12.38083363  136.29899597    1.01999998    2.76999998
   12.38416672  133.87100220    1.01999998    2.75000000
   12.38583279  134.31100464    1.01999998    2.75000000
   12.38777733  131.56500244    1.03999996    2.75000000
   12.39111137  128.44500732    1.05999994    2.76999998
   12.39444447  132.44900513    1.03999996    2.76999998
   12.39777756  129.32099915    1.03999996    2.76999998
   12.40083313  132.63800049    1.03999996    2.76999998
   12.40416622  127.11100006    1.03999996    2.76999998
   12.40722179  124.15399933    1.00000000    2.76999998
   12.41055489  123.87100220    1.00000000    2.76999998
   12.41388893  142.62899780    1.00000000    2.76999998
   12.41694450  135.93400574    1.00000000    2.78999996
   12.41916656  135.88000488    1.00000000    2.76999998
   12.42055607  139.93800354    1.00000000    2.76999998
   12.42388916  136.29499817    1.00000000    2.76999998
   12.42694473  151.79200745    1.00000000    2.76999998
   12.43027782  138.05000305    1.00000000    2.76999998
   12.43361092  135.52499390    1.01999998    2.76999998
   12.43666649  134.00500488    1.01999998    2.76999998
   12.44000053  144.51899719    1.00000000    2.78999996
   12.44305515  140.76899719    1.00000000    2.76999998
   12.44638920  133.22099304    0.98000002    2.76999998
   12.44972229  138.24200439    0.98000002    2.76999998
   12.45249939  151.41099548    0.95999998    2.78999996
   12.45333290  128.17900085    0.95999998    2.78999996
   12.45666695  138.89900208    0.95999998    2.78999996
   12.45972157  129.49800110    0.94000000    2.78999996
   12.46305561  128.16900635    0.94000000    2.76999998
   12.46638870  131.57299805    0.94000000    2.78999996
   12.46944427  136.48300171    0.94000000    2.78999996
   12.47277737  130.75599670    0.94000000    2.78999996
   12.47611046  131.04100037    0.92000002    2.78999996
   12.47916603  132.29899597    0.94000000    2.78999996
   12.48249912  133.34100342    0.92000002    2.78999996
   12.48555565  127.86699677    0.92000002    2.76999998
   12.48611164  133.29800415    0.92000002    2.76999998
   12.48944473  133.98100281    0.92000002    2.78999996
   12.49277782  132.26699829    0.92000002    2.78999996
   12.49583340  122.70300293    0.92000002    2.78999996
   12.49916649  128.13800049    0.92000002    2.78999996
   12.50249958  130.67300415    0.92000002    2.78999996
   12.50555515  133.51899719    0.92000002    2.76999998
   12.50888920  128.03700256    0.92000002    2.78999996
   12.51194477  122.63200378    0.92000002    2.78999996
   12.51527786  137.04899597    0.92000002    2.78999996
   12.51861095  127.78700256    0.92000002    2.78999996
   12.51944447  124.98100281    0.92000002    2.78999996
   12.52222157  123.59500122    0.92000002    2.78999996
   12.52555561  129.13299561    0.89999998    2.78999996
   12.52861118  129.70100403    0.89999998    2.78999996
   12.53194427  132.95700073    0.89999998    2.78999996
   12.53527832  129.50799561    0.89999998    2.80999994
   12.53833389  135.76899719    0.89999998    2.80999994
   12.54166698  131.59800720    0.89999998    2.76999998
   12.54500008  126.65299988    0.94000000    2.78999996
   12.54805565  127.77100372    0.95999998    2.78999996
   12.55138874  122.37100220    0.95999998    2.80999994
   12.55277824  130.66499329    0.95999998    2.78999996
   12.55500031  129.42900085    0.95999998    2.78999996
   12.55833340  127.05999756    0.95999998    2.78999996
   12.56138897  137.39199829    0.95999998    2.78999996
   12.56472206  128.69200134    0.95999998    2.78999996
   12.56805515  131.86599731    0.95999998    2.78999996
   12.57111073  135.58000183    0.95999998    2.78999996
   12.57444477  130.25500488    0.98000002    2.78999996
   12.57777786  131.15400696    0.95999998    2.80999994
   12.58083344  134.56700134    0.95999998    2.78999996
   12.58416653  143.35000610    0.95999998    2.78999996
   12.58611107  129.00599670    0.95999998    2.78999996
   12.58777714  130.72599792    0.95999998    2.78999996
   12.59111118  137.37600708    0.95999998    2.80999994
   12.59416676  139.74699402    0.94000000    2.80999994
   12.59749985  140.36500549    0.94000000    2.80999994
   12.60083389  127.63700104    0.95999998    2.80999994
   12.60388947  134.21200562    0.94000000    2.78999996
   12.60722256  134.02999878    0.92000002    2.80999994
   12.61027813  139.23399353    0.89999998    2.78999996
   12.61361122  134.07600403    0.89999998    2.80999994
   12.61694431  124.91999817    0.92000002    2.80999994
   12.61944485  133.03500366    0.89999998    2.78999996
   12.62055588  123.57599640    0.89999998    2.78999996
   12.62388897  122.41100311    0.89999998    2.78999996
   12.62694454  122.16200256    0.89999998    2.78999996
   12.63027763  124.98000336    0.92000002    2.78999996
   12.63361073  127.94999695    0.94000000    2.80999994
   12.63666630  129.63999939    0.94000000    2.78999996
   12.64000034  137.44400024    0.94000000    2.80999994
   12.64305496  130.24200439    0.94000000    2.80999994
   12.64638901  128.13900757    0.94000000    2.80999994
   12.64972210  130.67300415    0.94000000    2.80999994
   12.65305519  141.62399292    0.94000000    2.80999994
   12.65333271  143.88600159    0.94000000    2.80999994
   12.65694427  133.67999268    0.94000000    2.80999994
   12.65999985  134.23500061    0.94000000    2.80999994
   12.66333294  133.42999268    0.94000000    2.80999994
   12.66666698  144.74099731    0.94000000    2.80999994
   12.66972256  133.94299316    0.94000000    2.80999994
   12.67305565  127.43000031    0.92000002    2.80999994
   12.67638874  131.27299500    0.92000002    2.80999994
   12.67944431  133.87100220    0.92000002    2.80999994
   12.68277836  126.04399872    0.92000002    2.78999996
   12.68583298  129.35299683    0.92000002    2.80999994
   12.68638897  131.41000366    0.92000002    2.80999994
   12.68972206  134.69099426    0.92000002    2.80999994
   12.69305515  135.58599854    0.92000002    2.80999994
   12.69611073  129.54899597    0.89999998    2.80999994
   12.69944477  140.59300232    0.89999998    2.80999994
   12.70277786  134.75900269    0.89999998    2.80999994
   12.70583344  134.28599548    0.89999998    2.80999994
   12.70916653  131.83200073    0.89999998    2.78999996
   12.71249962  127.38300323    0.89999998    2.78999996
   12.71555519  139.73199463    0.88000000    2.78999996
   12.71888828  135.27200317    0.88000000    2.80999994
   12.71999931  141.85600281    0.88000000    2.80999994
   12.72249985  138.09500122    0.88000000    2.80999994
   12.72583294  141.85899353    0.88000000    2.80999994
   12.72916603  136.57200623    0.88000000    2.80999994
   12.73222160  127.54900360    0.88000000    2.80999994
   12.73555565  135.23800659    0.88000000    2.82999992
   12.73861122  132.88499451    0.88000000    2.80999994
   12.74194431  130.93299866    0.88000000    2.82999992
   12.74527836  135.42500305    0.88000000    2.82999992
   12.74833393  139.84199524    0.88000000    2.80999994
   12.75166702  123.12200165    0.88000000    2.80999994
   12.75305557  133.18099976    0.88000000    2.80999994
   12.75527763  130.11500549    0.86000001    2.80999994
   12.75861073  125.54900360    0.86000001    2.80999994
   12.76166630  123.20200348    0.86000001    2.80999994
   12.76500034  133.54499817    0.86000001    2.80999994
   12.76833344  125.19899750    0.86000001    2.80999994
   12.77138901  127.84999847    0.86000001    2.82999992
   12.77472210  132.15899658    0.86000001    2.80999994
   12.77805519  131.20399475    0.86000001    2.80999994
   12.78111076  133.54600525    0.86000001    2.82999992
   12.78444481  137.52999878    0.86000001    2.82999992
   12.78638935  129.25599670    0.86000001    2.82999992
   12.78805637  130.72999573    0.86000001    2.80999994
   12.79138947  111.70300293    0.86000001    2.80999994
   12.79444504  129.84500122    0.86000001    2.82999992
   12.79777813  133.27499390    0.86000001    2.82999992
   12.80111122  125.41699982    0.88000000    2.82999992
   12.80416679  124.19200134    0.86000001    2.82999992
   12.80749989  130.57899475    0.89999998    2.82999992
   12.81055546  120.43299866    0.89999998    2.82999992
   12.81388950  123.29799652    0.80000001    2.82999992
   12.81722260  121.41500092    0.79000002    2.82999992
   12.81999969  130.31900024    0.79000002    2.82999992
   12.82083321  117.92500305    0.79000002    2.82999992
   12.82416630  128.94999695    0.79000002    2.80999994
   12.82722187  135.93099976    0.79000002    2.82999992
   12.83055592  125.05599976    0.79000002    2.82999992
   12.83388901  117.98699951    0.79000002    2.82999992
   12.83694458  125.16799927    0.79000002    2.82999992
   12.84027767  129.95599365    0.80000001    2.82999992
   12.84333324  133.72399902    0.80000001    2.82999992
   12.84666634  121.05400085    0.81999999    2.80999994
   12.85000038  125.54599762    0.81999999    2.82999992
   12.85305595  132.57200623    0.81999999    2.82999992
   12.85361195  125.05899811    0.81999999    2.82999992
   12.85694504  130.58799744    0.80000001    2.82999992
   12.86000061  120.11699677    0.80000001    2.84999990
   12.86333370  126.52899933    0.80000001    2.82999992
   12.86666679  129.35600281    0.80000001    2.82999992
   12.86972237  137.14199829    0.80000001    2.80999994
   12.87305546  130.99899292    0.79000002    2.82999992
   12.87638855  127.87999725    0.79000002    2.84999990
   12.87944412  128.03100586    0.75000000    2.82999992
   12.88277817  129.91999817    0.75000000    2.84999990
   12.88583279  141.00300598    0.76999998    2.84999990
   12.88666630  131.96800232    0.76999998    2.84999990
   12.88944435  124.48600006    0.88000000    2.84999990
   12.89277744  135.55900574    1.14999998    2.80999994
   12.89583302  131.02200317    1.75000000    2.82999992
   12.89916611  141.44900513    1.78999996    2.82999992
   12.90249920  139.21499634    1.86000001    2.80999994
   12.90555477  128.42199707    1.25000000    2.84999990
   12.90888882  131.08299255    1.11000001    2.84999990
   12.91194439  145.07400513    0.95999998    2.82999992
   12.91527748  124.16600037    1.00000000    2.84999990
   12.91861153  134.20500183    1.00000000    2.84999990
   12.92000008  135.08700562    1.00000000    2.84999990
   12.92222214  136.46099854    1.03999996    2.84999990
   12.92555618  134.44299316    1.16999996    2.82999992
   12.92861176  129.77099609    1.30999994    2.82999992
   12.93194485  132.03300476    1.30999994    2.82999992
   12.93527794  130.33799744    1.16999996    2.84999990
   12.93833351  135.15100098    1.07000005    2.84999990
   12.94166660  138.28799438    0.98000002    2.82999992
   12.94499969  129.00599670    0.86000001    2.82999992
   12.94805527  133.69799805    0.80000001    2.84999990
   12.95138836  134.30499268    0.81999999    2.84999990
   12.95333290  129.36199951    0.83999997    2.82999992
   12.95499992  130.18600464    0.83999997    2.84999990
   12.95833302  121.09799957    0.83999997    2.84999990
   12.96166611  125.51100159    0.83999997    2.84999990
   12.96472168  127.74500275    0.89999998    2.82999992
   12.96805477  132.23699951    0.88000000    2.82999992
   12.97111034  125.79199982    1.00000000    2.84999990
   12.97444439  121.18800354    1.14999998    2.84999990
   12.97777748  126.51499939    1.23000002    2.84999990
   12.98083305  120.52899933    1.26999998    2.84999990
   12.98416710  126.67199707    1.44000006    2.82999992
   12.98666668  126.92299652    1.44000006    2.82999992
   12.98777771  131.75799561    1.44000006    2.84999990
   12.99111176  125.53600311    1.44000006    2.84999990
   12.99416733  130.32400513    1.39999998    2.82999992
   12.99750042  125.12400055    1.36000001    2.82999992
   13.00083351  135.14500427    1.26999998    2.84999990
   13.00416660  121.18699646    1.13000000    2.82999992
   13.11388969   -1.00000000   -1.00000000   -1.00000000
   13.20611095   -1.00000000   -1.00000000   -1.00000000
   13.30388927   -1.00000000   -1.00000000   -1.00000000
   13.39555550   -1.00000000   -1.00000000   -1.00000000
   13.49000072   -1.00000000   -1.00000000   -1.00000000
   13.59249973   -1.00000000   -1.00000000   -1.00000000
   13.68555546   -1.00000000   -1.00000000   -1.00000000
   13.78138828   -1.00000000   -1.00000000   -1.00000000
   13.88000011   -1.00000000   -1.00000000   -1.00000000
   13.90555477   90.56980133    4.90999985    2.55999994
   13.90888882  240.94200134    4.90999985    2.25000000
   14.52305508  131.94299316    0.98000002    2.93000007
   14.52638817  128.78900146    0.98000002    2.93000007
   14.52972221  128.03599548    0.98000002    2.93000007
   14.53277779  118.90899658    1.00000000    2.93000007
   14.53611183  126.40699768    1.00000000    2.93000007
   14.53944492  125.84899902    0.95999998    2.91000009
   14.54333401  125.84899902    0.94000000    2.93000007
   14.54750061  124.68599701    0.94000000    2.93000007
   14.55083370  125.98899841    0.92000002    2.93000007
   14.55416679  129.36599731    0.92000002    2.94000006
   14.55638885  124.18800354    0.92000002    2.93000007
   14.55777836  127.76000214    0.92000002    2.93000007
   14.56111145  132.29899597    0.89999998    2.93000007
   14.56444454  126.84700012    0.88000000    2.93000007
   14.56750011  126.88800049    0.89999998    2.94000006
   14.57083321  128.49499512    0.89999998    2.94000006
   14.57416630  132.42799377    0.89999998    2.93000007
   14.57722187  131.98399353    0.89999998    2.93000007
   14.58055592  131.47999573    0.89999998    2.94000006
   14.58638859  131.47999573    0.89999998    2.94000006
   14.59055519  125.43800354    0.89999998    2.93000007
   14.59361076  128.93200684    0.88000000    2.94000006
   14.59694386  134.33799744    0.88000000    2.94000006
   14.60000038  123.30599976    0.88000000    2.94000006
   14.60333347  127.43399811    0.88000000    2.93000007
   14.60666752  122.87200165    0.88000000    2.94000006
   14.60972214  123.44899750    0.88000000    2.94000006
   14.61305618  123.90200043    0.88000000    2.93000007
   14.61638927  128.86399841    0.89999998    2.94000006
   14.61944485  125.63400269    0.92000002    2.93000007
   14.62277794  126.01699829    0.89999998    2.93000007
   14.62333393  122.11699677    0.89999998    2.93000007
   14.62916660  122.11699677    0.89999998    2.93000007
   14.63333321  130.74099731    0.88000000    2.93000007
   14.63638878  133.88900757    0.88000000    2.93000007
   14.63972187  167.79899597    1.21000004    2.93000007
   14.64305496  150.49000549    4.90999985    2.86999989
   14.64611053  133.27099609    4.90999985    2.57999992
   14.64944458  136.82400513    4.90999985    2.82999992
   14.65277767  129.05999756    3.66000009    2.91000009
   14.65583324  133.39599609    1.64999998    2.93000007
   14.65666676  131.72999573    1.28999996    2.93000007
   14.65944386  133.72099304    1.21000004    2.94000006
   14.66277695  134.64700317    2.89000010    2.89000010
   14.66611099  134.00199890    3.20000005    2.86999989
   14.67194462  134.00199890    2.67000008    2.89000010
   14.67611122  132.58999634    1.26999998    2.94000006
   14.67944431  135.88499451    1.26999998    2.94000006
   14.68249989  129.50999451    1.19000006    2.94000006
   14.68583298  137.77299500    1.14999998    2.93000007
   14.68916702  128.08299255    1.01999998    2.93000007
   14.69000053  132.33399963    1.01999998    2.93000007
   14.69250011  135.15699768    1.03999996    2.93000007
   14.69583321  127.13200378    1.53999996    2.91000009
   14.69916630  134.34500122    2.23000002    2.93000007
   14.70222187  129.14500427    3.16000009    2.93000007
   14.70555496  132.57600403    4.90999985    2.78999996
   14.70888901  131.77200317    4.90999985    2.82999992
   14.71472168  131.77200317    4.17999983    2.86999989
   14.71888828  132.73399353    2.96000004    2.91000009
   14.72222137  132.97900391    2.67000008    2.91000009
   14.72333336  136.36199951    2.46000004    2.91000009
   14.72583294  135.95899963    1.58000004    2.93000007
   14.72916603  129.00799561    1.21000004    2.93000007
   14.73249912  135.71099854    1.16999996    2.94000006
   14.73555565  130.90499878    1.88000000    2.91000009
   14.73888874  132.15100098    2.05999994    2.91000009
   14.74222279  140.84899902    2.57999992    2.89000010
   14.74527836  136.93800354    2.57999992    2.89000010
   14.74861145  138.12699890    2.53999996    2.91000009
   14.75166702  138.57000732    2.46000004    2.91000009
   14.75777817  138.57000732    1.64999998    2.93000007
   14.76194477  133.37100220    1.50000000    2.94000006
   14.76500034  134.29800415    3.01999998    2.91000009
   14.76833344  136.95500183    4.38999987    2.76999998
   14.77138901  136.58399963    4.13999987    2.84999990
   14.77472210  134.64799500    3.70000005    2.91000009
   14.77805519  129.88600159    3.05999994    2.89000010
   14.78111076  130.52900696    3.73000002    2.89000010
   14.78444481  128.87800598    3.59999990    2.84999990
   14.78777790  130.99299622    3.03999996    2.91000009
   14.79000092  135.66099548    2.17000008    2.91000009
   14.79111195  130.80700684    1.61000001    2.93000007
   14.79444504  129.46200562    1.44000006    2.93000007
   14.80055618  129.46200562    0.80000001    2.93000007
   14.80472279  131.71200562    0.79000002    2.93000007
   14.80777836  124.43599701    0.79000002    2.93000007
   14.81111145  130.97700500    0.76999998    2.93000007
   14.81444454  130.57499695    0.76999998    2.94000006
   14.81750011  130.36000061    0.76999998    2.94000006
   14.82083321  132.33200073    0.76999998    2.94000006
   14.82333374  127.80699921    0.76999998    2.94000006
   14.82472229  128.88299561    0.76999998    2.94000006
   14.82777786  130.56199646    0.75000000    2.94000006
   14.83111095  130.13499451    0.75000000    2.93000007
   14.83416653  125.95700073    0.75000000    2.93000007
   14.83749962  134.09100342    0.75000000    2.93000007
   14.84333324  134.09100342    0.75000000    2.94000006
   14.84749985  132.13200378    0.75000000    2.93000007
   14.85083389  134.07499695    0.73000002    2.93000007
   14.85388947  131.62800598    0.73000002    2.93000007
   14.85666752  124.89099884    0.73000002    2.93000007
   14.85750008  132.06399536    0.75000000    2.94000006
   14.86083412  126.84400177    0.75000000    2.94000006
   14.86416721  126.38999939    0.75000000    2.94000006
   14.86722279  127.69300079    0.76999998    2.93000007
   14.87055588  124.34200287    0.75000000    2.94000006
   14.87388897  130.73800659    0.75000000    2.94000006
   14.87694454  128.78399658    0.75000000    2.93000007
   14.88027763  128.01400757    0.75000000    2.94000006
   14.88611126  128.01400757    0.73000002    2.94000006
   14.89027786  129.43400574    0.73000002    2.94000006
   14.89361095  120.75399780    0.73000002    2.94000006
   14.89694405  129.04600525    0.73000002    2.94000006
   14.89999962  132.50599670    0.73000002    2.94000006
   14.90333271  129.80400085    0.73000002    2.94000006
   14.90638828  109.84600067    0.73000002    2.94000006
   14.90972137  129.72300720    0.73000002    2.94000006
   14.91305542  125.96099854    0.73000002    2.94000006
   14.91611099  129.19299316    0.76999998    2.94000006
   14.91944504  135.55900574    0.80000001    2.94000006
   14.92277813  130.36700439    0.80000001    2.94000006
   14.92333412  132.72900391    0.80000001    2.94000006
   14.92916679  132.72900391    0.80000001    2.94000006
   14.93333340  131.09800720    0.81999999    2.94000006
   14.93638897  115.90299988    0.80000001    2.94000006
   14.93972206  123.04599762    0.80000001    2.94000006
   14.94277763  128.61000061    0.80000001    2.94000006
   14.94611073  124.48400116    0.80000001    2.94000006
   14.94944477  123.74500275    0.79000002    2.93000007
   14.95249939  124.87500000    0.79000002    2.94000006
   14.95583344  127.46299744    0.79000002    2.94000006
   14.95666695  122.26300049    0.79000002    2.94000006
   14.95944405  123.58799744    0.79000002    2.94000006
   14.96249962  124.84400177    0.80000001    2.94000006
   14.96583271  125.02400208    0.79000002    2.94000006
   14.97194386  125.02400208    0.80000001    2.94000006
   14.97611046  127.73300171    0.80000001    2.94000006
   14.97916603  136.43699646    0.81999999    2.94000006
   14.98249912  123.62899780    0.83999997    2.94000006
   14.98583317  131.44799805    0.83999997    2.94000006
   14.98916721  123.61799622    0.83999997    2.94000006
   14.99000072  128.97700500    0.83999997    2.94000006
   14.99277782  123.88899994    0.89999998    2.94000006
   14.99583340   88.76540375    0.89999998    2.94000006
   14.99916649  124.85700226    0.89999998    2.93000007
   15.00222206   99.65119934    0.89999998    2.94000006
   15.00555515  119.45999908    0.89999998    2.94000006
   15.00888920  115.06600189    0.89999998    2.94000006
   15.01472187  115.06600189    0.89999998    2.96000004
   15.01888847  119.45899963    0.88000000    2.94000006
   15.02222157  119.93199921    0.89999998    2.93000007
   15.02333355  124.05100250    0.89999998    2.93000007
   15.02583313  123.27400208    0.89999998    2.93000007
   15.02888870  113.09899902    0.89999998    2.93000007
   15.03222179  117.75900269    0.89999998    2.94000006
   15.03527832  117.31600189    0.89999998    2.93000007
   15.03861141  123.75099945    0.92000002    2.93000007
   15.04194450  122.96199799    0.92000002    2.94000006
   15.04500008  122.50599670    0.92000002    2.94000006
   15.04833412  116.33300018    0.92000002    2.94000006
   15.05166721  125.59899902    0.88000000    2.94000006
   15.05749989  125.59899902    0.88000000    2.94000006
   15.06166649  130.08700562    0.88000000    2.94000006
   15.06500053  125.97799683    0.88000000    2.93000007
   15.06833363  121.91899872    0.88000000    2.94000006
   15.07138920  116.39499664    0.89999998    2.94000006
   15.07472229  127.32700348    0.89999998    2.94000006
   15.07777786  133.52000427    0.89999998    2.94000006
   15.08111095  128.38600159    0.92000002    2.94000006
   15.08444405  123.28299713    0.98000002    2.94000006
   15.08749962  129.23100281    1.01999998    2.94000006
   15.09000015  128.39300537    1.01999998    2.94000006
   15.09138870  115.67500305    0.98000002    2.94000006
   15.09444427  121.44699860    1.00000000    2.94000006
   15.10055637  121.44699860    1.00000000    2.93000007
   15.10444450  122.26499939    1.01999998    2.93000007
   15.10777855  121.68800354    1.03999996    2.93000007
   15.11111164  120.92900085    1.11000001    2.93000007
   15.11416721  120.65599823    1.11000001    2.93000007
   15.11750031  119.61900330    1.11000001    2.94000006
   15.12083340  124.68299866    1.11000001    2.94000006
   15.12333393  121.93399811    1.11000001    2.94000006
   15.12444496  118.58200073    1.14999998    2.93000007
   15.12750053  123.93699646    1.21000004    2.93000007
   15.13083363  116.92500305    1.21000004    2.93000007
   15.13416672  128.58099365    1.23000002    2.94000006
   15.13722229  123.53399658    1.23000002    2.93000007
   15.14333344  123.53399658    1.21000004    2.94000006
   15.14750004  124.16300201    1.21000004    2.94000006
   15.15055561  125.21600342    1.19000006    2.93000007
   15.15388870  119.33999634    1.16999996    2.93000007
   15.15666676  123.80200195    1.14999998    2.94000006
   15.15777779  122.63500214    1.14999998    2.93000007
   15.16083336  125.58799744    1.13000000    2.93000007
   15.16416645  131.33799744    1.09000003    2.94000006
   15.16750050  124.67299652    1.09000003    2.94000006
   15.17055607  133.32699585    1.07000005    2.93000007
   15.17388916  126.63800049    1.07000005    2.94000006
   15.17694473  117.60900116    1.07000005    2.93000007
   15.18027782  122.17800140    1.05999994    2.94000006
   15.18611145  122.17800140    1.03999996    2.94000006
   15.19027805  119.84100342    1.05999994    2.94000006
   15.19361115  121.82499695    1.05999994    2.94000006
   15.19666672  121.59899902    1.05999994    2.94000006
   15.19999981  123.28099823    1.11000001    2.93000007
   15.20305538  113.09600067    1.11000001    2.94000006
   15.20638847  118.54499817    1.11000001    2.94000006
   15.20972157  119.89399719    1.11000001    2.94000006
   15.21277714  122.87999725    1.11000001    2.94000006
   15.21611118  124.84999847    1.09000003    2.93000007
   15.21944427  122.21800232    1.09000003    2.94000006
   15.22249985  127.39399719    1.09000003    2.94000006
   15.22333336  126.42299652    1.09000003    2.94000006
   15.22888851  126.42299652    1.14999998    2.93000007
   15.23305511  128.45300293    1.14999998    2.94000006
   15.23638916  129.68200684    1.13000000    2.93000007
   15.23944473  123.11199951    1.14999998    2.94000006
   15.24277782  121.64299774    1.14999998    2.94000006
   15.24611092  122.50099945    1.14999998    2.94000006
   15.24916649  115.33599854    1.14999998    2.94000006
   15.25249958  121.59799957    1.13000000    2.94000006
   15.25583363  118.59500122    1.13000000    2.94000006
   15.25666714  121.60800171    1.13000000    2.94000006
   15.25944424  115.83399963    1.13000000    2.94000006
   15.26249981  117.89700317    1.09000003    2.94000006
   15.26583290  121.11499786    1.09000003    2.94000006
   15.27194405  121.11499786    1.07000005    2.94000006
   15.27611065  112.40100098    1.05999994    2.94000006
   15.27916622  119.18499756    1.05999994    2.94000006
   15.28249931  122.30999756    1.05999994    2.94000006
   15.28555584  117.30899811    1.07000005    2.94000006
   15.28888893  118.12400055    1.05999994    2.93000007
   15.29000092  124.63500214    1.05999994    2.94000006
   15.29250050  121.74600220    1.05999994    2.94000006
   15.29555607  121.77700043    1.05999994    2.94000006
   15.29888916  118.72899628    1.05999994    2.94000006
   15.30222225  122.27500153    1.05999994    2.94000006
   15.30527782  118.29599762    1.07000005    2.94000006
   15.30861092  116.06199646    1.09000003    2.93000007
   15.31472206  116.06199646    1.09000003    2.94000006
   15.31888866  128.16999817    1.09000003    2.94000006
   15.32194424  116.68599701    1.09000003    2.94000006
   15.32333374  120.87100220    1.09000003    2.94000006
   15.32583332  124.31999969    1.11000001    2.94000006
   15.32888889  119.76499939    1.11000001    2.94000006
   15.33222198  119.33300018    1.13000000    2.94000006
   15.33555508  120.50599670    1.14999998    2.94000006
   15.33861065  114.52999878    1.14999998    2.93000007
   15.34194374  118.68800354    1.13000000    2.94000006
   15.34499931  117.37799835    1.13000000    2.94000006
   15.34833336  115.11199951    1.13000000    2.94000006
   15.35166740  122.32399750    1.14999998    2.93000007
   15.35750008  122.32399750    1.13000000    2.94000006
   15.36166668  112.25900269    1.13000000    2.93000007
   15.36500072  120.18599701    1.11000001    2.94000006
   15.36805534  119.28199768    1.13000000    2.93000007
   15.37138939  122.13500214    1.13000000    2.93000007
   15.37444496  120.26799774    1.11000001    2.94000006
   15.37777805  114.43900299    1.11000001    2.94000006
   15.38111115  117.19599915    1.11000001    2.93000007
   15.38416672  123.41999817    1.11000001    2.93000007
   15.38749981  117.29900360    1.11000001    2.94000006
   15.39000034  118.85299683    1.13000000    2.94000006
   15.39111137  116.29599762    1.13000000    2.94000006
   15.39416695  119.03500366    1.13000000    2.94000006
   15.40027714  119.03500366    1.13000000    2.94000006
   15.40444374  121.35600281    1.11000001    2.94000006
   15.40777779  120.51699829    1.13000000    2.94000006
   15.41083336  118.09400177    1.13000000    2.93000007
   15.41416645  115.54100037    1.13000000    2.93000007
   15.41750050  120.86000061    1.11000001    2.94000006
   15.42055607  122.81900024    1.16999996    2.93000007
   15.42333412  127.00499725    1.19000006    2.94000006
   15.42444515  122.49500275    1.21000004    2.94000006
   15.42750072  121.66699982    1.19000006    2.94000006
   15.43083382  119.69400024    1.21000004    2.94000006
   15.43416691  124.76300049    1.19000006    2.94000006
   15.43722248  123.62599945    1.19000006    2.94000006
   15.44333363  123.62599945    1.21000004    2.93000007
   15.44750023  112.27400208    1.25000000    2.94000006
   15.45055580  118.15200043    1.33000004    2.94000006
   15.45388889  116.02500153    1.33000004    2.94000006
   15.45666695  113.56400299    1.36000001    2.93000007
   15.45749950  115.75099945    1.36000001    2.93000007
   15.46055508  121.11900330    1.38000000    2.93000007
   15.46388912  114.52400208    1.38000000    2.93000007
   15.46722221  116.78900146    1.38000000    2.94000006
   15.47027779  112.76200104    1.39999998    2.94000006
   15.47361088  115.46600342    1.44000006    2.93000007
   15.47694397  121.08999634    1.46000004    2.93000007
   15.47999954  120.98999786    1.46000004    2.93000007
   15.48611164  120.98999786    1.46000004    2.93000007
   15.49027824  114.56700134    1.44000006    2.93000007
   15.49333382  119.19799805    1.46000004    2.93000007
   15.49666691  124.95300293    1.44000006    2.94000006
   15.50000000  119.39800262    1.44000006    2.93000007
   15.50305557  116.94200134    1.44000006    2.93000007
   15.50638866  123.19999695    1.41999996    2.94000006
   15.50944424  120.95999908    1.38000000    2.93000007
   15.51277733  122.32499695    1.38000000    2.93000007
   15.51611137  124.94100189    1.38000000    2.93000007
   15.51916599  118.47100067    1.38000000    2.93000007
   15.52250004  115.66500092    1.38000000    2.93000007
   15.52333355  117.42800140    1.39999998    2.93000007
   15.54416752  117.42800140    1.38000000    2.93000007
   15.54805565  116.83000183    1.51999998    2.93000007
   15.55138874  120.43000031    1.51999998    2.93000007
   15.55472279  117.88300323    1.53999996    2.93000007
   15.55666733  117.05999756    1.51999998    2.93000007
   15.55833340  122.01000214    1.51999998    2.93000007
   15.56166649  118.47599792    1.51999998    2.93000007
   15.56472206  119.53199768    1.51999998    2.93000007
   15.56805515  120.43399811    1.51999998    2.93000007
   15.57111073  117.50800323    1.53999996    2.93000007
   15.57444477  121.80500031    1.58000004    2.93000007
   15.57777786  118.46800232    1.55999994    2.93000007
   15.58083344  113.58000183    1.58000004    2.93000007
   15.58666611  113.58000183    1.60000002    2.93000007
   15.59083271  109.37699890    1.60000002    2.93000007
   15.59416676  120.65299988    1.64999998    2.93000007
   15.59749985  114.74500275    1.78999996    2.93000007
   15.60055637  119.86199951    1.78999996    2.93000007
   15.60388947  119.14499664    1.78999996    2.93000007
   15.60694504  121.54599762    1.78999996    2.93000007
   15.61027813  114.18699646    1.86000001    2.91000009
   15.61361122  117.86100006    1.91999996    2.91000009
   15.61666679  119.60099792    1.89999998    2.93000007
   15.61999989  115.12599945    1.89999998    2.93000007
   15.62305546  120.66200256    1.91999996    2.93000007
   15.62361145  114.12999725    1.91999996    2.93000007
   15.62972260  114.12999725    1.96000004    2.91000009
   15.63388920  118.95800018    1.91999996    2.93000007
   15.63694477  122.72200012    1.88000000    2.91000009
   15.64027786  119.38500214    1.85000002    2.93000007
   15.64333344  114.41300201    1.85000002    2.93000007
   15.64666653  114.09300232    1.85000002    2.93000007
   15.64999962  115.09100342    1.85000002    2.93000007
   15.65305519  118.21700287    1.83000004    2.93000007
   15.65638828  117.97599792    1.73000002    2.93000007
   15.65694427  112.32299805    1.73000002    2.93000007
   15.65999985  118.96499634    1.73000002    2.93000007
   15.66333294  117.10500336    1.73000002    2.93000007
   15.66666698  113.19999695    1.71000004    2.91000009
   15.67250061  113.19999695    1.53999996    2.93000007
   15.67666721  115.86900330    1.53999996    2.94000006
   15.67972279  126.41400146    1.53999996    2.94000006
   15.68305588  115.23400116    1.51999998    2.94000006
   15.68638897  121.12999725    1.51999998    2.93000007
   15.68944454  120.88400269    1.50000000    2.93000007
   15.69027805  119.61299896    1.50000000    2.93000007
   15.69305515  126.48999786    1.51999998    2.93000007
   15.69638920  123.06400299    1.55999994    2.93000007
   15.69944477  120.25199890    1.61000001    2.93000007
   15.70277786  113.06300354    1.63000000    2.93000007
   15.70611095  117.70300293    1.63000000    2.93000007
   15.70916653  122.58000183    1.63000000    2.93000007
   15.71527767  122.58000183    1.53999996    2.91000009
   15.71944427  121.14499664    1.53999996    2.93000007
   15.72277737  118.87999725    1.53999996    2.93000007
   15.72361088  122.36199951    1.55999994    2.93000007
   15.72638798  116.87599945    1.55999994    2.93000007
   15.72972202  118.55400085    1.55999994    2.93000007
   15.73277760  119.30999756    1.55999994    2.93000007
   15.73611164  117.83200073    1.55999994    2.93000007
   15.73944473  117.70200348    1.55999994    2.93000007
   15.74250031  117.69999695    1.55999994    2.93000007
   15.74583340  117.61799622    1.58000004    2.93000007
   15.74916649  109.84500122    1.58000004    2.93000007
   15.75222206  114.74299622    1.58000004    2.93000007
   15.75805569  114.74299622    1.58000004    2.93000007
   15.76222229  117.73200226    1.55999994    2.93000007
   15.76555538  112.81999969    1.61000001    2.93000007
   15.76888847  114.74600220    1.60000002    2.93000007
   15.77194405  117.85399628    1.55999994    2.93000007
   15.77527714  117.96600342    1.55999994    2.93000007
   15.77833271  123.48100281    1.55999994    2.93000007
   15.78166676  117.05400085    1.55999994    2.93000007
   15.78500080  116.77100372    1.50000000    2.93000007
   15.78805637  121.16400146    1.48000002    2.93000007
   15.79055595  123.55500031    1.48000002    2.93000007
   15.79166698  114.43399811    1.48000002    2.93000007
   15.79500008  117.05999756    1.46000004    2.93000007
   15.80111122  117.05999756    1.46000004    2.93000007
   15.80500031  112.69999695    1.48000002    2.93000007
   15.80833340  115.13200378    1.48000002    2.93000007
   15.81166649  115.65899658    1.50000000    2.93000007
   15.81472206  115.67400360    1.50000000    2.93000007
   15.81805515  118.44999695    1.51999998    2.93000007
   15.82138920  118.11900330    1.51999998    2.93000007
   15.82388878  119.79100037    1.53999996    2.93000007
   15.82472229  113.22000122    1.53999996    2.93000007
   15.82805538  118.12100220    1.51999998    2.93000007
   15.83111095  120.71199799    1.50000000    2.93000007
   15.83444405  116.18800354    1.41999996    2.93000007
   15.83777714  118.81600189    1.41999996    2.93000007
   15.84388828  118.81600189    1.41999996    2.93000007
   15.84805489  129.40199280    1.58000004    2.93000007
   15.85111141  111.18699646    1.60000002    2.93000007
   15.85444450  128.47300720    1.58000004    2.93000007
   15.85722256  164.74099731    1.58000004    2.93000007
   15.85805607  140.10299683    1.58000004    2.93000007
   15.86138916  147.23599243    1.58000004    2.93000007
   15.86444473  125.24400330    1.58000004    2.93000007
   15.86777782  121.76599884    1.61000001    2.93000007
   15.87111092  117.99800110    1.61000001    2.93000007
   15.87416649  118.20800018    1.64999998    2.93000007
   15.87750053  118.92299652    1.63000000    2.93000007
   15.88083363  118.40000153    1.66999996    2.91000009
   15.88666630  118.40000153    1.73000002    2.93000007
   15.89083290  115.63500214    1.76999998    2.93000007
   15.89388847  115.47000122    1.75000000    2.91000009
   15.89722252  110.13500214    1.75000000    2.93000007
   15.90055561  113.21800232    1.76999998    2.93000007
   15.90361118  115.48200226    1.75000000    2.93000007
   15.90694427  115.52100372    2.21000004    2.94000006
   15.91027737  119.02899933    4.63999987    2.84999990
   15.91333294  127.45600128    4.90999985    2.84999990
   15.91666698  138.31300354    4.90999985    2.75000000
   15.91972256  136.67999268    4.90999985    2.59999990
   15.92305565  138.04800415    4.90999985    2.64000010
   15.92388916  138.49400330    4.90999985    2.67000008
   15.92944431  138.49400330    4.90999985    2.66000009
   15.93361092  136.73300171    4.90999985    2.57999992
   15.93694496  131.78199768    4.90999985    2.50000000
   15.94000053  122.86100006    4.90999985    2.71000004
   15.94333363  151.06399536    4.90999985    2.67000008
   15.94666672  131.13900757    4.90999985    2.48000002
   15.94972229  126.50499725    4.90999985    2.80999994
   15.95305538  118.23600006    4.90999985    2.84999990
   15.95638847  108.67500305    4.90999985    2.84999990
   15.95722198  118.23300171    4.90999985    2.89000010
   15.95972157  114.97299957    3.18000007    2.89000010
   15.96305561  128.88600159    1.86000001    2.93000007
   15.96611118  116.33399963    1.61000001    2.93000007
   15.97249985  116.33399963    1.60000002    2.91000009
   15.97638798  117.30400085    1.58000004    2.93000007
   15.97972202  113.88099670    1.60000002    2.93000007
   15.98305511  118.14900208    1.60000002    2.93000007
   15.98611164  118.55999756    1.60000002    2.93000007
   15.98944473  114.22100067    1.61000001    2.93000007
   15.99055576  119.72899628    1.60000002    2.93000007
   15.99305534  116.06400299    1.58000004    2.93000007
   15.99638939  118.03399658    1.58000004    2.93000007
   15.99972248  111.50399780    1.58000004    2.93000007
   16.00277710  115.08999634    1.58000004    2.93000007
   16.00611115  114.80200195    1.58000004    2.93000007
   16.00916672  121.39600372    1.58000004    2.91000009
   16.01527786  121.39600372    1.55999994    2.93000007
   16.01944351  117.40399933    1.53999996    2.93000007
   16.02249908  114.85099792    1.51999998    2.93000007
   16.02388954  115.09600067    1.51999998    2.93000007
   16.02611160  112.45999908    1.50000000    2.93000007
   16.02944374  124.73200226    1.50000000    2.93000007
   16.03249931  119.73799896    1.50000000    2.93000007
   16.03583336  117.91500092    1.53999996    2.93000007
   16.03916550  124.08799744    1.55999994    2.93000007
   16.04222107  116.11499786    1.55999994    2.93000007
   16.04555511  115.51699829    1.53999996    2.93000007
   16.04888916  114.61799622    1.58000004    2.91000009
   16.05194283  112.09100342    1.58000004    2.93000007
   16.05805397  112.09100342    1.60000002    2.93000007
   16.06222153  117.04199982    1.61000001    2.93000007
   16.06555557  114.39600372    1.60000002    2.94000006
   16.06861115  115.80200195    1.60000002    2.93000007
   16.07194519  119.75399780    1.55999994    2.94000006
   16.07500076  116.46700287    1.53999996    2.93000007
   16.07833481  121.81099701    1.53999996    2.93000007
   16.08166695  117.94899750    1.51999998    2.93000007
   16.08472252  120.17299652    1.50000000    2.93000007
   16.08805656  111.17700195    1.48000002    2.93000007
   16.09055710  123.16000366    1.48000002    2.93000007
   16.09166718  121.40100098    1.46000004    2.93000007
   16.09500122  118.17400360    1.46000004    2.93000007
   16.10083389  118.17400360    1.44000006    2.94000006
   16.10499954  111.16699982    1.44000006    2.94000006
   16.10833359  113.32700348    1.46000004    2.94000006
   16.11138916  115.15699768    1.50000000    2.93000007
   16.11472321  114.29299927    1.53999996    2.93000007
   16.11805534  120.64800262    1.53999996    2.93000007
   16.12111092  115.88500214    1.51999998    2.93000007
   16.12388992  115.01300049    1.51999998    2.93000007
   16.12472153  108.71499634    1.51999998    2.93000007
   16.12805557  116.54399872    1.51999998    2.94000006
   16.13138962  113.42199707    1.51999998    2.94000006
   16.13444519  111.83699799    1.51999998    2.94000006
   16.13777733  118.00599670    1.53999996    2.93000007
   16.14388847  118.00599670    1.53999996    2.93000007
   16.14805603  114.78199768    1.53999996    2.93000007
   16.15111160  112.03700256    1.53999996    2.93000007
   16.15444374  116.14099884    1.55999994    2.93000007
   16.15722275  124.99199677    1.55999994    2.93000007
   16.15805435  117.59500122    1.55999994    2.93000007
   16.16138840  110.66500092    1.53999996    2.93000007
   16.16472244  113.71499634    1.50000000    2.94000006
   16.16777802  113.47299957    1.50000000    2.94000006
   16.17111015  115.79699707    1.50000000    2.94000006
   16.17416573  115.14299774    1.50000000    2.94000006
   16.17749977  115.33100128    1.51999998    2.93000007
   16.18083191  119.15499878    1.51999998    2.93000007
   16.18666649  119.15499878    1.50000000    2.93000007
   16.19083214  114.91200256    1.50000000    2.94000006
   16.19388771  113.77100372    1.50000000    2.93000007
   16.19722176  118.16300201    1.50000000    2.93000007
   16.20027924  112.03700256    1.53999996    2.93000007
   16.20361137  112.71499634    1.50000000    2.93000007
   16.20694542  112.90799713    1.50000000    2.93000007
   16.21000099  116.53299713    1.50000000    2.93000007
   16.21333504  115.33999634    1.50000000    2.93000007
   16.21666718  113.57599640    1.50000000    2.93000007
   16.21972275  117.16500092    1.51999998    2.93000007
   16.22305679  115.72100067    1.51999998    2.94000006
   16.22389030  116.48100281    1.51999998    2.94000006
   16.22944450  116.48100281    1.51999998    2.94000006
   16.23361206  116.40299988    1.51999998    2.93000007
   16.23666763  116.80200195    1.51999998    2.93000007
   16.23999977  109.75199890    1.53999996    2.94000006
   16.24333382  114.92400360    1.53999996    2.94000006
   16.24666786  118.29900360    1.53999996    2.93000007
   16.24972153  117.38300323    1.51999998    2.93000007
   16.25305557  117.81900024    1.53999996    2.93000007
   16.25638962  114.31999969    1.51999998    2.93000007
   16.25722313  122.30899811    1.51999998    2.93000007
   16.26000023  124.47299957    1.51999998    2.93000007
   16.26305580  122.04000092    1.53999996    2.93000007
   16.26638794  114.53199768    1.51999998    2.93000007
   16.27222252  114.53199768    1.50000000    2.94000006
   16.27638817  119.53099823    1.50000000    2.93000007
   16.27972221  116.41100311    1.50000000    2.94000006
   16.28305435  112.37999725    1.48000002    2.94000006
   16.28610992  121.36799622    1.48000002    2.94000006
   16.28944397  111.97100067    1.48000002    2.94000006
   16.29055595  119.41899872    1.48000002    2.94000006
   16.29277802  115.40899658    1.48000002    2.93000007
   16.29611015  111.96499634    1.48000002    2.93000007
   16.29944420  118.24800110    1.48000002    2.93000007
   16.30249977  120.76100159    1.48000002    2.93000007
   16.30583191  118.74500275    1.48000002    2.93000007
   16.30916595  116.11499786    1.46000004    2.94000006
   16.31527710  116.11499786    1.44000006    2.94000006
   16.31916809  121.12899780    1.46000004    2.94000006
   16.32250023  124.59899902    1.46000004    2.94000006
   16.32389069  115.65100098    1.46000004    2.94000006
   16.32611275  117.15200043    1.44000006    2.93000007
   16.32944489  123.85199738    1.41999996    2.93000007
   16.33277893  128.00399780    1.41999996    2.93000007
   16.33583450  115.15200043    1.39999998    2.93000007
   16.33916664  115.82800293    1.39999998    2.94000006
   16.34222221  104.59300232    1.39999998    2.94000006
   16.34555626  118.21399689    1.39999998    2.94000006
   16.34889030  122.08799744    1.39999998    2.94000006
   16.35194397  124.48000336    1.39999998    2.93000007
   16.35805511  124.48000336    1.34000003    2.93000007
   16.36222267  114.95899963    1.34000003    2.94000006
   16.36527824  120.13200378    1.34000003    2.94000006
   16.36861038  119.74500275    1.33000004    2.94000006
   16.37166595  123.56300354    1.33000004    2.94000006
   16.37500000  125.07800293    1.30999994    2.93000007
   16.37833405  123.52100372    1.30999994    2.94000006
   16.38138962  117.97699738    1.28999996    2.94000006
   16.38472176  117.41200256    1.28999996    2.94000006
   16.38805580  117.39700317    1.30999994    2.94000006
   16.39055634  117.43199921    1.30999994    2.94000006
   16.39138794  116.59600067    1.28999996    2.93000007
   16.39472198  118.08999634    1.28999996    2.93000007
   16.40083313  118.08999634    1.30999994    2.93000007
   16.40499878  120.60500336    1.28999996    2.94000006
   16.40805435  114.36599731    1.28999996    2.94000006
   16.41138840  116.04699707    1.28999996    2.93000007
   16.41472244  121.15299988    1.39999998    2.94000006
   16.41777802  114.86599731    1.39999998    2.94000006
   16.42111015  117.30100250    1.39999998    2.94000006
   16.42388916  118.58000183    1.39999998    2.94000006
   16.42499924  118.48500061    1.39999998    2.94000006
   16.42805481  114.26799774    1.36000001    2.94000006
   16.43138885  121.46499634    1.34000003    2.94000006
   16.43444443  114.71199799    1.33000004    2.94000006
   16.43777657  124.29799652    1.30999994    2.93000007
   16.44361115  124.29799652    1.28999996    2.94000006
   16.44777679  119.48200226    1.26999998    2.93000007
   16.45111275  115.72899628    1.26999998    2.94000006
   16.45416832  120.88099670    1.26999998    2.94000006
   16.45722389  118.81800079    1.26999998    2.94000006
   16.45777893  116.18599701    1.26999998    2.94000006
   16.46111107  121.04000092    1.28999996    2.94000006
   16.46444511  116.69699860    1.34000003    2.93000007
   16.46750069  115.69599915    1.34000003    2.93000007
   16.47083473  122.89199829    1.34000003    2.93000007
   16.47416687  117.46399689    1.36000001    2.93000007
   16.47722244  120.81300354    1.36000001    2.94000006
   16.48055649  121.13200378    1.36000001    2.94000006
   16.48638916  121.13200378    1.38000000    2.94000006
   16.49055672  126.09300232    1.38000000    2.93000007
   16.49388885  111.92199707    1.34000003    2.93000007
   16.49722290  124.97699738    1.34000003    2.94000006
   16.50027847  120.85299683    1.36000001    2.94000006
   16.50361061  115.38600159    1.36000001    2.94000006
   16.50666618  111.98899841    1.36000001    2.94000006
   16.51000023  117.38800049    1.36000001    2.93000007
   16.51333427  119.89299774    1.36000001    2.93000007
   16.51638794  115.52200317    1.36000001    2.93000007
   16.51972198  119.72799683    1.39999998    2.93000007
   16.52305603  121.30699921    1.38000000    2.94000006
   16.52388954  117.58599854    1.38000000    2.94000006
   16.52944374  117.58599854    1.38000000    2.94000006
   16.53361130  120.47699738    1.38000000    2.94000006
   16.53666687  118.21700287    1.38000000    2.93000007
   16.53999901  126.81500244    1.38000000    2.93000007
   16.55749893  116.39900208    1.34000003    2.94000006
   16.55999947  112.74199677    1.34000003    2.94000006
   16.56305504  118.72100067    1.34000003    2.94000006
   16.56638718  117.16999817    1.36000001    2.94000006
   16.57250023  117.16999817    1.34000003    2.94000006
   16.57638931  117.40699768    1.34000003    2.93000007
   16.57972336  115.52400208    1.34000003    2.94000006
   16.58305550  115.92500305    1.36000001    2.93000007
   16.58611107  109.12899780    1.36000001    2.94000006
   16.58944511  118.34999847    1.36000001    2.94000006
   16.59083366  115.81199646    1.36000001    2.94000006
   16.59305573  113.82499695    1.36000001    2.94000006
   16.59638977  118.76799774    1.36000001    2.94000006
   16.59972191  117.92199707    1.36000001    2.94000006
   16.60277748  121.00199890    1.36000001    2.93000007
   16.60611153  120.52999878    1.36000001    2.93000007
   16.60944557  125.75599670    1.36000001    2.94000006
   16.61527824  125.75599670    1.36000001    2.94000006
   16.61944389  119.67700195    1.39999998    2.94000006
   16.62249947  114.34100342    1.39999998    2.94000006
   16.62416649  114.83599854    1.39999998    2.94000006
   16.62611198  113.63600159    1.39999998    2.94000006
   16.62944412  117.81999969    1.39999998    2.93000007
   16.63277817  114.81800079    1.41999996    2.94000006
   16.63583374  115.04499817    1.44000006    2.94000006
   16.63916588  114.81500244    1.41999996    2.93000007
   16.64222145  113.09400177    1.39999998    2.93000007
   16.64583397  114.54100037    1.39999998    2.93000007
   16.64888954  118.05699921    1.39999998    2.93000007
   16.65222168  115.45200348    1.39999998    2.93000007
   16.65861130  115.45200348    1.39999998    2.94000006
   16.66277695  109.81099701    1.39999998    2.94000006
   16.66611099  126.00099945    1.39999998    2.93000007
   16.66916656  119.18199921    1.39999998    2.93000007
   16.67249870  117.28299713    1.38000000    2.93000007
   16.67583275  118.00399780    1.38000000    2.93000007
   16.67888832  116.35600281    1.38000000    2.93000007
   16.68222237  117.05200195    1.38000000    2.93000007
   16.68555450  114.76200104    1.38000000    2.93000007
   16.68861008  113.53700256    1.38000000    2.93000007
   16.69083214  120.53700256    1.38000000    2.93000007
   16.69222069  116.80400085    1.34000003    2.94000006
   16.69555473  112.96299744    1.34000003    2.94000006
   16.70083427  112.96299744    1.33000004    2.94000006
   16.70499992  119.23500061    1.33000004    2.94000006
   16.70833397  111.38999939    1.33000004    2.94000006
   16.71166801  114.07399750    1.33000004    2.94000006
   16.71472359  119.93900299    1.33000004    2.94000006
   16.71805573  114.68299866    1.33000004    2.93000007
   16.72138977  117.29599762    1.33000004    2.94000006
   16.72416687  115.98699951    1.33000004    2.94000006
   16.72500038  115.57800293    1.33000004    2.94000006
   16.72833443  114.55200195    1.33000004    2.93000007
   16.73166656  112.31800079    1.33000004    2.93000007
   16.73472214  117.39499664    1.36000001    2.94000006
   16.73805618  117.56400299    1.34000003    2.93000007
   16.74388885  117.56400299    1.34000003    2.94000006
   16.74777794  115.28800201    1.33000004    2.93000007
   16.75111198  115.60099792    1.34000003    2.94000006
   16.75444412  115.21199799    1.34000003    2.94000006
   16.75749969  117.99700165    1.34000003    2.94000006
   16.75805473  111.37999725    1.34000003    2.94000006
   16.76138878  118.98400116    1.33000004    2.94000006
   16.76472282  112.89199829    1.36000001    2.94000006
   16.76777840  115.98200226    1.36000001    2.94000006
   16.77111053  114.47200012    1.36000001    2.94000006
   16.77444458  122.44599915    1.36000001    2.94000006
   16.77750015  114.46299744    1.36000001    2.94000006
   16.78083229  117.18499756    1.34000003    2.94000006
   16.78666687  117.18499756    1.34000003    2.94000006
   16.79083252  115.60700226    1.36000001    2.93000007
   16.79388809  108.77100372    1.34000003    2.94000006
   16.79722214  122.30300140    1.34000003    2.94000006
   16.80055428  126.63300323    1.33000004    2.94000006
   16.80360985  117.22799683    1.33000004    2.93000007
   16.80694389  111.10399628    1.30999994    2.94000006
   16.81027794  111.68199921    1.33000004    2.94000006
   16.81333351  115.37799835    1.28999996    2.94000006
   16.81666756  115.81800079    1.28999996    2.94000006
   16.82000160  112.81800079    1.26999998    2.94000006
   16.82305717  123.99400330    1.26999998    2.94000006
   16.82416725  116.54299927    1.26999998    2.94000006
   16.82944489  116.54299927    1.26999998    2.94000006
   16.83361244  120.20099640    1.26999998    2.94000006
   16.83666801  118.03199768    1.26999998    2.93000007
   16.84000015  119.02100372    1.26999998    2.94000006
   16.84333420  118.19300079    1.26999998    2.94000006
   16.84638977  118.02799988    1.26999998    2.94000006
   16.84972191  120.33300018    1.26999998    2.94000006
   16.85305595  114.66300201    1.26999998    2.94000006
   16.85611153  118.51399994    1.26999998    2.94000006
   16.85750008  118.47899628    1.26999998    2.93000007
   16.85972214  121.33200073    1.26999998    2.93000007
   16.86305618  115.55100250    1.25000000    2.94000006
   16.86638832  117.73899841    1.26999998    2.94000006
   16.87222290  117.73899841    1.26999998    2.94000006
   16.87638855  113.97799683    1.26999998    2.94000006
   16.87972260  117.62200165    1.26999998    2.94000006
   16.88277817  108.97599792    1.28999996    2.94000006
   16.88611031  113.59400177    1.28999996    2.94000006
   16.88944435  121.52200317    1.26999998    2.94000006
   16.89083290  118.10700226    1.26999998    2.94000006
   16.89305496  113.68699646    1.26999998    2.94000006
   16.89638901  112.45800018    1.26999998    2.93000007
   16.89944458  120.36399841    1.26999998    2.94000006
   16.90277672  114.27300262    1.26999998    2.94000006
   16.90583229  113.76399994    1.25000000    2.94000006
   16.90916634  118.56900024    1.25000000    2.94000006
   16.91527748  118.56900024    1.23000002    2.94000006
   16.91916656  117.12100220    1.25000000    2.94000006
   16.92249870  117.16899872    1.25000000    2.94000006
   16.92416573  120.12100220    1.25000000    2.94000006
   16.92611122  115.84899902    1.26999998    2.94000006
   16.92944336  111.89499664    1.26999998    2.94000006
   16.93277740  116.59600067    1.33000004    2.93000007
   16.93583298  127.89099884    1.34000003    2.94000006
   16.93916512  117.04199982    1.34000003    2.93000007
   16.94249916  120.73000336    1.34000003    2.93000007
   16.94555473  114.47399902    1.34000003    2.94000006
   16.94888878  108.14099884    1.34000003    2.94000006
   16.95194435  121.84700012    1.34000003    2.94000006
   16.95805550  121.84700012    1.33000004    2.93000007
   16.96222305  115.19999695    1.33000004    2.94000006
   16.96527863  117.65299988    1.33000004    2.94000006
   16.96861076  115.79900360    1.33000004    2.94000006
   16.97166634  110.84700012    1.30999994    2.94000006
   16.97500038  106.38600159    1.28999996    2.94000006
   16.97833443  117.58899689    1.28999996    2.94000006
   16.98139000  111.09100342    1.25000000    2.94000006
   16.98472214  116.37100220    1.25000000    2.94000006
   16.98805618  117.51300049    1.26999998    2.94000006
   16.99083328  113.87999725    1.26999998    2.94000006
   16.99138832  116.48100281    1.26999998    2.94000006
   16.99472237  104.90200043    1.25000000    2.94000006
   17.00083351  104.90200043    1.30999994    2.94000006
   17.00499916  116.19999695    1.28999996    2.94000006
   17.00833321  114.25299835    1.28999996    2.94000006
   17.01138878  114.86799622    1.33000004    2.93000007
   17.01472282  109.14399719    1.33000004    2.94000006
   17.01777840  118.54599762    1.28999996    2.94000006
   17.02111053  119.36199951    1.26999998    2.94000006
   17.02416611  117.58499908    1.26999998    2.94000006
   17.02472115  122.63999939    1.25000000    2.94000006
   17.02805519  117.99299622    1.25000000    2.94000006
   17.03138924  118.54599762    1.23000002    2.94000006
   17.03444481  122.91400146    1.19000006    2.94000006
   17.03777695  120.05599976    1.19000006    2.94000006
   17.04361153  120.05599976    1.16999996    2.94000006
   17.04777718  121.06099701    1.16999996    2.94000006
   17.05111122  113.62599945    1.19000006    2.94000006
   17.05416679  115.79799652    1.19000006    2.94000006
   17.05749893  113.56400299    1.16999996    2.94000006
   17.05777740  124.24299622    1.19000006    2.94000006
   17.06110954  117.41699982    1.16999996    2.94000006
   17.06444359  117.29399872    1.16999996    2.94000006
   17.06777954  119.71600342    1.19000006    2.94000006
   17.07083511  120.52400208    1.28999996    2.96000004
   17.07416725  121.93699646    1.28999996    2.94000006
   17.07750130  123.93499756    1.28999996    2.94000006
   17.08055687  118.81700134    1.28999996    2.94000006
   17.08638954  118.81700134    1.30999994    2.94000006
   17.09055710  110.66200256    1.26999998    2.93000007
   17.09111214  110.28500366    1.26999998    2.93000007
   17.09444427  112.65399933    1.26999998    2.94000006
   17.09777832  115.65699768    1.25000000    2.93000007
   17.10083389  113.87599945    1.25000000    2.93000007
   17.10416794  110.38800049    1.25000000    2.93000007
   17.10750008  121.25299835    1.25000000    2.94000006
   17.11055565  114.63899994    1.26999998    2.93000007
   17.11388969  114.04799652    1.30999994    2.94000006
   17.11694527  110.49600220    1.39999998    2.94000006
   17.12027740  118.40899658    1.39999998    2.94000006
   17.12361145  112.96299744    1.41999996    2.94000006
   17.12444496  115.36000061    1.41999996    2.94000006
   17.12944412  115.36000061    1.39999998    2.94000006
   17.13361168  109.73799896    1.39999998    2.94000006
   17.13666725  109.31700134    1.39999998    2.94000006
   17.13999939  113.05599976    1.39999998    2.94000006
   17.14305496  112.81400299    1.36000001    2.93000007
   17.14638901  111.71800232    1.36000001    2.94000006
   17.14972115  113.64600372    1.38000000    2.94000006
   17.15277672  111.70899963    1.38000000    2.93000007
   17.15611076  112.39499664    1.38000000    2.93000007
   17.15777779  114.43000031    1.39999998    2.94000006
   17.15972137  109.03700256    1.39999998    2.94000006
   17.16305542  114.95999908    1.39999998    2.94000006
   17.16611099  112.28800201    1.41999996    2.93000007
   17.17222214  112.28800201    1.39999998    2.94000006
   17.17638779  110.63200378    1.39999998    2.94000006
   17.17944336  115.19799805    1.39999998    2.94000006
   17.18277740  111.90299988    1.38000000    2.94000006
   17.18610954  113.37500000    1.39999998    2.93000007
   17.18916512  111.26399994    1.38000000    2.94000006
   17.19111061  115.81900024    1.38000000    2.94000006
   17.19305420  108.87300110    1.38000000    2.94000006
   17.19638824  113.73000336    1.38000000    2.94000006
   17.19944382  113.06300354    1.38000000    2.94000006
   17.20277786  112.08000183    1.30999994    2.94000006
   17.20583344  115.57399750    1.30999994    2.94000006
   17.20916748  115.59700012    1.30999994    2.94000006
   17.21500015  115.59700012    1.28999996    2.94000006
   17.21916771  110.63400269    1.28999996    2.94000006
   17.22249985  112.28299713    1.26999998    2.94000006
   17.22444534  118.51000214    1.26999998    2.94000006
   17.22611237  110.67600250    1.26999998    2.94000006
   17.22944450  119.80899811    1.26999998    2.94000006
   17.23250008  116.69799805    1.26999998    2.94000006
   17.23583412  116.72100067    1.26999998    2.94000006
   17.23888969  111.89700317    1.28999996    2.94000006
   17.24222183  115.00900269    1.28999996    2.94000006
   17.24555588  115.63400269    1.28999996    2.94000006
   17.24861145  119.38999939    1.28999996    2.94000006
   17.25194359  109.04499817    1.28999996    2.94000006
   17.25777817  109.04499817    1.28999996    2.94000006
   17.26194382  118.44999695    1.25000000    2.94000006
   17.26527786  117.69000244    1.25000000    2.96000004
   17.26861000  119.37200165    1.23000002    2.93000007
   17.27166557  119.21099854    1.23000002    2.93000007
   17.27499962  114.62200165    1.21000004    2.94000006
   17.27833366  116.30699921    1.14999998    2.94000006
   17.28138924  112.95300293    1.11000001    2.94000006
   17.28472137  107.47100067    1.09000003    2.94000006
   17.28777695  109.13400269    1.07000005    2.94000006
   17.29111099  111.82700348    1.09000003    2.94000006
   17.29166603  122.32900238    1.09000003    2.94000006
   17.29500008  108.62500000    1.07000005    2.94000006
   17.30083275  108.62500000    1.07000005    2.94000006
   17.30499840  111.71499634    1.07000005    2.94000006
   17.30805397  110.31099701    1.05999994    2.94000006
   17.31138802  121.92600250    1.05999994    2.94000006
   17.31444359  124.13400269    1.05999994    2.94000006
   17.31777954  120.32800293    1.09000003    2.94000006
   17.32111168  113.47699738    1.11000001    2.94000006
   17.32416725  115.96199799    1.11000001    2.94000006
   17.32500076  127.70200348    1.11000001    2.94000006
   17.32805634  116.58899689    1.11000001    2.94000006
   17.33111191  119.14299774    1.11000001    2.94000006
   17.33444595  123.44599915    1.11000001    2.94000006
   17.33777809  118.04000092    1.11000001    2.94000006
   17.34361267  118.04000092    1.13000000    2.94000006
   17.34777832  116.66300201    1.14999998    2.94000006
   17.35083389  121.79399872    1.13000000    2.94000006
   17.35416794  122.86599731    1.13000000    2.94000006
   17.35750008  121.11000061    1.14999998    2.94000006
   17.35833359  123.14499664    1.16999996    2.94000006
   17.36111069  111.96099854    1.16999996    2.94000006
   17.36416626  113.63200378    1.16999996    2.94000006
   17.36750031  119.29299927    1.14999998    2.94000006
   17.37083435  125.46299744    1.14999998    2.94000006
   17.37388992  114.79599762    1.14999998    2.94000006
   17.37722206  120.84700012    1.14999998    2.94000006
   17.38027763  127.44300079    1.13000000    2.94000006
   17.38638878  127.44300079    1.13000000    2.94000006
   17.39055634  133.97700500    1.13000000    2.94000006
   17.39166641  119.54000092    1.13000000    2.94000006
   17.39416695  116.22299957    1.13000000    2.94000006
   17.39722252  116.08599854    1.13000000    2.94000006
   17.40055466  124.53600311    1.14999998    2.94000006
   17.40388870  119.49500275    1.14999998    2.94000006
   17.40694427  121.09400177    1.16999996    2.94000006
   17.41027832  116.16699982    1.19000006    2.94000006
   17.41361046  119.53700256    1.21000004    2.94000006
   17.41666603  113.71499634    1.23000002    2.94000006
   17.42000008  116.07199860    1.25000000    2.94000006
   17.42305565  121.51799774    1.25000000    2.94000006
   17.42499924  107.03500366    1.25000000    2.94000006
   17.42916679  107.03500366    1.21000004    2.96000004
   17.43333244  119.61000061    1.21000004    2.94000006
   17.43666649  124.11399841    1.21000004    2.94000006
   17.43999863  116.60399628    1.19000006    2.94000006
   17.44305420  112.44499969    1.13000000    2.94000006
   17.44638824  113.99800110    1.13000000    2.94000006
   17.44972038  119.08799744    1.13000000    2.94000006
   17.45277786  123.30500031    1.13000000    2.94000006
   17.45611191  116.86900330    1.13000000    2.94000006
   17.45833397  121.69300079    1.13000000    2.93000007
   17.45972252  119.02999878    1.13000000    2.93000007
   17.46277809  116.61799622    1.14999998    2.94000006
   17.46611214  119.37799835    1.13000000    2.94000006
   17.47222328  119.37799835    1.13000000    2.94000006
   17.47638893  118.84600067    1.13000000    2.94000006
   17.47944450  113.12500000    1.13000000    2.94000006
   17.48277855  112.10399628    1.13000000    2.94000006
   17.48611069  123.20099640    1.13000000    2.94000006
   17.48916626  114.95800018    1.13000000    2.94000006
   17.49166679  122.21800232    1.13000000    2.94000006
   17.49305534  115.20700073    1.13000000    2.94000006
   17.49611092  115.51699829    1.13000000    2.93000007
   17.49944496  115.76599884    1.13000000    2.94000006
   17.50277710  116.32099915    1.11000001    2.94000006
   17.50583267  108.73999786    1.11000001    2.94000006
   17.50916672  110.03900146    1.11000001    2.94000006
   17.51499939  110.03900146    1.11000001    2.94000006
   17.51916695  109.16400146    1.11000001    2.93000007
   17.52222252  114.56400299    1.09000003    2.94000006
   17.52499962  112.98200226    1.07000005    2.94000006
   17.52611160  114.55599976    1.07000005    2.94000006
   17.52916718  117.90599823    1.09000003    2.94000006
   17.53249931  121.36299896    1.09000003    2.94000006
   17.53583336  121.60600281    1.09000003    2.93000007
   17.53888893  117.12999725    1.09000003    2.93000007
   17.54222107  120.98999786    1.09000003    2.94000006
   17.54555511  114.43800354    1.09000003    2.94000006
   17.54861069  121.04799652    1.07000005    2.94000006
   17.55194283  122.94100189    1.07000005    2.94000006
   17.55777740  122.94100189    1.07000005    2.94000006
   17.57611275  111.50900269    1.11000001    2.94000006
   17.57944489  113.58699799    1.11000001    2.94000006
   17.58277893  117.19799805    1.11000001    2.94000006
   17.58583450  113.16999817    1.09000003    2.94000006
   17.58916664  115.14700317    1.07000005    2.94000006
   17.59250069  117.75800323    1.03999996    2.94000006
   17.59555626  120.18099976    1.01999998    2.96000004
   17.60083389  120.18099976    0.98000002    2.94000006
   17.60499954  115.04399872    0.98000002    2.94000006
   17.60833359  123.91300201    0.98000002    2.94000006
   17.60916710  112.72100067    0.98000002    2.94000006
   17.61194420  112.00599670    0.98000002    2.94000006
   17.61527824  116.33200073    0.98000002    2.94000006
   17.61861038  110.98200226    1.00000000    2.94000006
   17.62194443  120.37799835    1.00000000    2.94000006
   17.62500000  130.88999939    1.01999998    2.93000007
   17.62833405  121.05000305    1.01999998    2.93000007
   17.63138962  126.98300171    1.01999998    2.96000004
   17.63472176  123.08200073    1.03999996    2.94000006
   17.63805580  119.23799896    1.03999996    2.94000006
   17.64388847  119.23799896    1.03999996    2.94000006
   17.64777756  119.37899780    1.03999996    2.94000006
   17.65111160  124.69300079    1.03999996    2.94000006
   17.65444374  125.26999664    1.01999998    2.94000006
   17.65749931  136.23899841    1.03999996    2.94000006
   17.66083336  121.33399963    1.01999998    2.94000006
   17.66416550  109.16000366    1.16999996    2.94000006
   17.66722107  121.61499786    1.23000002    2.94000006
   17.67055511  125.70500183    1.23000002    2.94000006
   17.67361069  128.14900208    1.28999996    2.94000006
   17.67583275  141.18899536    1.39999998    2.94000006
   17.67749977  116.14700317    1.44000006    2.94000006
   17.68083191  126.27600098    1.58000004    2.94000006
   17.68666649  126.27600098    1.41999996    2.94000006
   17.69083214  122.40799713    1.21000004    2.94000006
   17.69388771  125.83300018    1.19000006    2.94000006
   17.69722176  119.66100311    1.19000006    2.94000006
   17.70055580  118.00700378    1.21000004    2.94000006
   17.70361137  113.03900146    1.16999996    2.94000006
   17.70694542  125.71600342    1.03999996    2.94000006
   17.70916748  120.86599731    1.03999996    2.94000006
   17.71055603  119.19999695    0.94000000    2.94000006
   17.71389008  115.56700134    1.01999998    2.94000006
   17.71694565  125.72599792    1.25000000    2.93000007
   17.72027779  114.07499695    0.95999998    2.94000006
   17.72361183  112.54199982    0.95999998    2.94000006
   17.72944450  112.54199982    0.95999998    2.94000006
   17.73361206  111.86399841    0.92000002    2.94000006
   17.73694420  109.56500244    0.89999998    2.94000006
   17.73999977  105.83599854    0.81999999    2.94000006
   17.74250031  115.34899902    0.81999999    2.94000006
   17.74361229  117.98899841    0.81999999    2.94000006
   17.74694443  116.23500061    0.81999999    2.94000006
   17.75000000  122.53600311    0.81999999    2.94000006
   17.75333405  119.55599976    0.81999999    2.94000006
   17.75666618  115.83499908    0.81999999    2.94000006
   17.75972176  124.61399841    0.81999999    2.94000006
   17.76305580  123.69799805    0.83999997    2.94000006
   17.76611137  121.00000000    0.86000001    2.94000006
   17.77222252  121.00000000    0.86000001    2.94000006
   17.77638817  119.24900055    0.83999997    2.96000004
   17.77972221  118.78299713    0.83999997    2.96000004
   17.78305435  116.29299927    0.86000001    2.94000006
   17.78610992  123.18599701    0.83999997    2.94000006
   17.78944397  119.26000214    0.83999997    2.94000006
   17.79249954  115.54799652    0.86000001    2.96000004
   17.79583359  118.66500092    0.86000001    2.94000006
   17.79916573  114.79100037    0.86000001    2.94000006
   17.80222130  110.38200378    0.86000001    2.94000006
   17.80555534  113.25299835    0.83999997    2.94000006
   17.80888748  117.00000000    0.83999997    2.94000006
   17.80944443  121.83200073    0.83999997    2.94000006
   17.81527710  121.83200073    0.80000001    2.94000006
   17.81916809  123.53500366    0.80000001    2.94000006
   17.82250023  116.09899902    0.80000001    2.94000006
   17.82583427  116.45800018    0.80000001    2.94000006
   17.82888985  122.61299896    0.81999999    2.94000006
   17.83222389  106.38800049    0.81999999    2.94000006
   17.83555603  117.93000031    0.81999999    2.94000006
   17.83861160  116.27700043    0.81999999    2.94000006
   17.84194565  116.70700073    0.81999999    2.94000006
   17.84277916  112.42700195    0.81999999    2.94000006
   17.84555626  111.83300018    0.83999997    2.96000004
   17.84889030  120.07900238    0.83999997    2.94000006
   17.85222244  112.29100037    0.83999997    2.94000006
   17.85805511  112.29100037    0.86000001    2.93000007
   17.86222267  115.85099792    0.83999997    2.96000004
   17.86527824  111.41799927    0.83999997    2.96000004
   17.86861038  134.43099976    0.83999997    2.96000004
   17.87194443  118.01999664    0.81999999    2.94000006
   17.87500000  112.43900299    0.81999999    2.94000006
   17.87611198  112.95899963    0.81999999    2.94000006
   17.87861061  113.89800262    0.81999999    2.94000006
   17.88194466  111.75000000    0.83999997    2.94000006
   17.88527679  115.01699829    0.83999997    2.94000006
   17.88833237  115.28099823    0.83999997    2.94000006
   17.89166641  121.75199890    0.83999997    2.94000006
   17.89500046  114.01599884    0.81999999    2.94000006
   17.90083313  114.01599884    0.81999999    2.94000006
   17.90499878  124.12300110    0.81999999    2.94000006
   17.90833282  116.27200317    0.83999997    2.94000006
   17.90944481  115.03199768    0.83999997    2.94000006
   17.91166687  124.95800018    0.83999997    2.94000006
   17.91499901  120.86900330    0.86000001    2.94000006
   17.91833305  116.14600372    0.86000001    2.94000006
   17.92138863  120.77400208    0.86000001    2.94000006
   17.92472076  118.05699921    0.86000001    2.94000006
   17.92777634  123.23999786    0.88000000    2.94000006
   17.93111038  127.49400330    0.89999998    2.94000006
   17.93444443  126.31199646    0.89999998    2.94000006
   17.93750000  119.79599762    0.92000002    2.94000006
   17.94361115  119.79599762    0.94000000    2.94000006
   17.94777679  113.02200317    0.94000000    2.94000006
   17.95111275  111.54100037    0.95999998    2.94000006
   17.95416832  112.86199951    0.98000002    2.93000007
   17.95750046  113.40799713    1.03999996    2.93000007
   17.96083450  113.41200256    1.03999996    2.94000006
   17.96389008  114.28600311    1.03999996    2.94000006
   17.96722221  126.48500061    1.01999998    2.94000006
   17.97055626  117.27300262    0.98000002    2.94000006
   17.97361183  117.15799713    0.98000002    2.94000006
   17.97611237  109.84899902    0.98000002    2.94000006
   17.97722244  117.01200104    0.98000002    2.94000006
   17.98055649  117.62000275    0.98000002    2.94000006
   17.98666763  117.62000275    1.00000000    2.94000006
   17.99055672  119.48999786    1.00000000    2.94000006
   17.99388885  124.22799683    1.00000000    2.94000006
   17.99722290  119.63700104    0.98000002    2.94000006
   18.00027847  119.34600067    0.98000002    2.93000007
   18.00361061  119.20500183    0.95999998    2.94000006
   18.00694466  116.70500183    0.95999998    2.94000006
   18.00944519  121.71900177    0.95999998    2.94000006
   18.01027870  118.23899841    0.92000002    2.94000006
   18.01361084  112.87300110    0.88000000    2.94000006
   18.01694489  120.90899658    0.88000000    2.94000006
   18.02000046  121.18499756    0.88000000    2.94000006
   18.02333260  125.48999786    0.88000000    2.94000006
   18.02944374  125.48999786    0.89999998    2.94000006
   18.03361130  113.67299652    0.92000002    2.93000007
   18.03666687  113.37100220    0.92000002    2.93000007
   18.03999901  117.42900085    0.89999998    2.94000006
   18.04277802  112.87699890    0.89999998    2.94000006
   18.04361153  118.59200287    0.89999998    2.94000006
   18.04694366  119.27500153    0.89999998    2.94000006
   18.05027771  113.97000122    0.89999998    2.94000006
   18.05333328  118.72000122    0.89999998    2.94000006
   18.05666542  117.18900299    0.92000002    2.94000006
   18.05999947  114.57700348    0.92000002    2.94000006
   18.06305504  109.21099854    0.92000002    2.94000006
   18.06638718  114.19499969    0.92000002    2.94000006
   18.07222366  114.19499969    0.89999998    2.93000007
   18.07638931  105.87200165    0.92000002    2.94000006
   18.07972336  120.98899841    0.94000000    2.94000006
   18.08277893  121.14299774    0.94000000    2.94000006
   18.08611107  125.19999695    0.94000000    2.94000006
   18.08916664  127.36599731    0.95999998    2.93000007
   18.09250069  121.35500336    1.00000000    2.93000007
   18.09583473  120.73200226    1.01999998    2.94000006
   18.09889030  122.11100006    0.98000002    2.94000006
   18.10222244  118.06199646    1.00000000    2.94000006
   18.10555649  113.16200256    0.98000002    2.94000006
   18.10861206  114.50700378    0.98000002    2.93000007
   18.10944557  115.08899689    0.98000002    2.93000007
   18.11499977  115.08899689    0.98000002    2.93000007
   18.11916733  128.41900635    0.98000002    2.94000006
   18.12249947  119.05400085    0.98000002    2.94000006
   18.12555504  114.91400146    0.95999998    2.94000006
   18.12888908  115.79799652    0.94000000    2.94000006
   18.13222313  124.21600342    0.94000000    2.94000006
   18.13527679  122.74500275    0.94000000    2.94000006
   18.13861084  129.49499512    0.94000000    2.94000006
   18.14194489  127.34300232    0.94000000    2.93000007
   18.14277840  120.89099884    0.94000000    2.93000007
   18.14527702  121.23000336    0.94000000    2.93000007
   18.14861107  122.50800323    0.92000002    2.94000006
   18.15194321  121.36000061    0.89999998    2.93000007
   18.15777779  121.36000061    0.88000000    2.94000006
   18.16194344  119.96700287    0.88000000    2.94000006
   18.16527748  105.89900208    0.88000000    2.94000006
   18.16860962  120.55400085    0.88000000    2.94000006
   18.17166519  119.82399750    0.86000001    2.94000006
   18.17499924  123.97100067    0.86000001    2.94000006
   18.17611122  117.61399841    0.86000001    2.94000006
   18.17860985  119.39099884    0.86000001    2.94000006
   18.18194389  118.07499695    0.83999997    2.94000006
   18.18527603  114.01399994    0.83999997    2.94000006
   18.18833160  115.30100250    0.83999997    2.94000006
   18.19166565  119.73200226    0.86000001    2.94000006
   18.19499969  113.69000244    0.83999997    2.93000007
   18.20083427  113.69000244    0.81999999    2.94000006
   18.20499992  125.95099640    0.83999997    2.94000006
   18.20805550  118.94100189    0.81999999    2.93000007
   18.20944595  121.26999664    0.81999999    2.93000007
   18.21166801  120.85399628    0.81999999    2.93000007
   18.21500015  118.52400208    0.81999999    2.94000006
   18.21833420  121.27899933    0.83999997    2.96000004
   18.22138977  120.90200043    0.83999997    2.94000006
   18.22472191  120.38800049    0.86000001    2.94000006
   18.22805595  120.51399994    0.83999997    2.93000007
   18.23111153  117.34999847    0.83999997    2.94000006
   18.23444557  116.30400085    0.83999997    2.94000006
   18.23750114  118.33799744    0.86000001    2.94000006
   18.24361229  118.33799744    0.86000001    2.94000006
   18.24777794  116.24900055    0.86000001    2.94000006
   18.25111198  120.12699890    0.86000001    2.94000006
   18.25416756  131.73800659    0.86000001    2.94000006
   18.25749969  125.05899811    0.86000001    2.93000007
   18.26083374  116.42800140    0.86000001    2.93000007
   18.26388931  113.99299622    0.86000001    2.94000006
   18.26722145  120.81500244    0.86000001    2.94000006
   18.27027702  117.70600128    0.86000001    2.93000007
   18.27361107  130.14999390    0.88000000    2.93000007
   18.27611160  123.94100189    0.88000000    2.93000007
   18.27722168  128.41999817    0.86000001    2.93000007
   18.28055573  124.57099915    0.86000001    2.94000006
   18.28638840  124.57099915    0.86000001    2.94000006
   18.29055595  118.00399780    0.86000001    2.93000007
   18.29388809  125.43199921    0.83999997    2.94000006
   18.29694366  119.69999695    0.83999997    2.93000007
   18.30027771  126.08999634    0.83999997    2.94000006
   18.30360985  130.68899536    0.83999997    2.93000007
   18.30666542  123.10399628    0.83999997    2.93000007
   18.30944443  117.26999664    0.86000001    2.93000007
   18.31027794  119.20500183    0.86000001    2.93000007
   18.31361008  122.17900085    0.88000000    2.94000006
   18.31694603  122.98899841    0.88000000    2.93000007
   18.32000160  118.59200287    0.88000000    2.94000006
   18.32333374  124.76399994    0.92000002    2.94000006
   18.32916832  124.76399994    0.95999998    2.93000007
   18.33333397  115.68499756    0.98000002    2.93000007
   18.33666801  121.38700104    0.98000002    2.93000007
   18.34000015  113.74099731    1.00000000    2.94000006
   18.34277916  118.93099976    1.00000000    2.93000007
   18.34333420  117.46299744    1.00000000    2.93000007
   18.34666824  115.99099731    1.01999998    2.93000007
   18.35000038  131.21800232    1.00000000    2.94000006
   18.35305595  125.54299927    1.01999998    2.93000007
   18.35639000  116.27899933    1.01999998    2.93000007
   18.35972214  117.91200256    1.01999998    2.94000006
   18.36277771  120.26899719    1.01999998    2.94000006
   18.36611176  121.83000183    1.01999998    2.93000007
   18.37222290  121.83000183    0.98000002    2.94000006
   18.37638855  127.24900055    0.98000002    2.93000007
   18.37944412  117.46900177    0.98000002    2.93000007
   18.38277817  118.70800018    0.98000002    2.93000007
   18.38583374  124.53800201    0.98000002    2.94000006
   18.38916588  121.43099976    0.98000002    2.94000006
   18.39249992  125.20700073    0.98000002    2.93000007
   18.39555550  119.84100342    0.95999998    2.93000007
   18.39888954  114.48400116    0.95999998    2.93000007
   18.40222168  118.72200012    0.95999998    2.94000006
   18.40527725  125.68099976    0.98000002    2.93000007
   18.40861130  126.70800018    1.01999998    2.93000007
   18.40944481  118.77300262    1.01999998    2.93000007
   18.41499901  118.77300262    1.03999996    2.93000007
   18.41916656  121.11900330    1.03999996    2.93000007
   18.42222214  122.85199738    1.05999994    2.93000007
   18.42555428  122.03299713    1.05999994    2.93000007
   18.42888832  118.48200226    1.11000001    2.93000007
   18.43194389  115.59500122    1.13000000    2.93000007
   18.43527603  124.76399994    1.14999998    2.93000007
   18.43861008  127.00599670    1.19000006    2.93000007
   18.44166565  119.40200043    1.19000006    2.93000007
   18.44277763  121.09700012    1.16999996    2.93000007
   18.44555473  114.15100098    1.16999996    2.93000007
   18.44861031  125.43000031    1.16999996    2.93000007
   18.45194435  114.69300079    1.13000000    2.93000007
   18.45777893  114.69300079    1.13000000    2.93000007
   18.46194458  125.21600342    1.14999998    2.93000007
   18.46527863  129.69799805    1.16999996    2.93000007
   18.46833420  121.28099823    1.21000004    2.93000007
   18.47166634  127.78199768    1.23000002    2.93000007
   18.47500038  124.81400299    1.23000002    2.93000007
   18.47611237  128.23599243    1.23000002    2.93000007
   18.47861099  125.04799652    1.23000002    2.93000007
   18.48166656  122.40399933    1.23000002    2.91000009
   18.48500061  120.37500000    1.23000002    2.91000009
   18.48833275  130.34599304    1.19000006    2.91000009
   18.49138832  128.52099609    1.19000006    2.91000009
   18.49472237  134.31799316    1.19000006    2.91000009
   18.50055504  134.31799316    1.16999996    2.93000007
   18.50472260  118.58699799    1.16999996    2.94000006
   18.50805473  119.04599762    1.16999996    2.94000006
   18.50944519  123.93800354    1.14999998    2.91000009
   18.51166725  121.47399902    1.14999998    2.91000009
   18.51472282  116.29799652    1.16999996    2.91000009
   18.51805496  122.68399811    1.16999996    2.93000007
   18.52138901  118.04100037    1.14999998    2.91000009
   18.52444458  122.71099854    1.13000000    2.93000007
   18.52777672  127.88200378    1.13000000    2.93000007
   18.53083229  124.39299774    1.09000003    2.94000006
   18.53416634  128.35200500    1.07000005    2.93000007
   18.53750038  122.68599701    1.07000005    2.93000007
   18.54361153  122.68599701    1.05999994    2.93000007
   18.54777718  121.98899841    1.03999996    2.93000007
   18.55083275  129.24499512    1.03999996    2.93000007
   18.55416679  131.06100464    1.03999996    2.93000007
   18.55722237  126.81300354    1.01999998    2.93000007
   18.56055450  119.21299744    0.98000002    2.93000007
   18.56388855  124.45999908    0.98000002    2.93000007
   18.56694603  115.63700104    0.95999998    2.93000007
   18.57027817  130.69700623    0.95999998    2.93000007
   18.57361221  130.21400452    0.95999998    2.93000007
   18.57611275  116.81500244    0.94000000    2.91000009
   18.59666824  116.81500244    1.09000003    2.93000007
   18.60083389  114.99099731    1.13000000    2.93000007
   18.60416794  113.30999756    1.14999998    2.93000007
   18.60722351  119.52999878    1.16999996    2.91000009
   18.60944557  123.20999908    1.14999998    2.91000009
   18.61111069  126.07800293    1.14999998    2.93000007
   18.61416626  118.57900238    1.14999998    2.93000007
   18.61750031  113.80100250    1.14999998    2.93000007
   18.62083435  118.08799744    1.14999998    2.93000007
   18.62388992  116.22200012    1.13000000    2.93000007
   18.62722206  113.26499939    1.13000000    2.91000009
   18.63027763  123.04199982    1.11000001    2.91000009
   18.63361168  119.88800049    1.09000003    2.93000007
   18.63944435  119.88800049    1.09000003    2.93000007
   18.64361191  117.33000183    1.07000005    2.91000009
   18.64694405  115.22399902    1.05999994    2.93000007
   18.64999962  116.34600067    1.05999994    2.93000007
   18.65333366  121.68000031    1.03999996    2.93000007
   18.65666580  117.61199951    1.03999996    2.93000007
   18.65972137  119.33499908    1.03999996    2.91000009
   18.66305542  119.04799652    1.03999996    2.93000007
   18.66611099  120.35700226    1.03999996    2.91000009
   18.66944313  118.84500122    1.01999998    2.93000007
   18.67277718  132.06799316    1.00000000    2.93000007
   18.67583275  110.43099976    0.98000002    2.93000007
   18.67638779  118.95300293    0.98000002    2.93000007
   18.68249893  118.95300293    1.00000000    2.93000007
   18.68666649  116.71900177    0.92000002    2.93000007
   18.68999863  124.06600189    0.92000002    2.93000007
   18.69305420  110.55000305    0.92000002    2.93000007
   18.69638824  124.69000244    0.92000002    2.93000007
   18.69944382  116.80699921    0.92000002    2.93000007
   18.70277786  113.82700348    0.94000000    2.93000007
   18.70611191  109.06900024    0.94000000    2.93000007
   18.70916748  120.08999634    0.98000002    2.91000009
   18.70972252  114.34999847    0.98000002    2.91000009
   18.71277809  112.78299713    1.00000000    2.93000007
   18.71611214  118.61299896    1.01999998    2.93000007
   18.71916771  116.67299652    1.03999996    2.93000007
   18.72527885  116.67299652    1.03999996    2.93000007
   18.72944450  115.47000122    1.05999994    2.93000007
   18.73250008  119.89299774    1.05999994    2.91000009
   18.73583412  115.14299774    1.05999994    2.91000009
   18.73888969  118.27200317    1.05999994    2.91000009
   18.74222183  119.66500092    1.05999994    2.91000009
   18.74305534  117.83699799    1.16999996    2.91000009
   18.74583435  113.35500336    1.19000006    2.91000009
   18.74916649  115.19699860    1.21000004    2.91000009
   18.75222206  110.72599792    1.19000006    2.91000009
   18.75555611  115.45999908    1.19000006    2.91000009
   18.75861168  113.65699768    1.16999996    2.93000007
   18.76194382  110.33699799    1.13000000    2.91000009
   18.76805496  110.33699799    1.11000001    2.93000007
   18.77222252  115.19499969    1.09000003    2.93000007
   18.77527809  109.88600159    1.05999994    2.91000009
   18.77638817  118.41400146    1.07000005    2.93000007
   18.77916718  117.96700287    1.07000005    2.93000007
   18.78222275  117.98000336    1.07000005    2.91000009
   18.78555489  114.44400024    1.09000003    2.93000007
   18.78888893  117.21099854    1.07000005    2.93000007
   18.79194450  109.44300079    1.07000005    2.91000009
   18.79527664  111.58399963    1.13000000    2.91000009
   18.79861069  126.11499786    1.16999996    2.91000009
   18.80166626  125.73699951    1.16999996    2.91000009
   18.80499840  116.92500305    1.23000002    2.91000009
   18.81083298  116.92500305    1.26999998    2.91000009
   18.81499863  114.70899963    1.28999996    2.91000009
   18.81833458  127.45300293    1.28999996    2.91000009
   18.82139015  128.54800415    1.28999996    2.91000009
   18.82472229  124.60700226    1.28999996    2.91000009
   18.82805634  119.22799683    1.28999996    2.91000009
   18.83111191  118.03299713    1.28999996    2.91000009
   18.83444595  120.65599823    1.25000000    2.91000009
   18.83777809  120.05599976    1.25000000    2.91000009
   18.84083366  114.41899872    1.25000000    2.91000009
   18.84305573  117.24199677    1.25000000    2.91000009
   18.84444427  118.99800110    1.23000002    2.91000009
   18.84777832  119.68599701    1.23000002    2.91000009
   18.85361099  119.68599701    1.21000004    2.91000009
   18.85777855  119.60299683    1.19000006    2.91000009
   18.86111069  114.00099945    1.16999996    2.93000007
   18.86444473  112.78199768    1.16999996    2.91000009
   18.86750031  128.77200317    1.13000000    2.91000009
   18.87083435  118.55100250    1.13000000    2.91000009
   18.87388992  118.49900055    1.11000001    2.91000009
   18.87638855  114.11599731    1.07000005    2.91000009
   18.87777710  121.58999634    1.07000005    2.91000009
   18.88111115  118.28900146    1.07000005    2.91000009
   18.88416672  111.83799744    1.07000005    2.91000009
   18.88750076  118.01200104    1.09000003    2.91000009
   18.89055634  113.58499908    1.09000003    2.91000009
   18.89666748  113.58499908    1.11000001    2.91000009
   18.90083313  115.92199707    1.11000001    2.91000009
   18.90388870  119.95899963    1.13000000    2.91000009
   18.90722275  123.16400146    1.16999996    2.91000009
   18.90972137  114.98899841    1.13000000    2.91000009
   18.91083336  119.60199738    1.13000000    2.91000009
   18.91416550  123.33499908    1.13000000    2.91000009
   18.91722107  121.35199738    1.16999996    2.89000010
   18.92055511  114.09200287    1.16999996    2.89000010
   18.92388916  122.94799805    1.16999996    2.89000010
   18.92694473  122.78099823    1.21000004    2.91000009
   18.93027687  115.43399811    1.21000004    2.91000009
   18.93333244  117.29000092    1.21000004    2.91000009
   18.93944359  117.29000092    1.21000004    2.91000009
   18.94361115  121.15599823    1.19000006    2.91000009
   18.94666672  129.53100586    1.19000006    2.89000010
   18.95000076  116.76999664    1.19000006    2.89000010
   18.95333481  120.21299744    1.19000006    2.89000010
   18.95639038  121.44499969    1.19000006    2.91000009
   18.95972252  118.70999908    1.25000000    2.89000010
   18.96305656  130.62100220    1.25000000    2.91000009
   18.96611214  123.83699799    1.25000000    2.91000009
   18.96944427  126.48899841    1.25000000    2.91000009
   18.97249985  110.56500244    1.25000000    2.91000009
   18.97583389  121.64600372    1.25000000    2.91000009
   18.97638893  115.87899780    1.25000000    2.91000009
   18.98222351  115.87899780    1.28999996    2.91000009
   18.98638916  134.66900635    1.30999994    2.89000010
   18.98972321  120.08100128    1.33000004    2.89000010
   18.99277878  123.31099701    1.33000004    2.91000009
   18.99611092  126.34500122    1.33000004    2.91000009
   18.99944496  123.68299866    1.34000003    2.91000009
   19.00250053  121.83200073    1.36000001    2.91000009
   19.00583267  124.23500061    1.38000000    2.89000010
   19.00916672  129.30799866    1.38000000    2.89000010
   19.00972176  120.58999634    1.38000000    2.89000010
   19.01277733  115.14099884    1.39999998    2.89000010
   19.01611137  116.24700165    1.38000000    2.89000010
   19.01916695  119.54100037    1.38000000    2.89000010
   19.02499962  119.54100037    1.41999996    2.89000010
   19.02916718  116.80999756    1.41999996    2.89000010
   19.03249931  116.70899963    1.41999996    2.89000010
   19.03583336  115.83200073    1.44000006    2.89000010
   19.03888893  118.82099915    1.50000000    2.91000009
   19.04222107  115.98400116    1.50000000    2.91000009
   19.04305458  114.82499695    1.50000000    2.89000010
   19.04583359  117.79799652    1.50000000    2.89000010
   19.04916573  112.04900360    1.50000000    2.89000010
   19.05222130  119.73300171    1.60000002    2.89000010
   19.05555534  113.40899658    1.60000002    2.89000010
   19.05888748  122.85199738    1.55999994    2.91000009
   19.06194305  112.09100342    1.55999994    2.91000009
   19.06805611  112.09100342    1.51999998    2.89000010
   19.07194519  116.59500122    1.58000004    2.89000010
   19.07527924  116.89099884    1.60000002    2.89000010
   19.07638931  118.82700348    1.60000002    2.89000010
   19.07888985  118.11799622    1.60000002    2.89000010
   19.08222389  113.71299744    1.60000002    2.89000010
   19.08527756  117.88500214    1.60000002    2.89000010
   19.08861160  120.29199982    1.60000002    2.89000010
   19.09194565  119.67299652    1.64999998    2.86999989
   19.09500122  120.31199646    1.66999996    2.86999989
   19.09833336  119.91400146    1.66999996    2.89000010
   19.10166740  113.95700073    1.66999996    2.89000010
   19.10472298  114.24600220    1.66999996    2.86999989
   19.11083412  114.24600220    1.64999998    2.89000010
   19.11499977  116.11399841    1.66999996    2.89000010
   19.11805534  112.94699860    1.63000000    2.89000010
   19.12138939  113.27400208    1.58000004    2.86999989
   19.12472153  119.17500305    1.58000004    2.86999989
   19.12777710  129.53500366    1.53999996    2.89000010
   19.13111115  126.44300079    1.55999994    2.86999989
   19.13416672  126.71299744    1.53999996    2.89000010
   19.13750076  112.48699951    1.53999996    2.86999989
   19.14083290  127.05599976    1.63000000    2.86999989
   19.14305496  123.34500122    1.61000001    2.86999989
   19.14444351  118.69599915    1.61000001    2.86999989
   19.14777756  119.79599762    1.61000001    2.86999989
   19.15361023  119.79599762    1.60000002    2.86999989
   19.15777779  120.72299957    1.60000002    2.89000010
   19.16110992  123.39099884    1.58000004    2.86999989
   19.16416550  119.70300293    1.55999994    2.89000010
   19.16749954  116.84400177    1.53999996    2.89000010
   19.17055511  122.65399933    1.55999994    2.86999989
   19.17388916  117.86599731    1.58000004    2.89000010
   19.17638779  116.83599854    1.58000004    2.86999989
   19.17749977  115.63200378    1.58000004    2.86999989
   19.18083191  125.68299866    1.58000004    2.89000010
   19.18388748  124.64399719    1.60000002    2.86999989
   19.18722153  115.93199921    1.61000001    2.89000010
   19.19055557  121.56800079    1.64999998    2.86999989
   19.19638824  121.56800079    1.66999996    2.86999989
   19.20055580  124.93599701    1.71000004    2.86999989
   19.20388985  116.17299652    1.75000000    2.86999989
   19.20694542  122.94499969    1.76999998    2.86999989
   19.20972252  122.05200195    1.76999998    2.86999989
   19.21055603  125.40399933    1.76999998    2.86999989
   19.21389008  129.76800537    1.78999996    2.86999989
   19.21694565  120.24099731    1.78999996    2.86999989
   19.22027779  118.04900360    1.78999996    2.86999989
   19.22361183  123.84700012    1.78999996    2.86999989
   19.22666740  126.54299927    1.76999998    2.86999989
   19.23000145  120.74099731    1.78999996    2.86999989
   19.23333359  126.49500275    1.88000000    2.84999990
   19.23944473  126.49500275    1.88000000    2.86999989
   19.24333382  119.09700012    1.88000000    2.86999989
   19.24666786  122.79299927    1.88000000    2.86999989
   19.25000000  122.98899841    1.85000002    2.86999989
   19.25333405  122.44400024    1.78999996    2.86999989
   19.25638962  122.74199677    1.75000000    2.86999989
   19.25972176  128.88999939    1.75000000    2.86999989
   19.26305580  120.70500183    1.76999998    2.86999989
   19.26611137  112.52200317    1.78999996    2.86999989
   19.26944351  116.98400116    1.80999994    2.86999989
   19.27249908  120.92299652    1.78999996    2.84999990
   19.27583313  108.87200165    1.76999998    2.86999989
   19.27666664  129.08500671    1.76999998    2.86999989
   19.28222275  129.08500671    1.64999998    2.86999989
   19.28638840  121.68499756    1.64999998    2.86999989
   19.28944397  116.30500031    1.64999998    2.86999989
   19.29277802  115.74600220    1.60000002    2.86999989
   19.29583359  121.34999847    1.60000002    2.86999989
   19.29916573  117.00599670    1.60000002    2.89000010
   19.30249977  121.32700348    1.58000004    2.86999989
   19.30555534  116.67400360    1.60000002    2.86999989
   19.30888748  114.14199829    1.60000002    2.86999989
   19.30972099  116.04399872    1.61000001    2.86999989
   19.31250000  118.08899689    1.60000002    2.84999990
   19.31583214  113.92500305    1.60000002    2.86999989
   19.31888962  115.94200134    1.60000002    2.86999989
   19.32500076  115.94200134    1.58000004    2.86999989
   19.32916832  112.16999817    1.58000004    2.86999989
   19.33222389  120.64900208    1.58000004    2.84999990
   19.33555603  127.35800171    1.61000001    2.86999989
   19.33889008  124.52799988    1.63000000    2.86999989
   19.34194565  122.47699738    1.64999998    2.86999989
   19.34305573  118.86799622    1.64999998    2.86999989
   19.34555626  128.33099365    1.66999996    2.86999989
   19.34889030  114.02799988    1.66999996    2.86999989
   19.35194397  122.49500275    1.66999996    2.86999989
   19.35527802  124.04199982    1.64999998    2.84999990
   19.35861206  126.32700348    1.64999998    2.86999989
   19.36166763  117.46600342    1.63000000    2.86999989
   19.36777878  117.46600342    1.61000001    2.84999990
   19.37194443  120.38200378    1.58000004    2.86999989
   19.37527847  124.54699707    1.51999998    2.86999989
   19.37638855  129.63600159    1.51999998    2.86999989
   19.37888908  118.61299896    1.50000000    2.86999989
   19.38222313  122.85399628    1.50000000    2.86999989
   19.38527679  131.02400208    1.48000002    2.86999989
   19.38861084  131.57299805    1.48000002    2.86999989
   19.39194489  128.90100098    1.48000002    2.86999989
   19.39500046  121.63999939    1.48000002    2.86999989
   19.39833260  112.45300293    1.48000002    2.86999989
   19.40138817  125.45999908    1.50000000    2.86999989
   19.40472221  114.64299774    1.48000002    2.86999989
   19.41055489  114.64299774    1.50000000    2.86999989
   19.41472244  120.13200378    1.50000000    2.86999989
   19.41805458  111.58499908    1.51999998    2.86999989
   19.42138863  121.16899872    1.53999996    2.86999989
   19.42444420  112.87799835    1.53999996    2.86999989
   19.42777634  124.56500244    1.53999996    2.86999989
   19.43083191  117.57599640    1.53999996    2.86999989
   19.43416595  120.00399780    1.50000000    2.86999989
   19.43750000  120.21600342    1.50000000    2.86999989
   19.44055557  117.51699829    1.48000002    2.86999989
   19.44333267  125.88500214    1.48000002    2.89000010
   19.44416618  122.49800110    1.48000002    2.84999990
   19.44749832  114.81099701    1.50000000    2.84999990
   19.45361137  114.81099701    1.51999998    2.86999989
   19.45777893  127.70400238    1.51999998    2.86999989
   19.46083450  127.80500031    1.50000000    2.84999990
   19.46416664  124.74400330    1.50000000    2.86999989
   19.46722221  121.02200317    1.50000000    2.86999989
   19.47055626  123.61399841    1.50000000    2.86999989
   19.47389030  124.70099640    1.48000002    2.86999989
   19.47666740  121.58599854    1.46000004    2.86999989
   19.47750092  120.07299805    1.46000004    2.86999989
   19.48083305  123.55400085    1.46000004    2.84999990
   19.48388863  131.33500671    1.46000004    2.84999990
   19.48722267  114.62799835    1.48000002    2.86999989
   19.49055672  120.26399994    1.48000002    2.86999989
   19.49638939  120.26399994    1.51999998    2.86999989
   19.50055504  117.93399811    1.60000002    2.86999989
   19.50388908  114.96900177    1.60000002    2.86999989
   19.50694466  119.58699799    1.60000002    2.84999990
   19.51000023  122.24199677    1.60000002    2.84999990
   19.51055527  111.27700043    1.60000002    2.84999990
   19.51388931  125.47200012    1.60000002    2.84999990
   19.51722145  114.70800018    1.60000002    2.84999990
   19.52027702  118.02799988    1.63000000    2.86999989
   19.52361107  124.82599640    1.64999998    2.84999990
   19.52666664  127.37799835    1.64999998    2.84999990
   19.53000069  138.98199463    1.64999998    2.84999990
   19.53333282  118.39499664    1.63000000    2.86999989
   19.53916550  118.39499664    1.63000000    2.84999990
   19.54333305  106.43000031    1.63000000    2.84999990
   19.54666710  121.40299988    1.63000000    2.84999990
   19.54972076  117.84600067    1.61000001    2.86999989
   19.55305481  113.14199829    1.61000001    2.84999990
   19.55638885  136.17399597    1.61000001    2.84999990
   19.55944443  127.88400269    1.60000002    2.84999990
   19.56277657  123.73500061    1.51999998    2.86999989
   19.56611061  130.34399414    1.51999998    2.86999989
   19.56916809  121.15100098    1.51999998    2.86999989
   19.57250023  128.42599487    1.51999998    2.86999989
   19.57555580  124.44999695    1.50000000    2.86999989
   19.57666779  114.56199646    1.50000000    2.84999990
   19.58222389  114.56199646    1.50000000    2.84999990
   19.58611107  123.76599884    1.48000002    2.84999990
   19.58944511  116.14800262    1.48000002    2.84999990
   19.59277916  116.74700165    1.48000002    2.84999990
   19.61027908  114.86799622    1.39999998    2.86999989
   19.61277771  133.31100464    1.39999998    2.86999989
   19.61583328  132.37600708    1.38000000    2.86999989
   19.61916733  127.88899994    1.36000001    2.86999989
   19.62500000  127.88899994    1.44000006    2.84999990
   19.62916756  130.14399719    1.46000004    2.84999990
   19.63249969  122.34799957    1.46000004    2.84999990
   19.63583374  106.11900330    1.46000004    2.84999990
   19.63888931  112.78700256    1.46000004    2.84999990
   19.64222145  117.83000183    1.38000000    2.84999990
   19.64361191  127.72599792    1.36000001    2.84999990
   19.64583397  130.06300354    1.36000001    2.84999990
   19.64916611  121.58599854    1.34000003    2.86999989
   19.65250015  122.77600098    1.34000003    2.86999989
   19.65555573  136.58599854    1.34000003    2.84999990
   19.65888786  117.78199768    1.41999996    2.84999990
   19.66194344  115.95400238    1.39999998    2.86999989
   19.66805458  115.95400238    1.39999998    2.84999990
   19.67222214  129.31599426    1.46000004    2.86999989
   19.67527771  129.01100159    1.48000002    2.84999990
   19.67694473  122.68199921    1.48000002    2.84999990
   19.67888832  136.32800293    1.48000002    2.84999990
   19.68222237  131.96499634    1.86000001    2.84999990
   19.68555450  116.81600189    1.66999996    2.84999990
   19.68861008  111.30500031    1.53999996    2.84999990
   19.69194412  115.20400238    1.51999998    2.84999990
   19.69527626  118.78099823    1.53999996    2.84999990
   19.69833183  108.04100037    1.53999996    2.84999990
   19.70166779  112.87599945    1.53999996    2.84999990
   19.70472336  117.19899750    1.53999996    2.84999990
   19.71083450  117.19899750    1.53999996    2.82999992
   19.71500015  127.05300140    1.51999998    2.82999992
   19.71805573  128.98100281    1.50000000    2.84999990
   19.72138977  116.72000122    1.50000000    2.84999990
   19.72472191  119.87699890    1.46000004    2.84999990
   19.72777748  118.30999756    1.38000000    2.84999990
   19.73111153  117.23999786    1.33000004    2.82999992
   19.73416710  118.64299774    1.33000004    2.82999992
   19.73750114  125.87899780    1.26999998    2.84999990
   19.74083328  113.11699677    1.25000000    2.84999990
   19.74361229  116.85199738    1.25000000    2.84999990
   19.74444389  121.26399994    1.19000006    2.86999989
   19.74777794  131.55999756    1.19000006    2.84999990
   19.75361061  131.55999756    1.19000006    2.86999989
   19.75777817  121.84400177    1.19000006    2.86999989
   19.76111031  123.82700348    1.23000002    2.84999990
   19.76416588  121.15100098    1.25000000    2.84999990
   19.76749992  122.67900085    1.23000002    2.84999990
   19.77055550  130.95899963    1.25000000    2.84999990
   19.77388954  122.98699951    1.26999998    2.84999990
   19.77694511  124.35099792    1.26999998    2.84999990
   19.77777672  123.06500244    1.26999998    2.86999989
   19.78083229  124.20999908    1.26999998    2.84999990
   19.78416634  120.13800049    1.26999998    2.86999989
   19.78722191  134.99299622    1.25000000    2.84999990
   19.79055595  131.16000366    1.25000000    2.84999990
   19.79638863  131.16000366    1.21000004    2.84999990
   19.80055428  120.90499878    1.19000006    2.84999990
   19.80388832  128.91799927    1.21000004    2.84999990
   19.80694389  125.32900238    1.21000004    2.84999990
   19.81027794  125.51699829    1.19000006    2.84999990
   19.81055450  122.50099945    1.19000006    2.84999990
   19.81388855  131.67500305    1.16999996    2.84999990
   19.81722260  135.54600525    1.16999996    2.84999990
   19.82027817  128.69000244    1.14999998    2.86999989
   19.82361221  131.39599609    1.11000001    2.84999990
   19.82666779  124.05400085    1.11000001    2.84999990
   19.83000183  130.39999390    1.11000001    2.84999990
   19.83333397  137.99400330    1.11000001    2.84999990
   19.83944511  137.99400330    1.13000000    2.84999990
   19.84361267  130.39199829    1.14999998    2.84999990
   19.84388924  125.98300171    1.13000000    2.84999990
   19.84722328  129.97999573    1.11000001    2.84999990
   19.85055542  127.37400055    1.09000003    2.84999990
   19.85361099  121.08899689    1.09000003    2.84999990
   19.85694504  115.83999634    1.09000003    2.84999990
   19.86000061  127.38999939    1.09000003    2.84999990
   19.86333466  114.59400177    1.09000003    2.84999990
   19.86666679  120.00000000    1.11000001    2.82999992
   19.86972237  123.74500275    1.11000001    2.84999990
   19.87305641  126.05599976    1.13000000    2.84999990
   19.87638855  120.01799774    1.11000001    2.84999990
   19.87694550  120.44599915    1.11000001    2.84999990
   19.88222313  120.44599915    1.11000001    2.84999990
   19.88638878  121.03700256    1.11000001    2.84999990
   19.88944435  113.36399841    1.11000001    2.84999990
   19.89277840  121.08599854    1.09000003    2.84999990
   19.89611053  126.76599884    1.09000003    2.84999990
   19.89916611  116.44699860    1.09000003    2.84999990
   19.90250015  134.95100403    1.09000003    2.84999990
   19.90583229  121.49600220    1.09000003    2.84999990
   19.90888786  126.44400024    1.09000003    2.84999990
   19.91027832  120.67199707    1.09000003    2.84999990
   19.91250038  123.59200287    1.09000003    2.84999990
   19.91583252  123.32499695    1.09000003    2.82999992
   19.91916656  127.80799866    1.09000003    2.84999990
   19.92499924  127.80799866    1.09000003    2.84999990
   19.92916679  118.10600281    1.11000001    2.84999990
   19.93249893  105.11799622    1.11000001    2.84999990
   19.93555450  126.29100037    1.19000006    2.82999992
   19.93888855  117.77300262    1.21000004    2.82999992
   19.94194412  119.99900055    1.19000006    2.82999992
   19.94361115  121.77600098    1.19000006    2.82999992
   19.94555473  120.88300323    1.21000004    2.82999992
   19.94888878  121.53299713    1.21000004    2.82999992
   19.95222282  121.98500061    1.23000002    2.82999992
   19.95527840  122.91699982    1.23000002    2.82999992
   19.95861244  123.82299805    1.23000002    2.82999992
   19.96194458  119.87799835    1.25000000    2.82999992
   19.96777916  119.87799835    1.28999996    2.82999992
   19.97194481  129.89300537    1.33000004    2.82999992
   19.97527885  114.22699738    1.33000004    2.82999992
   19.97694588  132.05999756    1.33000004    2.82999992
   19.97888947  125.65899658    1.34000003    2.82999992
   19.98222351  120.52799988    1.34000003    2.82999992
   19.98555565  120.95600128    1.36000001    2.82999992
   19.98861122  123.43199921    1.36000001    2.82999992
   19.99194527  124.67500305    1.38000000    2.82999992
   19.99527740  122.92900085    1.38000000    2.82999992
   19.99833298  134.13499451    1.38000000    2.82999992
   20.00166702  133.64300537    1.36000001    2.82999992
   20.00472260  119.42600250    1.34000003    2.82999992
   20.01083374  119.42600250    1.33000004    2.82999992
   20.01472282  122.36599731    1.33000004    2.82999992
   20.01805496  126.02600098    1.39999998    2.82999992
   20.02138901  118.66400146    1.38000000    2.80999994
   20.02444458  126.48799896    1.38000000    2.82999992
   20.02777672  122.55999756    1.39999998    2.82999992
   20.03111076  135.80200195    1.39999998    2.80999994
   20.03416634  129.07099915    1.39999998    2.82999992
   20.03750038  126.26499939    1.39999998    2.82999992
   20.04083252  131.46099854    1.39999998    2.82999992
   20.04361153  123.54799652    1.39999998    2.80999994
   20.04416656  131.02499390    1.39999998    2.80999994
   20.04749870  121.92199707    1.39999998    2.82999992
   20.05360985  121.92199707    1.38000000    2.82999992
   20.05777740  115.85299683    1.39999998    2.82999992
   20.06083298  117.70300293    1.39999998    2.82999992
   20.06416512  114.04599762    1.39999998    2.80999994
   20.06722260  129.17399597    1.39999998    2.80999994
   20.07055664  120.94100189    1.36000001    2.82999992
   20.07389069  118.40699768    1.30999994    2.80999994
   20.07694626  119.85299683    1.28999996    2.80999994
   20.07722282  119.32599640    1.28999996    2.80999994
   20.08055687  119.59300232    1.26999998    2.80999994
   20.08388901  122.59600067    1.25000000    2.80999994
   20.08694458  118.95600128    1.25000000    2.82999992
   20.09027863  119.53500366    1.23000002    2.82999992
   20.09638977  119.53500366    1.28999996    2.82999992
   20.10055542  119.94699860    1.36000001    2.82999992
   20.10361099  123.89299774    1.38000000    2.82999992
   20.10694504  120.92199707    1.38000000    2.80999994
   20.11027908  122.73100281    1.36000001    2.80999994
   20.11055565  115.88099670    1.36000001    2.78999996
   20.11388969  119.77899933    1.36000001    2.80999994
   20.11722183  129.86599731    1.36000001    2.80999994
   20.12027740  129.81300354    1.33000004    2.82999992
   20.12361145  121.32700348    1.33000004    2.82999992
   20.12694550  133.07600403    1.30999994    2.82999992
   20.13000107  127.76899719    1.30999994    2.82999992
   20.13333321  124.87799835    1.28999996    2.80999994
   20.13916588  124.87799835    1.25000000    2.82999992
   20.14333344  121.77799988    1.21000004    2.82999992
   20.14388847  117.82499695    1.21000004    2.82999992
   20.14722252  122.12699890    1.19000006    2.82999992
   20.15027809  123.60199738    1.16999996    2.80999994
   20.15361023  121.65799713    1.14999998    2.80999994
   20.15694427  124.91500092    1.09000003    2.80999994
   20.15999985  121.27999878    1.09000003    2.80999994
   20.16333389  115.91500092    1.09000003    2.80999994
   20.16666603  114.28299713    1.09000003    2.80999994
   20.16972160  124.66100311    1.09000003    2.82999992
   20.17305565  121.41899872    1.07000005    2.82999992
   20.17611122  113.08399963    1.07000005    2.82999992
   20.17722130  120.44899750    1.07000005    2.82999992
   20.18194389  120.44899750    1.05999994    2.80999994
   20.18610954  120.23400116    1.05999994    2.82999992
   20.18944359  125.24099731    1.05999994    2.82999992
   20.19277763  114.76499939    1.07000005    2.82999992
   20.19583321  127.78500366    1.07000005    2.80999994
   20.19916534  117.99700165    1.07000005    2.80999994
   20.20250130  110.91600037    1.07000005    2.80999994
   20.20555687  129.80599976    1.07000005    2.80999994
   20.20888901  127.36000061    1.07000005    2.82999992
   20.21055603  126.35500336    1.07000005    2.82999992
   20.21250153  122.50599670    1.05999994    2.80999994
   20.21555710  124.80200195    1.05999994    2.82999992
   20.21888924  112.54900360    1.05999994    2.80999994
   20.22500038  112.54900360    1.05999994    2.82999992
   20.22916794  115.03399658    1.03999996    2.80999994
   20.23222351  122.57399750    1.05999994    2.80999994
   20.23555565  122.33000183    1.05999994    2.80999994
   20.23888969  121.06800079    1.05999994    2.80999994
   20.24194527  121.98200226    1.11000001    2.80999994
   20.24388885  115.96299744    1.14999998    2.80999994
   20.24555588  125.55599976    1.14999998    2.80999994
   20.24861145  120.96399689    1.16999996    2.80999994
   20.25194359  119.35399628    1.16999996    2.80999994
   20.25527763  122.64299774    1.16999996    2.78999996
   20.25833321  121.95400238    1.16999996    2.78999996
   20.26166725  126.69000244    1.16999996    2.80999994
   20.26777840  126.69000244    1.16999996    2.80999994
   20.27194405  124.44899750    1.21000004    2.80999994
   20.27499962  118.54599762    1.21000004    2.80999994
   20.27722168  126.33100128    1.21000004    2.78999996
   20.27888870  115.05000305    1.21000004    2.78999996
   20.28222275  118.81800079    1.23000002    2.78999996
   20.28527641  132.39500427    1.23000002    2.78999996
   20.28861046  128.03300476    1.21000004    2.78999996
   20.29166603  120.68299866    1.21000004    2.78999996
   20.29500008  126.14499664    1.23000002    2.78999996
   20.29833221  119.33000183    1.23000002    2.78999996
   20.30138779  120.62300110    1.23000002    2.78999996
   20.30472183  113.32700348    1.23000002    2.78999996
   20.31055450  113.32700348    1.26999998    2.78999996
   20.31472206  127.53399658    1.26999998    2.78999996
   20.31805611  125.44699860    1.28999996    2.78999996
   20.32111168  123.55200195    1.28999996    2.78999996
   20.32444572  121.11699677    1.28999996    2.78999996
   20.32777786  118.20300293    1.30999994    2.78999996
   20.33083344  126.46199799    1.30999994    2.78999996
   20.33416748  121.97699738    1.28999996    2.78999996
   20.33722305  127.45700073    1.28999996    2.78999996
   20.34055710  101.39800262    1.26999998    2.78999996
   20.34388924  107.60900116    1.26999998    2.80999994
   20.34555626  120.66400146    1.26999998    2.80999994
   20.34749985  124.12999725    1.26999998    2.78999996
   20.35333443  124.12999725    1.25000000    2.78999996
   20.35750008  138.99699402    1.25000000    2.78999996
   20.36083412  128.36999512    1.25000000    2.78999996
   20.36416626  133.42700195    1.25000000    2.78999996
   20.36722183  135.39300537    1.25000000    2.78999996
   20.37055588  130.98899841    1.26999998    2.78999996
   20.37388992  130.25900269    1.26999998    2.78999996
   20.37694550  124.18499756    1.23000002    2.76999998
   20.37888908  126.26000214    1.23000002    2.78999996
   20.38055611  124.62300110    1.23000002    2.78999996
   20.38388824  128.92900085    1.23000002    2.78999996
   20.38694382  135.19900513    1.21000004    2.78999996
   20.39027786  133.28399658    1.25000000    2.76999998
   20.39638901  133.28399658    1.28999996    2.78999996
   20.40055466  128.17500305    1.28999996    2.78999996
   20.40361023  134.38299561    1.33000004    2.78999996
   20.40694427  140.68299866    1.30999994    2.76999998
   20.40999985  135.74299622    1.33000004    2.78999996
   20.41250038  120.87999725    1.33000004    2.76999998
   20.41388893  132.57299805    1.34000003    2.76999998
   20.41694450  135.01699829    1.36000001    2.78999996
   20.42027664  133.70100403    1.38000000    2.78999996
   20.42361069  132.20399475    1.41999996    2.78999996
   20.42666626  126.20400238    1.41999996    2.78999996
   20.43000031  133.42300415    1.44000006    2.78999996
   20.43333244  122.38700104    1.48000002    2.76999998
   20.43916512  122.38700104    1.50000000    2.78999996
   20.44333267  129.87399292    1.51999998    2.76999998
   20.44583321  133.53399658    1.55999994    2.76999998
   20.44694328  135.75500488    1.55999994    2.76999998
   20.45000076  128.28900146    1.60000002    2.76999998
   20.45333481  135.43400574    1.60000002    2.76999998
   20.45666695  137.23300171    1.61000001    2.76999998
   20.45972252  124.83300018    1.61000001    2.76999998
   20.46305656  127.26699829    1.66999996    2.75000000
   20.46638870  126.40499878    1.64999998    2.75000000
   20.46944427  133.75500488    1.63000000    2.76999998
   20.47277832  131.03599548    1.64999998    2.75000000
   20.47611237  126.99500275    1.64999998    2.75000000
   20.48194504  126.99500275    1.63000000    2.75000000
   20.48611069  124.64199829    1.63000000    2.76999998
   20.48944473  116.10600281    4.90999985    2.76999998
   20.49250031  124.07900238    0.31999999    0.76999998
   20.49583435  126.84999847    0.15000001    0.44000000
   20.49916649  130.37300110    0.09000000    0.15000001
   20.50222206  130.30999756    0.09000000    0.15000001
   20.50555611  130.98699951    0.09000000    0.15000001
   20.50861168  117.60700226    0.09000000    0.15000001
   20.51194382  131.82499695    0.09000000    0.15000001
   20.51277733  128.93299866    0.09000000    0.15000001
   20.51555634  124.65399933    0.09000000    0.15000001
   20.51888847  124.98400116    0.09000000    0.15000001
   20.52472115  124.98400116    0.09000000    0.15000001
   20.52888870  126.08599854    0.09000000    0.15000001
   20.53222275  124.77100372    0.09000000    0.15000001
   20.53555489  132.60699463    0.09000000    0.15000001
   20.53861046  128.94299316    0.09000000    0.15000001
   20.54194450  136.91999817    0.09000000    0.15000001
   20.54527664  127.16500092    0.09000000    0.15000001
   20.54611015  127.41100311    0.09000000    0.15000001
   20.54888916  134.00500488    0.09000000    0.15000001
   20.55222130  127.83799744    0.09000000    0.15000001
   20.55527687  129.20799255    0.09000000    0.15000001
   20.55861092  125.67700195    0.09000000    0.15000001
