    HOUR (UT)   FLARE FACTOR    SKY TESTER    SUN TESTER
   11.07333374   -1.00000000   -1.00000000   -1.00000000
   11.14249992  298.41799927    1.05999994    1.86000001
   11.14583302  323.41400146    1.09000003    1.88000000
   11.14888859  273.30801392    1.09000003    1.89999998
   11.15222168  302.82901001    1.13000000    1.88000000
   11.15527725  306.78399658    1.13000000    1.89999998
   11.15861034  333.83200073    1.16999996    1.89999998
   11.16277695  333.83200073    0.55000001    0.46000001
   11.16694450  301.08700562    0.23000000    0.25000000
   11.17000008  297.01599121    0.19000000    0.09000000
   11.17333412  306.69100952    0.17000000    0.09000000
   11.17583370  278.40499878    0.19000000    0.09000000
   11.17694473  327.07299805    0.17000000    0.09000000
   11.18000031  308.32000732    0.17000000    0.09000000
   11.18333340  309.61898804    0.19000000    0.09000000
   11.18638897  292.95498657    0.19000000    0.09000000
   11.18972206  338.77700806    0.17000000    0.09000000
   11.19305515  317.97698975    0.17000000    0.09000000
   11.19611073  337.48699951    0.17000000    0.09000000
   11.19944477  333.21099854    0.17000000    0.09000000
   11.20555496  333.21099854    3.07999992    1.83000004
   11.20972157  350.34799194    3.05999994    1.85000002
   11.21305561  350.43600464    3.05999994    1.85000002
   11.21611118  345.39898682    3.07999992    1.85000002
   11.21944427  342.41198730    3.07999992    1.85000002
   11.22249985  366.97698975    3.07999992    1.85000002
   11.22583294  348.64999390    3.09999990    1.85000002
   11.22916603  347.86300659    3.09999990    1.85000002
   11.23222160  335.50601196    3.07999992    1.86000001
   11.23555565  413.52600098    3.07999992    1.86000001
   11.23750019  381.89898682    3.07999992    1.86000001
   11.23888874  352.66000366    3.07999992    1.88000000
   11.24027824  341.05999756    3.09999990    1.88000000
   11.24027824  345.39898682    3.07999992    1.85000002
   11.24027824  342.41198730    3.07999992    1.85000002
   11.24055576  366.97698975    3.07999992    1.85000002
   11.24055576  348.64999390    3.09999990    1.85000002
   11.24055576  347.86300659    3.09999990    1.85000002
   11.24083328  335.50601196    3.07999992    1.86000001
   11.24083328  413.52600098    3.07999992    1.86000001
   11.24083328  350.34799194    3.05999994    1.85000002
   11.24111176  350.43600464    3.05999994    1.85000002
   11.24166679  392.19601440    3.09999990    1.86000001
   11.24472237  500.23599243    3.09999990    1.88000000
   11.24694443  552.46002197    3.11999989    1.88000000
   11.24805546  449.16000366    3.09999990    1.88000000
   11.24944496  419.16400146    3.09999990    1.88000000
   11.25083351  362.46600342    3.11999989    1.88000000
   11.25222206  382.10101318    3.11999989    1.89999998
   11.25361156  438.27099609    3.11999989    1.88000000
   11.25500011  529.06097412    3.11999989    1.88000000
   11.25638866  423.32998657    3.14000010    1.89999998
   11.25777817  394.20599365    3.14000010    1.89999998
   11.25916672  453.64401245    3.14000010    1.88000000
   11.26055527  443.50299072    3.14000010    1.88000000
   11.26194477  482.47399902    3.14000010    1.88000000
   11.26333332  420.96899414    3.14000010    1.89999998
   11.26472187  425.17498779    3.14000010    1.89999998
   11.26611137  467.42599487    3.14000010    1.89999998
   11.26749992  397.75698853    3.11999989    1.89999998
   11.26888847  420.76098633    3.11999989    1.89999998
   11.27027798  445.54400635    3.11999989    1.89999998
   11.27166653  473.88198853    3.11999989    1.89999998
   11.27305508  349.58499146    3.11999989    1.89999998
   11.27333355  392.19601440    3.09999990    1.86000001
   11.27333355  500.23599243    3.09999990    1.88000000
   11.27388859  405.70001221    3.11999989    1.89999998
   11.27583313  379.32299805    3.11999989    1.89999998
   11.27722168  394.61499023    3.11999989    1.89999998
   11.27861118  378.79299927    3.11999989    1.91999996
   11.27999973  384.73901367    3.09999990    1.91999996
   11.28138828  486.83898926    3.11999989    1.91999996
   11.28277779  371.33599854    3.09999990    1.91999996
   11.28416729  411.22500610    3.09999990    1.91999996
   11.28555584  462.91400146    3.09999990    1.91999996
   11.28694534  471.20401001    3.09999990    1.91999996
   11.28833389  370.24099731    3.09999990    1.91999996
   11.28972244  378.19000244    3.09999990    1.91999996
   11.29111195  438.52398682    3.09999990    1.91999996
   11.29250050  362.31100464    3.09999990    1.91999996
   11.29388905  483.64898682    3.09999990    1.91999996
   11.29527855  430.67898560    3.09999990    1.94000006
   11.29666710  465.95001221    3.09999990    1.94000006
   11.29805565  352.91198730    3.09999990    1.91999996
   11.29944515  411.10198975    3.11999989    1.91999996
   11.30083370  364.01901245    3.09999990    1.94000006
   11.30222225  488.61898804    3.09999990    1.94000006
   11.30361176  375.45700073    3.11999989    1.94000006
   11.30500031  484.36300659    3.09999990    1.94000006
   11.30638885  469.95401001    3.09999990    1.94000006
   11.30777836  452.00900269    3.09999990    1.94000006
   11.30916691  489.81399536    3.09999990    1.94000006
   11.31055546  505.16299438    3.09999990    1.94000006
   11.31194496  564.85498047    3.07999992    1.94000006
   11.31333351  510.94699097    3.07999992    1.94000006
   11.31472206  449.95300293    3.07999992    1.94000006
   11.31611156  508.61999512    3.05999994    1.94000006
   11.31750011  489.02700806    3.05999994    1.94000006
   11.31888866  418.46600342    3.03999996    1.94000006
   11.32027817  416.05899048    3.03999996    1.96000004
   11.32166672  410.45300293    3.03999996    1.96000004
   11.32305527  418.89898682    3.03999996    1.96000004
   11.32444477  476.36801147    3.01999998    1.96000004
   11.32583332  412.37399292    3.01999998    1.96000004
   11.32722187  433.92800903    3.01999998    1.96000004
   11.32861137  434.74499512    3.01999998    1.96000004
   11.32999992  469.22900391    3.01999998    1.96000004
   11.33138847  447.50201416    3.01999998    1.96000004
   11.33277798  448.46899414    3.00000000    1.96000004
   11.33416653  494.76901245    3.00000000    1.96000004
   11.33555508  486.02700806    3.00000000    1.96000004
   11.33694458  405.52499390    2.98000002    1.98000002
   11.33833313  403.54901123    3.00000000    1.96000004
   11.33972168  468.43600464    2.98000002    1.98000002
   11.34111118  388.28500366    2.98000002    1.98000002
   11.34249973  442.97198486    2.98000002    1.98000002
   11.34388828  460.55999756    2.98000002    1.98000002
   11.34527779  397.13699341    2.98000002    1.98000002
   11.34666634  466.78399658    2.96000004    1.98000002
   11.34805489  458.96398926    2.96000004    1.98000002
   11.34944439  422.94500732    2.96000004    1.98000002
   11.35083389  369.56799316    2.96000004    2.00000000
   11.35222244  380.95700073    2.96000004    2.00000000
   11.35361195  465.05398560    2.96000004    2.00000000
   11.35500050  434.38598633    2.96000004    2.00000000
   11.35666752  368.60699463    2.94000006    2.00000000
   11.35777855  420.46798706    2.94000006    2.00000000
   11.35916710  427.84399414    2.96000004    2.00000000
   11.36055565  383.01599121    2.96000004    2.00000000
   11.36194515  398.54901123    2.94000006    2.00000000
   11.36333370  355.42199707    2.94000006    2.00000000
   11.36472225  390.58099365    2.94000006    2.00000000
   11.36611176  374.66598511    2.93000007    2.00000000
   11.36750031  441.50201416    2.93000007    2.00000000
   11.36888885  386.52700806    2.93000007    2.00000000
   11.37027836  376.94400024    2.93000007    2.00000000
   11.37166691  387.90600586    2.93000007    2.00000000
   11.37305546  379.70300293    2.93000007    2.01999998
   11.37444496  366.05300903    2.93000007    2.00000000
   11.37583351  376.92401123    2.91000009    2.01999998
   11.37722206  376.85198975    2.91000009    2.01999998
   11.37861156  389.36499023    2.91000009    2.01999998
   11.38000011  394.14498901    2.91000009    2.01999998
   11.38138866  357.41400146    2.91000009    2.01999998
   11.38277817  380.76501465    2.91000009    2.01999998
   11.38416672  344.35699463    2.91000009    2.01999998
   11.38416672  405.70001221    3.11999989    1.89999998
   11.38472176  380.55999756    2.91000009    2.01999998
   11.38805580  389.86599731    2.91000009    2.01999998
   11.39138889  361.09100342    2.89000010    2.01999998
   11.39444447  356.86199951    2.89000010    2.01999998
   11.39777756  385.48699951    2.89000010    2.03999996
   11.40083313  322.29800415    2.89000010    2.03999996
   11.40499973  322.29800415    2.89000010    2.03999996
   11.40916634  353.67700195    2.89000010    2.03999996
   11.41249943  366.91598511    2.86999989    2.03999996
   11.41555500  330.76400757    2.86999989    2.03999996
   11.41805553  341.71200562    2.84999990    2.05999994
   11.41944504  349.53698730    2.84999990    2.05999994
   11.42250061  334.01998901    2.84999990    2.05999994
   11.42583370  333.92401123    2.82999992    2.05999994
   11.42888927  309.07699585    2.82999992    2.05999994
   11.43222237  311.50201416    2.82999992    2.05999994
   11.43555546  298.37600708    2.80999994    2.05999994
   11.43861103  310.00299072    2.80999994    2.07999992
   11.44194412  320.62399292    2.80999994    2.07999992
   11.44777775  320.62399292    2.78999996    2.05999994
   11.45194435  313.26000977    2.78999996    2.07999992
   11.45527744  324.64498901    2.78999996    2.07999992
   11.45861053  297.96200562    2.78999996    2.07999992
   11.46166611  318.96301270    2.76999998    2.09999990
   11.46500015  292.54501343    2.76999998    2.07999992
   11.46805477  283.50299072    2.75000000    2.07999992
   11.47138882  286.26599121    2.75000000    2.07999992
   11.47472191  255.36199951    2.73000002    2.07999992
   11.47777748  273.22601318    2.73000002    2.09999990
   11.48111057  282.19900513    2.73000002    2.07999992
   11.48416710  270.95098877    2.71000004    2.09999990
   11.48472214  295.83599854    2.71000004    2.09999990
   11.49083328  295.83599854    2.69000006    2.09999990
   11.49499989  268.09698486    2.71000004    2.09999990
   11.49805546  274.45199585    2.69000006    2.09999990
   11.50138855  279.65600586    2.69000006    2.11999989
   11.50444412  273.59201050    2.67000008    2.11999989
   11.50777817  333.14599609    2.67000008    2.11999989
   11.51111126  292.09298706    2.67000008    2.11999989
   11.51416683  290.67098999    2.67000008    2.11999989
   11.51749992  270.36199951    2.67000008    2.11999989
   11.51805496  283.17199707    2.67000008    2.11999989
   11.52111053  291.16198730    2.67000008    2.11999989
   11.52444458  270.61599731    2.67000008    2.13000011
   11.52750015  262.27499390    2.67000008    2.13000011
   11.53361130  262.27499390    2.69000006    2.13000011
   11.53777790  270.53500366    2.69000006    2.13000011
   11.54083347  268.66198730    2.69000006    2.13000011
   11.54416752  288.77999878    2.71000004    2.13000011
   11.54750061  257.24499512    2.71000004    2.13000011
   11.55055618  256.70098877    2.71000004    2.13000011
   11.55138874  272.21701050    2.71000004    2.13000011
   11.55416679  284.75399780    2.73000002    2.13000011
   11.55749989  309.36199951    2.73000002    2.13000011
   11.56055546  254.50599670    2.71000004    2.13000011
   11.56388950  291.88699341    2.71000004    2.15000010
   11.56694412  290.49200439    2.73000002    2.15000010
   11.57027817  349.61898804    2.73000002    2.15000010
   11.57638836  349.61898804    2.73000002    2.15000010
   11.58055592  286.15200806    2.75000000    2.15000010
   11.58388901  278.80398560    2.75000000    2.15000010
   11.58472157  283.82000732    2.75000000    2.15000010
   11.58749962  271.49301147    2.76999998    2.15000010
   11.59055519  274.94100952    2.76999998    2.15000010
   11.59388828  265.86801147    2.78999996    2.17000008
   11.59722233  263.13598633    2.84999990    2.17000008
   11.60027790  265.02700806    2.82999992    2.15000010
   11.60361195  264.44500732    2.82999992    2.17000008
   11.60666752  282.75201416    2.84999990    2.17000008
   11.61000061  251.07499695    2.84999990    2.17000008
   11.61333370  249.16900635    2.86999989    2.17000008
   11.61916637  249.16900635    2.91000009    2.17000008
   11.62333393  267.66799927    2.91000009    2.17000008
   11.62666702  267.72601318    2.91000009    2.17000008
   11.63000011  263.92098999    2.93000007    2.19000006
   11.63305569  288.54199219    2.94000006    2.17000008
   11.63638878  266.95001221    2.98000002    2.19000006
   11.63944435  251.54899597    2.98000002    2.19000006
   11.64277744  261.20001221    3.01999998    2.19000006
   11.64611053  282.18499756    3.01999998    2.19000006
   11.64916611  277.46701050    3.01999998    2.19000006
   11.65138817  284.01998901    3.03999996    2.19000006
   11.65277767  271.73098755    3.03999996    2.19000006
   11.65583324  242.22700500    3.03999996    2.19000006
   11.66222191  242.22700500    3.01999998    2.19000006
   11.66638851  268.87600708    3.01999998    2.21000004
   11.66944504  254.81599426    3.01999998    2.21000004
   11.67277813  241.32099915    3.01999998    2.21000004
   11.67583370  291.48901367    3.00000000    2.21000004
   11.67916679  246.71200562    2.96000004    2.21000004
   11.68249989  243.30400085    2.93000007    2.21000004
   11.68472195  247.39900208    2.91000009    2.23000002
   11.68611145  242.85600281    2.91000009    2.23000002
   11.68916702  251.78300476    2.86999989    2.23000002
   11.69250011  263.32299805    2.86999989    2.23000002
   11.69583321  247.52799988    2.84999990    2.23000002
   11.69888878  249.79299927    2.84999990    2.23000002
   11.70499992  249.79299927    2.89000010    2.25000000
   11.70916653  238.92199707    2.89000010    2.25000000
   11.71222210  246.98100281    2.89000010    2.23000002
   11.71555519  247.20700073    2.91000009    2.23000002
   11.71805477  249.22200012    2.93000007    2.23000002
   11.71916580  261.05999756    2.93000007    2.23000002
   11.72222137  248.92199707    2.94000006    2.25000000
   11.72555542  249.24000549    2.94000006    2.25000000
   11.72888851  252.21200562    2.98000002    2.23000002
   11.73194408  241.08099365    3.00000000    2.23000002
   11.73527813  240.47200012    3.00000000    2.25000000
   11.73833370  257.49398804    3.01999998    2.25000000
   11.74166679  227.98899841    3.01999998    2.25000000
   11.74777794  227.98899841    3.03999996    2.25000000
   11.75194454  239.85400391    3.03999996    2.25000000
   11.75527763  239.78399658    3.03999996    2.25000000
   11.75833321  247.56599426    3.03999996    2.25000000
   11.76166630  231.91400146    3.01999998    2.25000000
   11.76472187  241.57099915    3.01999998    2.25000000
   11.76805496  234.63600159    3.00000000    2.25000000
   11.77138901  259.06399536    3.00000000    2.25000000
   11.77444458  235.54299927    2.98000002    2.25000000
   11.77777767  225.86900330    3.00000000    2.25000000
   11.78083324  250.41099548    2.96000004    2.26999998
   11.78416729  235.97900391    2.94000006    2.26999998
   11.78472233  246.11000061    2.94000006    2.26999998
   11.79055595  246.11000061    2.93000007    2.26999998
   11.79472256  236.49299622    2.91000009    2.26999998
   11.79805565  229.28399658    2.91000009    2.26999998
   11.80138874  229.95700073    2.93000007    2.26999998
   11.80444431  249.02200317    2.93000007    2.28999996
   11.80777836  226.27099609    2.94000006    2.28999996
   11.81083393  233.10899353    2.96000004    2.28999996
   11.81416702  232.16499329    2.96000004    2.28999996
   11.81750011  230.15199280    2.98000002    2.28999996
   11.81805515  225.67199707    2.98000002    2.28999996
   11.82111073  223.91099548    2.98000002    2.28999996
   11.82444477  230.84700012    2.98000002    2.28999996
   11.82750034  241.62500000    3.00000000    2.28999996
   11.83361053  241.62500000    3.00000000    2.28999996
   11.83777714  227.40199280    3.01999998    2.28999996
   11.84083271  221.53999329    3.01999998    2.28999996
   11.84416676  228.64700317    3.03999996    2.28999996
   11.84722233  229.80299377    3.01999998    2.28999996
   11.85055637  243.22500610    3.03999996    2.30999994
   11.85138893  232.04100037    3.03999996    2.28999996
   11.85416698  227.14799500    3.03999996    2.30999994
   11.85750008  233.89799500    3.03999996    2.28999996
   11.86055565  236.12699890    3.05999994    2.30999994
   11.86388969  232.45799255    3.03999996    2.30999994
   11.86694431  229.14500427    3.03999996    2.30999994
   11.87027836  230.45199585    3.03999996    2.30999994
   11.87638855  230.45199585    3.01999998    2.32999992
   11.88055611  227.04400635    3.01999998    2.32999992
   11.88361073  225.23399353    3.01999998    2.30999994
   11.88472176  208.08500671    3.01999998    2.30999994
   11.88722229  215.75799561    3.01999998    2.30999994
   11.89055538  220.92999268    3.00000000    2.32999992
   11.89361095  222.58599854    3.00000000    2.30999994
   11.89694405  218.21699524    2.98000002    2.30999994
   11.90027714  221.39100647    2.98000002    2.30999994
   11.90333271  219.24000549    2.96000004    2.32999992
   11.90666676  215.01899719    2.94000006    2.30999994
   11.90972137  230.27999878    2.93000007    2.32999992
   11.91305542  215.66499329    2.93000007    2.32999992
   11.91916656  215.66499329    2.93000007    2.32999992
   11.92333412  235.41700745    2.91000009    2.32999992
   11.92666721  228.77000427    2.91000009    2.32999992
   11.92972279  224.80400085    2.91000009    2.32999992
   11.93305588  214.72900391    2.91000009    2.34999990
   11.93611145  233.39199829    2.91000009    2.32999992
   11.93944454  218.63400269    2.91000009    2.34999990
   11.94277763  222.55400085    2.93000007    2.32999992
   11.94583321  216.30099487    2.94000006    2.34999990
   11.94916630  207.46400452    2.94000006    2.34999990
   11.95138836  220.64100647    2.96000004    2.34999990
   11.95277786  212.85600281    2.96000004    2.34999990
   11.95611095  219.90699768    2.96000004    2.34999990
   11.96194458  219.90699768    2.98000002    2.34999990
   11.96611118  207.50799561    2.98000002    2.34999990
   11.96944427  223.69000244    2.96000004    2.34999990
   11.97249985  223.53500366    2.96000004    2.34999990
   11.97583294  220.92999268    2.96000004    2.36999989
   11.97916603  215.33799744    2.94000006    2.36999989
   11.98222160  224.72999573    2.93000007    2.36999989
   11.98472214  205.35000610    2.93000007    2.36999989
   11.98583317  209.86399841    2.91000009    2.36999989
   11.98916721  212.47900391    2.89000010    2.36999989
   11.99222279  217.51600647    2.86999989    2.36999989
   11.99555588  221.83599854    2.84999990    2.36999989
   11.99861145  218.64199829    2.82999992    2.36999989
   12.00500011  218.64199829    2.80999994    2.36999989
   12.00888920  217.39199829    2.78999996    2.39000010
   12.01222229  214.89399719    2.78999996    2.36999989
   12.01555538  207.27799988    2.78999996    2.39000010
   12.01805496  206.74200439    2.78999996    2.39000010
   12.01916599  217.58099365    2.78999996    2.36999989
   12.02250004  205.80700684    2.76999998    2.39000010
   12.02555561  224.43299866    2.76999998    2.39000010
   12.02888870  211.39199829    2.76999998    2.39000010
   12.03194427  227.12699890    2.76999998    2.39000010
   12.03527832  220.70599365    2.76999998    2.39000010
   12.03861141  210.17100525    2.78999996    2.39000010
   12.04166698  206.60699463    2.80999994    2.39000010
   12.04777813  206.60699463    2.78999996    2.39000010
   12.05194473  207.10099792    2.78999996    2.39000010
   12.05500031  227.94900513    2.78999996    2.39000010
   12.05833340  215.53300476    2.78999996    2.39000010
   12.06138897  213.35800171    2.78999996    2.39000010
   12.06472206  240.44000244    2.78999996    2.39000010
   12.06805515  227.41200256    2.80999994    2.39000010
   12.07138920  201.86000061    2.80999994    2.40000010
   12.07444477  214.60099792    2.80999994    2.39000010
   12.07777786  208.72500610    2.78999996    2.39000010
   12.08083344  209.34700012    2.76999998    2.39000010
   12.08416653  212.67300415    2.75000000    2.40000010
   12.08472157  218.62300110    2.75000000    2.40000010
   12.09055519  218.62300110    2.71000004    2.39000010
   12.09472179  221.70300293    2.71000004    2.40000010
   12.09805489  215.85600281    2.71000004    2.40000010
   12.10111141  223.71000671    2.73000002    2.40000010
   12.10444450  245.68200684    2.75000000    2.40000010
   12.10750008  263.57598877    2.75000000    2.40000010
   12.11083412  236.30400085    2.75000000    2.40000010
   12.11416721  240.91600037    2.75000000    2.40000010
   12.11722279  210.96400452    2.75000000    2.40000010
   12.11805534  260.26501465    2.75000000    2.40000010
   12.12083340  249.09899902    2.75000000    2.40000010
   12.12416649  255.59899902    2.75000000    2.42000008
   12.12722206  264.53799438    2.75000000    2.40000010
   12.13333321  264.53799438    2.73000002    2.42000008
   12.13749981  250.87500000    2.71000004    2.42000008
   12.14083290  252.13000488    2.69000006    2.42000008
   12.15944386  277.59698486    2.69000006    2.44000006
   12.16083336  252.98100281    2.69000006    2.42000008
   12.16388893  277.64498901    2.69000006    2.42000008
   12.16722298  280.89001465    2.71000004    2.44000006
   12.17027855  246.68499756    2.71000004    2.44000006
   12.17638874  246.68499756    2.71000004    2.42000008
   12.18055630  285.08200073    2.73000002    2.42000008
   12.18388939  295.68399048    2.73000002    2.44000006
   12.18694496  262.96701050    2.73000002    2.44000006
   12.19027805  243.69299316    2.73000002    2.44000006
   12.19277763  247.34800720    2.73000002    2.42000008
   12.19388866  274.01300049    2.73000002    2.44000006
   12.19722271  281.17700195    2.73000002    2.44000006
   12.20055580  262.77099609    2.71000004    2.42000008
   12.20361137  233.25599670    2.73000002    2.44000006
   12.20694447  256.83499146    2.73000002    2.44000006
   12.21000004  287.73699951    2.73000002    2.44000006
   12.21333313  249.95300293    2.73000002    2.44000006
   12.21944427  249.95300293    2.71000004    2.44000006
   12.22333336  247.26400757    2.71000004    2.44000006
   12.22611046  263.10501099    2.73000002    2.44000006
   12.22694397  245.40400696    2.71000004    2.44000006
   12.23027706  256.00900269    2.73000002    2.44000006
   12.23361111  257.78399658    2.71000004    2.44000006
   12.23666668  250.04100037    2.71000004    2.44000006
   12.24000072  258.38400269    2.71000004    2.44000006
   12.24333382  247.46099854    2.69000006    2.44000006
   12.24638939  272.54598999    2.69000006    2.46000004
   12.24972248  283.80801392    2.71000004    2.46000004
   12.25277805  270.15301514    2.71000004    2.46000004
   12.25611115  247.80799866    2.69000006    2.46000004
   12.26222229  247.80799866    2.67000008    2.46000004
   12.26638889  262.86898804    2.67000008    2.46000004
   12.26944447  255.26600647    2.66000009    2.46000004
   12.27277756  236.66000366    2.66000009    2.46000004
   12.27583313  253.05700684    2.64000010    2.46000004
   12.27916622  243.58500671    2.64000010    2.46000004
   12.28249931  224.58700562    2.61999989    2.46000004
   12.28555584  240.78999329    2.61999989    2.46000004
   12.28888893  235.56799316    2.59999990    2.46000004
   12.29222298  223.62699890    2.59999990    2.46000004
   12.29305553  219.49499512    2.59999990    2.48000002
   12.29583359  230.79400635    2.59999990    2.48000002
   12.29888916  219.51600647    2.57999992    2.48000002
   12.30500031  219.51600647    2.55999994    2.46000004
   12.30916691  221.40800476    2.55999994    2.46000004
   12.31250000  210.02999878    2.53999996    2.48000002
   12.31555557  220.28999329    2.51999998    2.48000002
   12.31888866  210.10099792    2.51999998    2.48000002
   12.32194424  221.13600159    2.50000000    2.48000002
   12.32527733  204.36500549    2.50000000    2.48000002
   12.32638836  206.91299438    2.50000000    2.48000002
   12.32888889  205.75199890    2.48000002    2.48000002
   12.33194447  219.51800537    2.48000002    2.48000002
   12.33527756  216.91900635    2.46000004    2.46000004
   12.33861065  225.16900635    2.44000006    2.48000002
   12.34166622  201.34399414    2.42000008    2.48000002
   12.34777737  201.34399414    2.40000010    2.48000002
   12.35194492  207.97900391    2.39000010    2.48000002
   12.35527802  203.27999878    2.39000010    2.50000000
   12.35833359  223.70300293    2.36999989    2.48000002
   12.36000061  201.42599487    2.39000010    2.48000002
   12.36194515  201.58900452    2.39000010    2.50000000
   12.36527824  209.67900085    2.39000010    2.50000000
   12.36861134  214.02699280    2.39000010    2.48000002
   12.37166691  204.75500488    2.39000010    2.50000000
   12.37500000  221.76400757    2.40000010    2.50000000
   12.37833309  204.94299316    2.39000010    2.50000000
   12.38138866  214.97900391    2.39000010    2.48000002
   12.38472176  209.30200195    2.39000010    2.50000000
   12.39083290  209.30200195    2.36999989    2.51999998
   12.39472198  221.46000671    2.39000010    2.50000000
   12.39805508  226.59700012    2.39000010    2.50000000
   12.40138817  228.78100586    2.36999989    2.50000000
   12.40444374  219.90199280    2.36999989    2.50000000
   12.40805531  210.72300720    2.36999989    2.50000000
   12.41138840  202.65299988    2.34999990    2.51999998
   12.41444397  284.66101074    2.36999989    2.50000000
   12.41777802  226.32499695    2.36999989    2.50000000
   12.42111111  213.29100037    2.34999990    2.51999998
   12.42416668  230.80299377    2.34999990    2.51999998
   12.42666721  207.70100403    2.36999989    2.51999998
   12.42805576  214.33900452    2.34999990    2.50000000
   12.43361092  214.33900452    2.34999990    2.51999998
   12.43777752  175.63999939    2.36999989    2.50000000
   12.44138908  222.24099731    2.36999989    2.51999998
   12.44444466  198.76600647    2.36999989    2.50000000
   12.44777775  237.57200623    2.36999989    2.51999998
   12.45083332  223.68499756    2.36999989    2.50000000
   12.45416641  241.18899536    2.34999990    2.50000000
   12.45749950  229.06799316    2.34999990    2.51999998
   12.46000004  229.66799927    2.34999990    2.51999998
   12.46111107  235.24699402    2.34999990    2.51999998
   12.46416664  220.67199707    2.34999990    2.51999998
   12.46749973  239.00799561    2.34999990    2.51999998
   12.47055531  227.92799377    2.34999990    2.51999998
   12.47638798  227.92799377    2.32999992    2.51999998
   12.48055553  230.66600037    2.30999994    2.51999998
   12.48388958  213.54499817    2.26999998    2.51999998
   12.48694515  238.60299683    2.25000000    2.53999996
   12.49027824  234.22399902    2.25000000    2.51999998
   12.49333382  223.26800537    2.25000000    2.51999998
   12.49388885  205.95700073    2.25000000    2.51999998
   12.49694443  210.76600647    2.25000000    2.51999998
   12.50027752  228.67999268    2.25000000    2.51999998
   12.50333309  208.93200684    2.25000000    2.51999998
   12.50666714  226.21400452    2.23000002    2.51999998
   12.51000023  218.00000000    2.25000000    2.51999998
   12.51305580  227.15600586    2.23000002    2.53999996
   12.51916599  227.15600586    2.23000002    2.53999996
   12.52333355  210.28199768    2.21000004    2.53999996
   12.52666664  203.88299561    2.21000004    2.53999996
   12.52722168  195.69500732    2.21000004    2.53999996
   12.53027725  200.34700012    2.21000004    2.53999996
   12.53361130  215.37800598    2.21000004    2.51999998
   12.53666687  210.73300171    2.17000008    2.53999996
   12.54027843  223.62199402    2.13000011    2.53999996
   12.54361153  195.51699829    2.11999989    2.53999996
   12.54666710  224.98599243    2.09999990    2.53999996
   12.55000019  233.05400085    2.05999994    2.53999996
   12.55333328  253.05900574    2.05999994    2.53999996
   12.55638885  254.57299805    2.03999996    2.55999994
   12.56222248  254.57299805    2.03999996    2.55999994
   12.56611156  276.08700562    2.03999996    2.55999994
   12.56944466  292.24398804    2.03999996    2.55999994
   12.57277775  277.23400879    2.03999996    2.55999994
   12.57583332  256.27301025    2.01999998    2.55999994
   12.57916641  212.35499573    2.01999998    2.55999994
   12.58222198  248.41299438    2.01999998    2.55999994
   12.58555508  210.78199768    2.01999998    2.55999994
   12.58888817  260.75201416    2.01999998    2.55999994
   12.59194374  238.13800049    2.00000000    2.55999994
   12.59333324  242.89999390    2.01999998    2.55999994
   12.59583282  268.12600708    2.00000000    2.55999994
   12.59888840  240.63299561    1.98000002    2.55999994
   12.60500050  240.63299561    1.96000004    2.55999994
   12.60916710  235.05900574    1.94000006    2.55999994
   12.61222267  232.30200195    1.94000006    2.55999994
   12.61555576  248.01400757    1.94000006    2.55999994
   12.61888885  211.50399780    1.94000006    2.55999994
   12.62194443  255.19900513    1.94000006    2.55999994
   12.62527752  261.51699829    1.94000006    2.55999994
   12.62666702  203.98399353    1.96000004    2.55999994
   12.62888908  238.82000732    1.96000004    2.57999992
   12.63194466  217.30099487    1.98000002    2.55999994
   12.63527775  218.75999451    1.98000002    2.57999992
   12.63833332  196.66200256    1.98000002    2.55999994
   12.64166641  234.52200317    2.01999998    2.55999994
   12.64777756  234.52200317    2.03999996    2.55999994
   12.65194416  220.02900696    2.05999994    2.55999994
   12.65499973  222.39599609    2.07999992    2.55999994
   12.65833282  221.18299866    2.07999992    2.57999992
   12.66027737  219.71299744    2.07999992    2.55999994
   12.66194439  226.74600220    2.09999990    2.57999992
   12.66527748  181.06700134    2.09999990    2.57999992
   12.66861153  222.47000122    2.09999990    2.57999992
   12.67166710  236.59199524    2.09999990    2.55999994
   12.67500019  193.90899658    2.09999990    2.57999992
   12.67805576  200.67199707    2.09999990    2.55999994
   12.68138885  189.02600098    2.09999990    2.57999992
   12.68472195  211.37100220    2.09999990    2.55999994
   12.69055557  211.37100220    2.07999992    2.55999994
   12.69472218  191.31199646    2.07999992    2.57999992
   12.69805527  197.91600037    2.07999992    2.55999994
   12.70111084  188.88600159    2.09999990    2.57999992
   12.70444393  176.06599426    2.09999990    2.57999992
   12.70777798  209.67100525    2.09999990    2.57999992
   12.71083355  211.53999329    2.09999990    2.57999992
   12.71416664  198.05000305    2.09999990    2.57999992
   12.71722221  220.67999268    2.09999990    2.57999992
   12.72055531  195.08299255    2.07999992    2.57999992
   12.72388840  186.60000610    2.07999992    2.57999992
   12.72694397  196.75199890    2.05999994    2.57999992
   12.72722149  176.61300659    2.05999994    2.57999992
   12.73361111  176.61300659    2.01999998    2.59999990
   12.73750019  189.55400085    1.98000002    2.57999992
   12.74083328  195.24400330    1.96000004    2.59999990
   12.74416733  212.71899414    1.98000002    2.59999990
   12.74722290  198.59599304    1.96000004    2.59999990
   12.75055599  197.85699463    1.94000006    2.59999990
   12.75361156  179.84800720    1.96000004    2.59999990
   12.75694466  200.34599304    1.98000002    2.57999992
   12.76027775  194.80900574    1.98000002    2.57999992
   12.76055527  200.58599854    2.00000000    2.57999992
   12.76388931  177.50199890    2.00000000    2.59999990
   12.76722240  189.66200256    2.01999998    2.59999990
   12.77027798  198.49400330    2.01999998    2.59999990
   12.77638817  198.49400330    2.01999998    2.59999990
   12.78055573  195.08200073    2.01999998    2.57999992
   12.78361130  195.09899902    2.01999998    2.59999990
   12.78694534  210.22000122    2.01999998    2.59999990
   12.79000092  210.71499634    2.01999998    2.59999990
   12.79333401  196.56900024    2.01999998    2.59999990
   12.79388905  189.47200012    2.01999998    2.59999990
   12.79722309  197.46200562    2.01999998    2.59999990
   12.80027771  168.52999878    2.03999996    2.57999992
   12.80361176  212.23100281    2.03999996    2.59999990
   12.80666733  178.83299255    2.03999996    2.59999990
   12.81000042  193.78999329    2.03999996    2.59999990
   12.81333351  217.10699463    2.01999998    2.59999990
   12.81916618  217.10699463    2.01999998    2.59999990
   12.82333374  202.82699585    2.03999996    2.59999990
   12.82666683  194.70799255    2.03999996    2.61999989
   12.82722187  199.33799744    2.03999996    2.59999990
   12.83027744  181.64700317    2.00000000    2.61999989
   12.83333302  185.41700745    2.00000000    2.59999990
   12.83666611  210.97300720    1.98000002    2.59999990
   12.83972168  176.63900757    1.96000004    2.59999990
   12.84305477  192.15800476    1.94000006    2.61999989
   12.84638882  190.88400269    1.89999998    2.59999990
   12.84944439  191.55999756    1.89999998    2.59999990
   12.85277843  205.11999512    1.88000000    2.61999989
   12.85583401  199.28300476    1.88000000    2.59999990
   12.86194515  199.28300476    1.85000002    2.59999990
   12.86611176  226.51899719    1.85000002    2.59999990
   12.86944485  185.82000732    1.85000002    2.61999989
   12.87250042  194.40299988    1.85000002    2.61999989
   12.87583351  207.66900635    1.85000002    2.61999989
   12.87916660  194.49299622    1.85000002    2.61999989
   12.88222218  220.58399963    1.83000004    2.61999989
   12.88555527  214.21200562    1.83000004    2.61999989
   12.88861084  210.04200745    1.80999994    2.61999989
   12.89194393  206.51699829    1.83000004    2.61999989
   12.89388847  188.71499634    1.83000004    2.61999989
   12.89555550  189.94400024    1.83000004    2.61999989
   12.89861107  213.05000305    1.83000004    2.64000010
   12.90499973  213.05000305    1.85000002    2.61999989
   12.90888882  201.02999878    1.85000002    2.61999989
   12.91222191  222.18800354    1.86000001    2.64000010
   12.91555500  172.68699646    1.86000001    2.61999989
   12.91861153  185.41900635    1.86000001    2.61999989
   12.92194462  191.14999390    1.86000001    2.61999989
   12.92500019  198.39300537    1.86000001    2.59999990
   12.92722225  201.02400208    1.88000000    2.61999989
   12.92888927  200.30999756    1.88000000    2.64000010
   12.93194485  195.07099915    1.88000000    2.64000010
   12.93527794  219.81700134    1.88000000    2.64000010
   12.93833351  190.58599854    1.88000000    2.61999989
   12.94166660  189.55200195    1.88000000    2.61999989
   12.94777775  189.55200195    1.88000000    2.61999989
   12.95194435  181.98100281    1.86000001    2.64000010
   12.95499992  192.50199890    1.85000002    2.64000010
   12.95833302  183.10099792    1.85000002    2.61999989
   12.96055508  163.41999817    1.85000002    2.64000010
   12.96194458  178.51499939    1.85000002    2.61999989
   12.96500015  164.85899353    1.83000004    2.64000010
   12.96833324  154.18400574    1.83000004    2.64000010
   12.97166634  186.32200623    1.80999994    2.64000010
   12.97472191  176.08500671    1.80999994    2.64000010
   12.97805500  177.35400391    1.78999996    2.66000009
   12.98111057  191.38600159    1.76999998    2.64000010
   12.98444462  175.49499512    1.76999998    2.64000010
   12.99055576  175.49499512    1.73000002    2.64000010
   12.99472237  202.22399902    1.71000004    2.66000009
   12.99805546  201.23899841    1.69000006    2.64000010
   13.00111103  205.75900269    1.66999996    2.64000010
   13.00444412  200.53799438    1.64999998    2.64000010
   13.00777817  173.69099426    1.63000000    2.64000010
   13.01083374  178.70399475    1.61000001    2.64000010
   13.01416683  182.72799683    1.60000002    2.64000010
   13.01722240  181.88800049    1.60000002    2.64000010
   13.02055550  158.97500610    1.58000004    2.64000010
   13.02388859  182.02999878    1.55999994    2.64000010
   13.02694416  195.96699524    1.55999994    2.64000010
   13.02750015  149.70500183    1.53999996    2.66000009
   13.03333378  149.70500183    1.51999998    2.66000009
   13.03750038  202.85499573    1.51999998    2.64000010
   13.04083347  211.86999512    1.51999998    2.66000009
   13.04388905  206.14700317    1.50000000    2.66000009
   13.04722309  206.44999695    1.50000000    2.66000009
   13.05055618  195.18899536    1.50000000    2.66000009
   13.05361176  182.87699890    1.50000000    2.66000009
   13.05694485  182.71200562    1.50000000    2.67000008
   13.06000042  164.21400452    1.50000000    2.64000010
   13.06083393  217.98899841    1.48000002    2.66000009
   13.06388950  218.39999390    1.48000002    2.66000009
   13.06694412  206.76400757    1.48000002    2.66000009
   13.07027817  217.57699585    1.50000000    2.66000009
   13.07638836  217.57699585    1.48000002    2.66000009
   13.08027744  254.76400757    1.48000002    2.64000010
   13.08361053  230.69700623    1.48000002    2.64000010
   13.08694458  241.40699768    1.46000004    2.66000009
   13.09000015  199.60600281    1.48000002    2.66000009
   13.09333324  176.60000610    1.48000002    2.66000009
   13.09416676  179.64900208    1.46000004    2.66000009
   13.09694386  205.68299866    1.46000004    2.66000009
   13.10000038  182.96499634    1.44000006    2.64000010
   13.10333347  154.82099915    1.39999998    2.66000009
   13.10666752  183.23199463    1.41999996    2.66000009
   13.10972214  218.75700378    1.41999996    2.66000009
   13.11305618  229.01199341    1.41999996    2.67000008
   13.11916637  229.01199341    1.39999998    2.67000008
   13.12333393  195.04600525    1.39999998    2.67000008
   13.12638855  202.47900391    1.39999998    2.67000008
   13.12750053  217.65600586    1.38000000    2.66000009
   13.13000011  212.86599731    1.38000000    2.67000008
   13.13305569  196.24600220    1.38000000    2.67000008
   13.13638878  193.89399719    1.38000000    2.67000008
   13.13972187  191.74000549    1.36000001    2.66000009
   13.14277744  197.87300110    1.36000001    2.67000008
   13.14611053  179.08999634    1.36000001    2.67000008
   13.14916611  199.53100586    1.34000003    2.66000009
   13.15249920  186.03700256    1.34000003    2.67000008
   13.15583324  212.86300659    1.36000001    2.67000008
   13.17666721   97.57099915    1.41999996    2.66000009
   13.17694473  114.06099701    1.41999996    2.67000008
   13.18027782  173.28999329    1.44000006    2.66000009
   13.18361092  182.22399902    1.44000006    2.67000008
   13.18666649  165.59399414    1.46000004    2.67000008
   13.19000053  179.70399475    1.48000002    2.67000008
   13.19305515  166.39999390    1.46000004    2.67000008
   13.19638920  192.07099915    1.46000004    2.67000008
   13.19972229  172.05799866    1.46000004    2.67000008
   13.20472240  172.05799866    1.44000006    2.67000008
   13.20888901  172.38999939    1.46000004    2.66000009
   13.20972157  161.30799866    1.46000004    2.67000008
   13.21249962  166.33500671    1.48000002    2.67000008
   13.21555519  146.66099548    1.46000004    2.67000008
   13.21888828  162.91400146    1.48000002    2.67000008
   13.22222137  163.62399292    1.46000004    2.67000008
   13.22527695  163.27299500    1.46000004    2.67000008
   13.22861099  167.98199463    1.44000006    2.67000008
   13.23166656  165.52499390    1.44000006    2.67000008
   13.23500061  162.12600708    1.44000006    2.67000008
   13.23833370  159.06300354    1.44000006    2.67000008
   13.24138927  162.55799866    1.44000006    2.67000008
   13.24305534  160.55400085    1.44000006    2.67000008
   13.24777794  160.55400085    1.41999996    2.67000008
   13.25166702  146.61199951    1.41999996    2.69000006
   13.25500011  158.92900085    1.41999996    2.67000008
   13.25833321  159.76400757    1.39999998    2.67000008
   13.26138878  154.35400391    1.39999998    2.67000008
   13.26472187  150.69400024    1.38000000    2.67000008
   13.26777744  134.57400513    1.38000000    2.69000006
   13.27111053  176.52799988    1.38000000    2.67000008
   13.27444458  149.20799255    1.39999998    2.69000006
   13.27638817  161.32200623    1.41999996    2.69000006
   13.27805519  155.20199585    1.39999998    2.69000006
   13.28111076  154.84800720    1.41999996    2.67000008
   13.28444481  150.58500671    1.41999996    2.69000006
   13.29055595  150.58500671    1.41999996    2.69000006
   13.29472256  149.32899475    1.41999996    2.69000006
   13.29777813  159.14599609    1.44000006    2.69000006
   13.30111122  154.22099304    1.44000006    2.69000006
   13.30416679  153.53199768    1.44000006    2.67000008
   13.30749989  151.63000488    1.44000006    2.69000006
   13.30972195  163.85800171    1.44000006    2.69000006
   13.31111145  149.44099426    1.44000006    2.67000008
   13.31416702  158.64399719    1.46000004    2.69000006
   13.31750011  157.44500732    1.46000004    2.67000008
   13.32083321  155.38000488    1.46000004    2.69000006
   13.32388878  154.75599670    1.48000002    2.67000008
   13.32722187  153.15800476    1.48000002    2.69000006
   13.33333302  153.15800476    1.50000000    2.67000008
   13.33749962  165.44500732    1.50000000    2.67000008
   13.34055519  144.64700317    1.51999998    2.69000006
   13.34305477  154.76400757    1.51999998    2.69000006
   13.34444427  142.08200073    1.51999998    2.67000008
   13.34777737  147.40299988    1.51999998    2.69000006
   13.35083389  150.10899353    1.51999998    2.67000008
   13.35416698  150.54100037    1.50000000    2.69000006
   13.35722256  148.98899841    1.48000002    2.69000006
   13.36055565  140.18800354    1.48000002    2.71000004
   13.36388969  155.87199402    1.44000006    2.69000006
   13.36694431  154.00700378    1.46000004    2.69000006
   13.37027836  147.72000122    1.46000004    2.69000006
   13.37611103  147.72000122    1.46000004    2.69000006
   13.38027763  145.65499878    1.48000002    2.69000006
   13.38361073  158.88499451    1.48000002    2.69000006
   13.38666630  151.60899353    1.50000000    2.69000006
   13.39000034  151.77799988    1.51999998    2.69000006
   13.39333344  155.52099609    1.51999998    2.69000006
   13.39638901  144.50700378    1.53999996    2.69000006
   13.39972210  157.41900635    1.55999994    2.69000006
   13.40277767  160.12399292    1.58000004    2.69000006
   13.40611076  158.74699402    1.58000004    2.69000006
   13.40944386  159.75199890    1.58000004    2.69000006
   13.41111088  166.08500671    1.58000004    2.69000006
   13.41305542  161.96000671    1.58000004    2.69000006
   13.41888905  161.96000671    1.55999994    2.69000006
   13.42305565  153.19799805    1.55999994    2.69000006
   13.42638874  168.23500061    1.60000002    2.71000004
   13.42972279  163.01800537    1.63000000    2.69000006
   13.43277836  153.58900452    1.63000000    2.69000006
   13.43611145  152.11599731    1.64999998    2.69000006
   13.43916702  149.03300476    1.64999998    2.69000006
   13.44250011  157.50700378    1.64999998    2.69000006
   13.44444466  155.49899292    1.66999996    2.69000006
   13.44611073  146.85000610    1.66999996    2.69000006
   13.44944477  165.17999268    1.71000004    2.71000004
   13.45249939  164.70100403    1.73000002    2.69000006
   13.45583344  153.55700684    1.73000002    2.69000006
   13.46194458  153.55700684    1.75000000    2.69000006
   13.46611118  142.16799927    1.75000000    2.69000006
   13.46916580  153.27299500    1.73000002    2.71000004
   13.47249985  155.89999390    1.73000002    2.71000004
   13.47555542  147.69900513    1.73000002    2.69000006
   13.47805500  146.85400391    1.71000004    2.69000006
   13.47944355  136.47000122    1.71000004    2.69000006
   13.48249912  144.20899963    1.71000004    2.69000006
   13.48583317  144.58200073    1.71000004    2.69000006
   13.48888874  152.21200562    1.71000004    2.69000006
   13.49222279  142.00599670    1.69000006    2.69000006
   13.49555588  153.36199951    1.69000006    2.69000006
   13.49861145  150.52600098    1.69000006    2.69000006
   13.50472260  150.52600098    1.53999996    2.71000004
   13.50888920  145.11199951    1.51999998    2.71000004
   13.51138878  143.12899780    1.50000000    2.71000004
   13.51249981  151.68200684    1.50000000    2.71000004
   13.51583290  141.43499756    1.50000000    2.71000004
   13.51888847  168.10899353    1.51999998    2.71000004
   13.52222157  143.18600464    1.51999998    2.71000004
   13.52527714  156.23100281    1.48000002    2.71000004
   13.52861118  148.41499329    1.46000004    2.71000004
   13.53194427  145.98599243    1.46000004    2.71000004
   13.53500080  142.77099609    1.48000002    2.71000004
   13.53833389  148.25999451    1.51999998    2.71000004
   13.54166698  148.93299866    1.51999998    2.71000004
   13.54750061  148.93299866    1.55999994    2.71000004
   13.55166721  141.49499512    1.55999994    2.71000004
   13.55500031  143.76899719    1.55999994    2.71000004
   13.55805588  153.87500000    1.58000004    2.69000006
   13.56138897  145.80299377    1.58000004    2.71000004
   13.56444454  141.57299805    1.58000004    2.71000004
   13.56777763  140.28500366    1.58000004    2.73000002
   13.57111073  144.81500244    1.58000004    2.71000004
   13.57416630  147.48399353    1.60000002    2.71000004
   13.57750034  144.08500671    1.58000004    2.71000004
   13.57833290  144.27600098    1.58000004    2.71000004
   13.58111095  131.77099609    1.58000004    2.71000004
   13.58444405  145.45199585    1.55999994    2.71000004
   13.59027767  145.45199585    1.58000004    2.71000004
   13.59444427  137.50500488    1.58000004    2.71000004
   13.59777737  147.80000305    1.60000002    2.71000004
   13.60111141  140.46299744    1.60000002    2.71000004
   13.60416698  144.75399780    1.61000001    2.71000004
   13.60750008  149.58999634    1.61000001    2.69000006
   13.61055565  149.01400757    1.66999996    2.71000004
   13.61166668  141.70199585    1.69000006    2.71000004
   13.61416721  143.37100220    1.69000006    2.71000004
   13.61750031  146.21200562    1.69000006    2.71000004
   13.62055588  143.99899292    1.71000004    2.71000004
   13.62388897  147.60099792    1.73000002    2.71000004
   13.62722206  146.24600220    1.71000004    2.71000004
   13.63333321  146.24600220    1.71000004    2.71000004
   13.63749981  148.69000244    1.71000004    2.71000004
   13.64055538  142.66299438    1.71000004    2.71000004
   13.64388847  145.53100586    1.66999996    2.71000004
   13.64527798  150.86399841    1.66999996    2.71000004
   13.64750004  144.13800049    1.66999996    2.71000004
   13.65055561  149.48199463    1.66999996    2.71000004
   13.65388870  140.88800049    1.69000006    2.71000004
   13.65722179  148.96000671    1.69000006    2.71000004
   13.66027737  146.14700317    1.69000006    2.71000004
   13.66361046  141.81500244    1.71000004    2.71000004
   13.66694450  141.89100647    1.76999998    2.71000004
   13.67000008  145.58999634    1.78999996    2.69000006
   13.67611122  145.58999634    1.78999996    2.73000002
   13.68027782  152.30099487    1.78999996    2.71000004
   13.68361092  140.03799438    1.76999998    2.71000004
   13.68666649  140.79699707    1.75000000    2.71000004
   13.69000053  154.10699463    1.75000000    2.71000004
   13.69305515  147.67100525    1.75000000    2.71000004
   13.69638920  145.35600281    1.75000000    2.73000002
   13.69972229  143.57499695    1.73000002    2.71000004
   13.70277786  147.91799927    1.73000002    2.71000004
   13.70611095  139.04899597    1.73000002    2.71000004
   13.70944405  143.72500610    1.73000002    2.71000004
   13.71194458  141.87199402    1.73000002    2.71000004
   13.71305561  141.95899963    1.73000002    2.71000004
   13.71888828  141.95899963    1.73000002    2.73000002
   13.72305489  147.64999390    1.71000004    2.71000004
   13.72638798  143.26499939    1.63000000    2.73000002
   13.72944355  147.74800110    1.64999998    2.71000004
   13.73277760  141.36199951    1.64999998    2.71000004
   13.73611164  144.18800354    1.64999998    2.71000004
   13.73916721  153.26800537    1.64999998    2.71000004
   13.74250031  151.48300171    1.63000000    2.73000002
   13.74527836  149.38200378    1.61000001    2.71000004
   13.74611092  153.16299438    1.61000001    2.71000004
   13.74916649  149.57200623    1.60000002    2.71000004
   13.75249958  153.46099854    1.60000002    2.73000002
   13.75583363  152.46499634    1.60000002    2.71000004
   13.76166630  152.46499634    1.61000001    2.73000002
   13.76583290  146.29299927    1.58000004    2.73000002
   13.76916599  153.90199280    1.58000004    2.73000002
   13.77250004  146.90899658    1.53999996    2.73000002
   13.77555561  156.67599487    1.53999996    2.71000004
   13.77861118  147.68899536    1.53999996    2.73000002
   13.77916622  141.54200745    1.53999996    2.73000002
   13.78249931  144.44700623    1.53999996    2.71000004
   13.78555584  153.32099915    1.53999996    2.71000004
   13.78888893  143.10000610    1.53999996    2.73000002
   13.79194450  139.78999329    1.51999998    2.73000002
   13.79527855  138.87199402    1.50000000    2.73000002
   13.79861164  158.26400757    1.50000000    2.73000002
   13.80472279  158.26400757    1.50000000    2.73000002
   13.80888939  153.86099243    1.48000002    2.73000002
   13.81194496  140.94599915    1.46000004    2.73000002
   13.81250000  143.96899414    1.44000006    2.73000002
   13.81583309  152.83700562    1.44000006    2.73000002
   13.81888866  151.91000366    1.44000006    2.71000004
   13.82222176  151.14999390    1.44000006    2.71000004
   13.82527733  158.20899963    1.44000006    2.73000002
   13.82861137  146.94799805    1.41999996    2.73000002
   13.83194447  164.12600708    1.36000001    2.73000002
   13.83500004  168.41900635    1.34000003    2.73000002
   13.83833313  160.55000305    1.30999994    2.75000000
   13.84166622  161.31900024    1.26999998    2.73000002
   13.84749985  161.31900024    1.25000000    2.73000002
   13.85166740  155.90800476    1.19000006    2.75000000
   13.85472298  149.89700317    1.23000002    2.75000000
   13.85805607  153.11300659    1.23000002    2.73000002
   13.86138916  151.45399475    1.23000002    2.73000002
   13.86444473  152.61099243    1.26999998    2.73000002
   13.86777782  152.62100220    1.28999996    2.73000002
   13.87083340  154.22500610    1.30999994    2.73000002
   13.87416649  154.61999512    1.33000004    2.73000002
   13.87750053  151.36199951    1.33000004    2.73000002
   13.87861156  154.85400391    1.33000004    2.73000002
   13.88111115  153.12199402    1.36000001    2.73000002
   13.88444424  143.74699402    1.38000000    2.73000002
   13.89027786  143.74699402    1.38000000    2.73000002
   13.89444447  148.27299500    1.38000000    2.73000002
   13.89777756  156.76199341    1.38000000    2.75000000
   13.90083313  145.70799255    1.44000006    2.73000002
   13.90416622  145.48599243    1.46000004    2.73000002
   13.90722179  151.63400269    1.46000004    2.73000002
   13.91055489  145.50799561    1.50000000    2.73000002
   13.91194439  145.38400269    1.50000000    2.73000002
   13.91416645  151.27000427    1.55999994    2.75000000
   13.91750050  143.92100525    1.55999994    2.75000000
   13.92055607  156.24800110    1.53999996    2.73000002
   13.92388916  147.05599976    1.58000004    2.73000002
   13.92694473  133.96699524    1.73000002    2.73000002
   13.93305588  133.96699524    1.75000000    2.73000002
   13.93722248  149.75100708    1.76999998    2.75000000
   13.94055557  143.05299377    1.71000004    2.73000002
   13.94388866  153.66999817    1.66999996    2.73000002
   13.94555569  151.58099365    1.63000000    2.73000002
   13.94750023  143.90899658    1.60000002    2.75000000
   13.95055580  144.43400574    1.55999994    2.75000000
   13.95388889  144.51899719    1.51999998    2.73000002
   13.95722198  147.10899353    1.51999998    2.73000002
   13.96027756  151.11000061    1.48000002    2.73000002
   13.96361065  153.76400757    1.48000002    2.73000002
   13.96666622  151.67100525    1.46000004    2.73000002
   13.96999931  150.06500244    1.46000004    2.75000000
   13.97611046  150.06500244    1.33000004    2.73000002
   13.98027706  157.56399536    1.26999998    2.73000002
   13.98333359  137.68800354    1.26999998    2.73000002
   13.98666668  151.89100647    1.26999998    2.73000002
   13.98972225  146.65400696    1.26999998    2.75000000
   13.99305534  151.68600464    1.26999998    2.75000000
   13.99638939  149.31199646    1.26999998    2.73000002
   13.99944496  151.13200378    1.16999996    2.75000000
   14.00277805  160.75700378    1.19000006    2.75000000
   14.00583363  152.86000061    1.19000006    2.75000000
   14.00916672  156.45799255    1.16999996    2.75000000
   14.01222229  153.55099487    1.16999996    2.75000000
   14.01277733  154.63400269    1.16999996    2.75000000
   14.01888847  154.63400269    1.16999996    2.75000000
   14.02305508  140.84100342    1.16999996    2.75000000
   14.02611065  147.94000244    1.16999996    2.75000000
   14.02944374  136.28399658    1.19000006    2.76999998
   14.03277779  155.58799744    1.19000006    2.76999998
   14.03583336  159.40400696    1.19000006    2.75000000
   14.03916740  145.19700623    1.23000002    2.75000000
   14.04250050  155.75399780    1.23000002    2.75000000
   14.04555607  158.73599243    1.23000002    2.75000000
   14.04611111  155.73800659    1.23000002    2.75000000
   14.04916668  156.11799622    1.25000000    2.75000000
   14.05249977  158.17199707    1.25000000    2.73000002
   14.05583382  152.64700317    1.25000000    2.75000000
   14.06166649  152.64700317    1.25000000    2.75000000
   14.06583309  163.07499695    1.26999998    2.75000000
   14.06916618  143.66299438    1.26999998    2.75000000
   14.07222176  149.90100098    1.26999998    2.75000000
   14.07555580  155.89399719    1.28999996    2.76999998
   14.07888889  156.33700562    1.28999996    2.73000002
   14.07916641  151.73899841    1.28999996    2.75000000
   14.08249950  160.42900085    1.28999996    2.75000000
   14.08583260  150.20199585    1.30999994    2.75000000
   14.08888817  153.87199402    1.30999994    2.76999998
   14.09222221  172.51699829    1.30999994    2.75000000
   14.09555531  153.80799866    1.30999994    2.75000000
   14.09861088  158.74499512    1.30999994    2.73000002
   14.10444450  158.74499512    1.28999996    2.75000000
   14.10861111  162.99800110    1.25000000    2.75000000
   14.11194515  159.22599792    1.25000000    2.75000000
   14.11250019  161.84800720    1.25000000    2.75000000
   14.11555576  157.23899841    1.25000000    2.75000000
   14.11888885  161.10299683    1.26999998    2.76999998
   14.12194443  163.30999756    1.25000000    2.75000000
   14.12527752  168.82200623    1.25000000    2.75000000
   14.12861156  173.44900513    1.26999998    2.75000000
   14.13166714  155.17799377    1.28999996    2.75000000
   14.13500023  158.71000671    1.33000004    2.75000000
   14.13805580  191.41600037    1.33000004    2.75000000
   14.14138889  195.17399597    1.33000004    2.75000000
   14.14750004  195.17399597    1.34000003    2.75000000
   14.15166664  171.24600220    1.34000003    2.75000000
   14.15472221  174.58700562    1.34000003    2.75000000
   14.15805531  170.46699524    1.33000004    2.75000000
   14.16111088  172.61999512    1.28999996    2.75000000
   14.16444397  182.22200012    1.28999996    2.75000000
   14.16777802  183.25100708    1.26999998    2.76999998
   14.17083359  194.81100464    1.26999998    2.76999998
   14.17416668  194.58200073    1.16999996    2.76999998
   14.19361115  191.57699585    1.25000000    2.76999998
   14.19416714  181.43600464    1.25000000    2.76999998
   14.19833374  181.43600464    1.26999998    2.75000000
   14.20249939  179.96899414    1.28999996    2.76999998
   14.20555496  161.14100647    1.28999996    2.76999998
   14.20888901  178.48800659    1.28999996    2.75000000
   14.21222210  185.10600281    1.28999996    2.75000000
   14.21527767  178.25500488    1.28999996    2.75000000
   14.21861076  163.85200500    1.30999994    2.76999998
   14.22166634  176.46099854    1.28999996    2.75000000
   14.22499943  162.53399658    1.28999996    2.75000000
   14.22749996  178.72999573    1.28999996    2.75000000
   14.22861099  166.88299561    1.28999996    2.75000000
   14.23166656  171.55200195    1.26999998    2.76999998
   14.23500061  160.16900635    1.25000000    2.76999998
   14.24111176  160.16900635    1.25000000    2.76999998
   14.24527836  158.75999451    1.16999996    2.76999998
   14.24861145  169.23199463    1.16999996    2.76999998
   14.25166702  154.91499329    1.16999996    2.76999998
   14.25500011  146.18800354    1.16999996    2.76999998
   14.25833321  170.12800598    1.19000006    2.75000000
   14.26083374  151.26800537    1.19000006    2.75000000
   14.26194477  150.50799561    1.16999996    2.76999998
   14.26500034  142.23399353    1.19000006    2.76999998
   14.26833344  148.79800415    1.21000004    2.76999998
   14.27166653  152.61700439    1.21000004    2.76999998
   14.27472210  156.70700073    1.21000004    2.76999998
   14.27805519  151.21899414    1.25000000    2.75000000
   14.28388977  151.21899414    1.26999998    2.75000000
   14.28805637  154.12899780    1.26999998    2.75000000
   14.29138947  158.63699341    1.28999996    2.75000000
   14.29416752  154.99099731    1.28999996    2.75000000
   14.29500008  139.81199646    1.28999996    2.76999998
   14.29805565  143.65899658    1.28999996    2.76999998
   14.30138874  151.45700073    1.26999998    2.76999998
   14.30472279  142.30999756    1.26999998    2.76999998
   14.30777836  152.21200562    1.26999998    2.76999998
   14.31111145  151.76699829    1.33000004    2.76999998
   14.31416702  143.76699829    1.34000003    2.75000000
   14.31750011  154.19900513    1.34000003    2.75000000
   14.32083321  152.19799805    1.34000003    2.76999998
   14.32694435  152.19799805    1.36000001    2.76999998
   14.33111095  149.30900574    1.36000001    2.76999998
   14.33416653  152.89700317    1.34000003    2.76999998
   14.33749962  153.98100281    1.34000003    2.76999998
   14.34055519  151.58500671    1.33000004    2.76999998
   14.34388828  147.02299500    1.28999996    2.76999998
   14.34722233  150.09500122    1.26999998    2.76999998
   14.35027790  147.65800476    1.26999998    2.76999998
   14.35361195  156.45799255    1.25000000    2.76999998
   14.35694504  149.09899902    1.25000000    2.76999998
   14.36000061  145.50100708    1.16999996    2.78999996
   14.36194515  156.81199646    1.16999996    2.78999996
   14.36388969  150.82400513    1.26999998    2.76999998
   14.36972237  150.82400513    1.25000000    2.76999998
   14.37388897  152.21499634    1.23000002    2.78999996
   14.37694454  148.12899780    1.23000002    2.78999996
   14.38027763  137.43200684    1.23000002    2.76999998
   14.38361073  148.64999390    1.25000000    2.76999998
   14.38666630  146.15499878    1.21000004    2.76999998
   14.39000034  144.75100708    1.23000002    2.75000000
   14.39305496  144.66499329    1.23000002    2.75000000
   14.39527798  142.65600586    1.23000002    2.75000000
   14.39694405  159.08299255    1.21000004    2.76999998
   14.39999962  153.31599426    1.16999996    2.78999996
   14.40333271  142.01100159    1.16999996    2.76999998
   14.40638828  144.68400574    1.16999996    2.78999996
   14.41249943  144.68400574    1.16999996    2.76999998
   14.41666698  147.51199341    1.21000004    2.76999998
   14.42000008  148.76800537    1.21000004    2.76999998
   14.42305565  144.04499817    1.21000004    2.76999998
   14.42638874  151.29600525    1.21000004    2.76999998
   14.42888927  143.28399658    1.23000002    2.76999998
   14.43000031  142.13699341    1.23000002    2.76999998
   14.43333340  143.60899353    1.25000000    2.76999998
   14.43638897  143.45700073    1.23000002    2.78999996
   14.43972206  136.85600281    1.23000002    2.78999996
   14.44305515  151.71000671    1.28999996    2.78999996
   14.44611073  156.55400085    1.34000003    2.78999996
   14.44944477  145.82400513    1.34000003    2.78999996
   14.45527744  145.82400513    1.36000001    2.76999998
   14.45944405  151.32400513    1.36000001    2.76999998
   14.46222210  136.62399292    1.36000001    2.76999998
   14.46305561  147.22700500    1.36000001    2.76999998
   14.46638870  139.22300720    1.26999998    2.78999996
   14.46972179  147.45599365    1.26999998    2.78999996
   14.47277737  141.01699829    1.26999998    2.76999998
   14.47611046  139.25999451    1.28999996    2.78999996
   14.47944355  146.91700745    1.28999996    2.76999998
   14.48249912  142.01100159    1.25000000    2.76999998
   14.48583317  148.83999634    1.23000002    2.76999998
   14.48888874  142.62300110    1.23000002    2.76999998
   14.49222279  138.48300171    1.19000006    2.76999998
   14.49833393  138.48300171    1.16999996    2.78999996
   14.50249958  138.68400574    1.14999998    2.76999998
   14.50555515  137.24099731    1.14999998    2.78999996
   14.50888920  142.38900757    1.11000001    2.78999996
   14.51194477  139.99000549    1.09000003    2.78999996
   14.51527786  141.91799927    1.09000003    2.78999996
   14.51861095  146.34599304    1.09000003    2.78999996
   14.52166653  141.52699280    1.00000000    2.78999996
   14.52499962  136.11999512    0.98000002    2.78999996
   14.52805519  142.14900208    0.98000002    2.78999996
   14.52916622  143.94099426    0.98000002    2.78999996
   14.53194427  140.44400024    0.95999998    2.78999996
   14.53500080  144.78300476    0.95999998    2.78999996
   14.54111195  144.78300476    0.98000002    2.78999996
   14.54527855  160.41099548    0.95999998    2.78999996
   14.54833412  161.11300659    0.95999998    2.78999996
   14.55166721  157.79499817    0.95999998    2.78999996
   14.55500031  144.66900635    0.94000000    2.78999996
   14.55805588  157.30700684    0.92000002    2.80999994
   14.56138897  153.26899719    0.92000002    2.78999996
   14.56250000  150.94999695    0.92000002    2.78999996
   14.56500053  143.41299438    0.95999998    2.78999996
   14.56805515  154.93400574    0.95999998    2.78999996
   14.57138920  146.90199280    0.95999998    2.78999996
   14.57444477  144.94999695    0.95999998    2.78999996
   14.57777786  154.85099792    1.00000000    2.78999996
   14.58388901  154.85099792    1.00000000    2.78999996
   14.58805561  154.79499817    1.00000000    2.78999996
   14.59138870  151.69700623    1.00000000    2.80999994
   14.59444427  159.61500549    1.01999998    2.78999996
   14.59611034  153.02000427    1.01999998    2.78999996
   14.59805489  164.86999512    1.01999998    2.78999996
   14.60138893  154.95899963    1.01999998    2.78999996
   14.60472298  143.50799561    1.00000000    2.78999996
   14.60777855  144.52900696    1.01999998    2.78999996
   14.61111164  155.98699951    1.01999998    2.78999996
   14.61444473  156.41299438    1.01999998    2.78999996
   14.61750031  161.37199402    1.03999996    2.76999998
   14.62083340  155.26600647    1.05999994    2.78999996
   14.62694454  155.26600647    1.05999994    2.80999994
   14.63083363  162.77699280    1.09000003    2.78999996
   14.63416672  145.08999634    1.09000003    2.78999996
   14.63749981  159.31199646    1.11000001    2.78999996
   14.64055538  161.62899780    1.11000001    2.78999996
   14.64388847  164.95799255    1.11000001    2.78999996
   14.64722252  170.53599548    1.11000001    2.78999996
   14.65027714  179.15299988    1.13000000    2.78999996
   14.65361118  144.11000061    1.14999998    2.78999996
   14.65666676  164.33900452    1.14999998    2.78999996
   14.65999985  167.97200012    1.13000000    2.78999996
   14.66277695  155.42799377    1.13000000    2.78999996
   14.66361046  151.96699524    1.13000000    2.78999996
   14.66972256  151.96699524    1.11000001    2.78999996
   14.67388916  157.93099976    1.11000001    2.78999996
   14.67694473  149.27000427    1.11000001    2.76999998
   14.68027782  133.84800720    1.11000001    2.78999996
   14.68333340  147.20500183    1.09000003    2.78999996
   14.68666649  140.01899719    1.07000005    2.80999994
   14.69000053  146.84500122    1.07000005    2.80999994
   14.69305515  149.74400330    1.07000005    2.78999996
   14.69611073  151.68899536    1.03999996    2.78999996
   14.69666672  149.18499756    1.05999994    2.80999994
   14.69999981  152.07600403    1.05999994    2.80999994
   14.70333290  145.50999451    1.03999996    2.78999996
   14.70638847  127.48899841    1.05999994    2.80999994
   14.71249962  127.48899841    1.05999994    2.78999996
   14.71666622  150.31399536    1.05999994    2.80999994
   14.71972179  152.87899780    1.07000005    2.78999996
   14.72305489  140.85099792    1.05999994    2.80999994
   14.72638798  154.94599915    1.03999996    2.78999996
   14.72944355  140.02999878    1.00000000    2.78999996
   14.72972202  139.44900513    1.00000000    2.78999996
   14.73305511  147.93800354    1.00000000    2.78999996
   14.73638916  145.94700623    0.98000002    2.78999996
   14.73944473  152.33500671    0.98000002    2.78999996
   14.74277782  140.94099426    0.94000000    2.76999998
   14.74611092  146.42700195    0.92000002    2.80999994
   14.74916649  146.55999756    0.86000001    2.82999992
   14.75527763  146.55999756    0.86000001    2.80999994
   14.75944424  139.86099243    0.83999997    2.80999994
   14.76277733  142.10600281    0.88000000    2.80999994
   14.76305580  142.24000549    0.89999998    2.82999992
   14.76638889  141.98300171    0.92000002    2.78999996
   14.76972198  143.46400452    0.92000002    2.80999994
   14.77277756  139.28100586    0.92000002    2.80999994
   14.77611065  146.48199463    0.92000002    2.80999994
   14.77944374  140.62500000    0.89999998    2.80999994
   14.78249931  149.44099426    0.89999998    2.80999994
   14.78583336  137.89900208    0.89999998    2.76999998
   14.78888893  140.36500549    0.89999998    2.80999994
   14.79222298  142.74800110    0.88000000    2.82999992
   14.79805565  142.74800110    0.89999998    2.80999994
   14.80222225  130.49400330    0.89999998    2.80999994
   14.80555534  136.79600525    0.89999998    2.80999994
   14.80888939  130.30000305    0.92000002    2.82999992
   14.81194496  145.61999512    0.89999998    2.80999994
   14.81527805  147.18400574    0.89999998    2.80999994
   14.81861115  155.27799988    0.92000002    2.82999992
   14.82166672  132.55099487    0.88000000    2.80999994
   14.82499981  144.49299622    0.88000000    2.80999994
   14.82805538  149.70199585    0.88000000    2.82999992
   14.82944393  143.92799377    0.88000000    2.80999994
   14.83166695  139.11000061    0.88000000    2.80999994
   14.83500004  151.99000549    0.88000000    2.82999992
   14.84111118  151.99000549    0.88000000    2.80999994
   14.84527779  143.32899475    0.88000000    2.80999994
   14.84833336  139.42599487    0.89999998    2.80999994
   14.85166740  135.87600708    0.88000000    2.80999994
   14.85472298  139.71099854    0.88000000    2.80999994
   14.85805607  138.38699341    0.89999998    2.80999994
   14.86138916  134.69500732    0.92000002    2.82999992
   14.86277771  130.43800354    0.92000002    2.82999992
   14.86472225  140.60800171    0.92000002    2.82999992
   14.86805534  137.78100586    0.92000002    2.80999994
   14.87138939  144.56399536    0.92000002    2.80999994
   14.87444496  144.26300049    0.92000002    2.80999994
   14.87777805  139.66499329    0.92000002    2.80999994
   14.88388920  139.66499329    0.92000002    2.80999994
   14.88805580  143.89500427    0.94000000    2.80999994
   14.89111137  158.13900757    0.94000000    2.80999994
   14.89444447  145.88400269    0.95999998    2.80999994
   14.89638901  150.79600525    0.98000002    2.80999994
   14.89805508  146.68699646    0.98000002    2.80999994
   14.90138817  130.20300293    1.01999998    2.80999994
   14.90472221  142.57699585    0.98000002    2.82999992
   14.90777779  138.14300537    0.98000002    2.80999994
   14.91111088  152.00900269    0.95999998    2.80999994
   14.91416645  146.95799255    0.92000002    2.80999994
   14.91750050  149.54499817    0.92000002    2.82999992
   14.92083359  139.62300110    0.89999998    2.80999994
   14.92666721  139.62300110    0.88000000    2.80999994
   14.93083382  141.51600647    0.86000001    2.80999994
   14.93416691  146.05200195    0.86000001    2.80999994
   14.93722248  143.61000061    0.81999999    2.80999994
   14.94055557  152.41200256    0.81999999    2.80999994
   14.94388866  155.27600098    0.83999997    2.80999994
   14.94694424  146.36799622    0.83999997    2.80999994
   14.95027733  153.72300720    0.80000001    2.80999994
   14.95333290  167.93600464    0.79000002    2.82999992
   14.95666695  169.38699341    0.80000001    2.82999992
   14.96000004  157.93499756    0.83999997    2.82999992
   14.96305561  163.18400574    0.83999997    2.82999992
   14.96333313  174.74899292    0.83999997    2.82999992
   14.96944427  174.74899292    0.81999999    2.82999992
   14.97361088  157.38999939    0.81999999    2.80999994
   14.97694397  141.65600586    0.79000002    2.82999992
   14.98027706  150.19799805    0.79000002    2.80999994
   14.98333359  157.88099670    0.76999998    2.80999994
   14.98666668  152.69799805    0.76999998    2.80999994
   14.99000072  161.35200500    0.58999997    2.82999992
   14.99305534  160.11999512    0.56999999    2.82999992
   14.99638939  168.44099426    0.56999999    2.80999994
   14.99666691  155.01400757    0.56999999    2.82999992
   15.00000000  159.06300354    0.61000001    2.82999992
   15.00333309  153.80499268    0.61000001    2.82999992
   15.00638866  159.22399902    0.61000001    2.82999992
   15.01249981  159.22399902    0.64999998    2.82999992
   15.01666641  163.56500244    0.64999998    2.82999992
   15.01972198  159.16200256    0.64999998    2.82999992
   15.02305508  150.98899841    0.64999998    2.82999992
   15.02611065  166.80499268    0.67000002    2.82999992
   15.02944374  170.57200623    0.70999998    2.82999992
   15.02999973  159.30599976    0.70999998    2.82999992
   15.03333378  158.04600525    0.70999998    2.82999992
   15.03638935  155.34199524    0.70999998    2.82999992
   15.03972244  174.01600647    0.75000000    2.80999994
   15.04277802  172.28500366    0.75000000    2.82999992
   15.04611111  164.73699951    0.75000000    2.82999992
   15.04944515  165.19599915    0.76999998    2.80999994
   15.05527782  165.19599915    0.80000001    2.82999992
   15.05944443  163.67900085    0.88000000    2.82999992
   15.06250000  158.01199341    0.88000000    2.82999992
   15.06333351  165.12199402    0.88000000    2.80999994
   15.06638908  151.15600586    0.92000002    2.80999994
   15.06972218  154.67399597    0.94000000    2.80999994
   15.07305527  156.24299622    0.94000000    2.82999992
   15.07611084  154.22700500    0.94000000    2.82999992
   15.07944393  147.73800659    0.98000002    2.80999994
   15.08249950  165.01899719    1.01999998    2.82999992
   15.08583260  152.37100220    1.00000000    2.80999994
   15.08916664  142.64700317    0.98000002    2.80999994
   15.09222221  150.93299866    0.98000002    2.80999994
   15.09805489  150.93299866    0.98000002    2.80999994
   15.10222244  145.97000122    0.98000002    2.80999994
   15.10555553  152.55599976    0.98000002    2.78999996
   15.10861111  138.34199524    0.98000002    2.78999996
   15.11194515  148.41000366    0.98000002    2.80999994
   15.11500072  148.04200745    1.00000000    2.82999992
   15.11833382  145.63999939    0.98000002    2.82999992
   15.12166691  151.85699463    1.00000000    2.82999992
   15.12472248  152.48899841    0.98000002    2.80999994
   15.12805557  141.73899841    0.95999998    2.82999992
   15.13000011  128.52400208    0.95999998    2.82999992
   15.13166714  141.77600098    0.92000002    2.82999992
   15.13472176  145.37100220    0.88000000    2.78999996
   15.14083290  145.37100220    0.86000001    2.82999992
   15.14499950  144.16900635    0.86000001    2.82999992
   15.14833355  150.97599792    0.80000001    2.82999992
   15.15166664  159.35099792    0.75000000    2.82999992
   15.15472221  155.58999634    0.70999998    2.82999992
   15.15805531  156.10499573    0.55000001    2.82999992
   15.16111088  144.96299744    0.55000001    2.82999992
   15.16333294  160.40499878    0.55000001    2.82999992
   15.16499996  151.01899719    0.55000001    2.84999990
   15.16805553  153.36300659    0.55000001    2.84999990
   15.17138958  150.58599854    0.61000001    2.82999992
   15.17444515  139.59700012    0.61000001    2.82999992
   15.17777824  155.59399414    0.61000001    2.82999992
   15.18388939  155.59399414    0.63000000    2.82999992
   15.18805599  155.18299866    0.61000001    2.82999992
   15.19111156  151.55299377    0.63000000    2.82999992
   15.21083355  154.10099792    0.61000001    2.82999992
   15.21138859  153.45599365    0.61000001    2.82999992
   15.21472168  151.77099609    0.64999998    2.82999992
   15.21777725  141.19599915    0.64999998    2.82999992
   15.22111034  146.77699280    0.64999998    2.82999992
   15.22694397  146.77699280    0.64999998    2.82999992
   15.23111057  141.11000061    0.67000002    2.82999992
   15.23416710  147.01899719    0.67000002    2.84999990
   15.23750019  145.47000122    0.69000000    2.82999992
   15.24055576  148.80400085    0.76999998    2.82999992
   15.24388885  142.64300537    0.80000001    2.82999992
   15.24472237  146.38800049    0.80000001    2.80999994
   15.24750042  146.83599854    0.83999997    2.82999992
   15.25083351  142.78500366    0.83999997    2.82999992
   15.25416660  131.77499390    0.83999997    2.82999992
   15.25722218  143.02400208    0.83999997    2.82999992
   15.26055527  138.31300354    0.86000001    2.82999992
   15.26388931  142.30200195    0.86000001    2.82999992
   15.26972198  142.30200195    0.88000000    2.82999992
   15.27388859  148.50199890    0.89999998    2.82999992
   15.27722168  138.28599548    0.88000000    2.82999992
   15.27805519  141.07299805    0.88000000    2.82999992
   15.28083324  143.48100281    0.88000000    2.82999992
   15.38249969   -1.00000000   -1.00000000   -1.00000000
   15.55805588   -1.00000000   -1.00000000   -1.00000000
   15.67472267   -1.00000000   -1.00000000   -1.00000000
   15.80111122  111.99400330    0.51999998    2.84999990
   15.80416679  158.74099731    0.52999997    2.84999990
   15.80749989  168.10899353    0.55000001    2.86999989
   15.81055546  168.51499939    0.55000001    2.86999989
   15.81388950  172.41299438    0.56999999    2.84999990
   15.81722260  160.18200684    0.58999997    2.84999990
   15.82138920  160.18200684    0.63000000    2.86999989
   15.82527733  160.02400208    0.63000000    2.84999990
   15.82861137  164.89199829    0.63000000    2.84999990
   15.83194447  175.85600281    0.67000002    2.84999990
   15.83444405  156.29899597    0.69000000    2.86999989
   15.83555508  159.85200500    0.70999998    2.84999990
   15.83888817  157.65100098    0.70999998    2.84999990
   15.84194374  152.37600708    0.73000002    2.86999989
   15.84527779  160.46400452    0.73000002    2.84999990
   15.84861088  166.66299438    0.73000002    2.84999990
   15.85166740  166.69599915    0.70999998    2.84999990
   15.85500050  167.79499817    0.70999998    2.84999990
   15.85805607  179.47500610    0.70999998    2.84999990
   15.86416721  179.47500610    0.69000000    2.82999992
   15.86833382  169.77900696    0.70999998    2.86999989
   15.87138939  168.51600647    0.70999998    2.86999989
   15.87472248  179.20199585    0.70999998    2.84999990
   15.87777805  165.63699341    0.67000002    2.84999990
   15.88111115  178.53700256    0.67000002    2.86999989
   15.88444424  173.29600525    0.67000002    2.84999990
   15.88749981  161.91000366    0.67000002    2.84999990
   15.89083290  175.32400513    0.69000000    2.84999990
   15.89388847  163.50100708    0.70999998    2.84999990
   15.89722252  157.19500732    0.73000002    2.86999989
   15.90055561  148.84199524    0.75000000    2.84999990
   15.90111065  152.78799438    0.75000000    2.84999990
   15.90694427  152.78799438    0.76999998    2.84999990
   15.91111088  147.74699402    0.79000002    2.84999990
   15.91444397  141.87399292    0.80000001    2.84999990
   15.91750050  164.25500488    0.80000001    2.86999989
   15.92083359  166.74099731    0.80000001    2.86999989
   15.92388916  151.30700684    0.80000001    2.84999990
   15.92722225  149.74800110    0.83999997    2.84999990
   15.93055630  152.28599548    0.88000000    2.84999990
   15.93361092  167.99200439    0.88000000    2.84999990
   15.93444443  141.00100708    0.88000000    2.84999990
   15.93722248  157.12699890    0.86000001    2.84999990
   15.94055557  158.98599243    0.89999998    2.84999990
   15.94388866  150.95700073    0.89999998    2.84999990
   15.94972229  150.95700073    0.80000001    2.84999990
   15.95388889  143.32099915    0.79000002    2.84999990
   15.95722198  143.89100647    0.76999998    2.84999990
   15.96027756  162.12399292    0.76999998    2.84999990
   15.96361065  163.43699646    0.75000000    2.86999989
   15.96694374  158.30999756    0.75000000    2.86999989
   15.96777725  156.44700623    0.75000000    2.84999990
   15.97027779  161.21400452    0.75000000    2.84999990
   15.97361088  139.12899780    0.76999998    2.86999989
   15.97694397  155.31799316    0.75000000    2.84999990
   15.97999954  144.75599670    0.75000000    2.84999990
   15.98333359  152.42300415    0.75000000    2.86999989
   15.98638916  123.44400024    0.75000000    2.86999989
   15.99277782  123.44400024    0.79000002    2.84999990
   15.99694443  152.83599854    0.79000002    2.84999990
   16.00000000  145.79600525    0.80000001    2.84999990
   16.00111198  148.00599670    0.80000001    2.84999990
   16.00361061  149.09599304    0.86000001    2.84999990
   16.00694466  144.90299988    0.88000000    2.86999989
   16.01027870  149.61700439    0.88000000    2.86999989
   16.01333427  145.64700317    0.88000000    2.84999990
   16.01666641  146.59399414    0.92000002    2.84999990
   16.01972198  150.46600342    0.92000002    2.84999990
   16.02305603  150.82699585    0.92000002    2.84999990
   16.02638817  140.50399780    0.88000000    2.84999990
   16.02944374  144.78199768    0.88000000    2.84999990
   16.03555489  144.78199768    0.88000000    2.86999989
   16.03972244  152.05200195    0.83999997    2.84999990
   16.04277802  145.96000671    0.81999999    2.86999989
   16.04611015  152.44400024    0.81999999    2.84999990
   16.04944420  143.50900269    0.81999999    2.84999990
   16.05249977  150.88800049    0.81999999    2.86999989
   16.05583191  148.48100281    0.80000001    2.84999990
   16.05916595  144.87500000    0.80000001    2.84999990
   16.06222153  150.20899963    0.80000001    2.84999990
   16.06555557  153.29899597    0.79000002    2.84999990
   16.06777954  148.70100403    0.79000002    2.84999990
   16.06916809  146.56599426    0.76999998    2.86999989
   16.07250023  149.10299683    0.76999998    2.86999989
   16.07833481  149.10299683    0.73000002    2.84999990
   16.08250046  146.77699280    0.73000002    2.86999989
   16.08583450  146.98599243    0.73000002    2.84999990
   16.08889008  141.88000488    0.73000002    2.86999989
   16.09222221  140.46499634    0.73000002    2.86999989
   16.09527779  140.97300720    0.73000002    2.86999989
   16.09861183  146.64399719    0.73000002    2.86999989
   16.10111237  135.33999634    0.73000002    2.86999989
   16.10222244  138.49699402    0.70999998    2.86999989
   16.10555649  144.65100098    0.70999998    2.86999989
   16.10888863  143.33999634    0.70999998    2.86999989
   16.11194420  148.12800598    0.70999998    2.84999990
   16.11527824  141.69400024    0.70999998    2.84999990
   16.12111092  141.69400024    0.73000002    2.84999990
   16.12527847  137.63800049    0.76999998    2.86999989
   16.12861061  149.47799683    0.75000000    2.86999989
   16.13166618  139.98500061    0.75000000    2.86999989
   16.13444519  146.09899902    0.75000000    2.84999990
   16.13527679  140.40600586    0.75000000    2.84999990
   16.13861084  143.36700439    0.76999998    2.86999989
   16.14194489  134.80400085    0.75000000    2.86999989
   16.14500046  143.16400146    0.75000000    2.86999989
   16.14833260  149.36000061    0.75000000    2.86999989
   16.15138817  145.92700195    0.73000002    2.86999989
   16.15472221  142.61300659    0.69000000    2.84999990
   16.15805435  147.07499695    0.69000000    2.84999990
   16.16416550  147.07499695    0.64999998    2.86999989
   16.16805458  145.04699707    0.64999998    2.86999989
   16.17138863  132.74099731    0.67000002    2.86999989
   16.17472076  143.54499817    0.69000000    2.86999989
   16.17777634  143.00599670    0.67000002    2.86999989
   16.18111038  145.15400696    0.64999998    2.86999989
   16.18416595  140.49400330    0.64999998    2.86999989
   16.18750000  145.12899780    0.64999998    2.86999989
   16.19083214  140.72999573    0.64999998    2.86999989
   16.19388771  148.07699585    0.63000000    2.84999990
   16.19722176  142.12399292    0.64999998    2.86999989
   16.20027924  129.48399353    0.63000000    2.86999989
   16.20111275  144.05400085    0.63000000    2.86999989
   16.20694542  144.05400085    0.63000000    2.84999990
   16.21111107  133.82299805    0.64999998    2.86999989
   16.21416664  118.19400024    0.64999998    2.84999990
   16.21750069  137.05499268    0.64999998    2.84999990
   16.22083473  131.26400757    0.67000002    2.84999990
   16.22389030  140.96200562    0.64999998    2.84999990
   16.22722244  146.07699585    0.67000002    2.86999989
   16.23027802  140.09599304    0.64999998    2.86999989
   16.23361206  141.30200195    0.64999998    2.86999989
   16.23444557  144.13800049    0.63000000    2.86999989
   16.23722267  139.45399475    0.67000002    2.86999989
   16.24055672  137.42100525    0.67000002    2.89000010
   16.24388885  135.94400024    0.67000002    2.89000010
   16.24972153  135.94400024    0.69000000    2.86999989
   16.25388908  137.01600647    0.75000000    2.86999989
   16.25694466  140.61999512    0.75000000    2.84999990
   16.26027870  146.76300049    0.75000000    2.84999990
   16.26361084  147.38499451    0.79000002    2.84999990
   16.26666641  139.54100037    0.79000002    2.84999990
   16.26777840  142.44799805    0.79000002    2.84999990
   16.27027702  149.22799683    0.80000001    2.86999989
   16.27361107  144.60000610    0.79000002    2.84999990
   16.27694511  144.31100464    0.79000002    2.84999990
   16.28000069  141.57499695    0.76999998    2.86999989
   16.28333282  153.14300537    0.75000000    2.86999989
   16.28638840  147.50599670    0.75000000    2.86999989
   16.29249954  147.50599670    0.75000000    2.84999990
   16.29666710  143.04100037    0.75000000    2.86999989
   16.29999924  151.87100220    0.75000000    2.86999989
   16.30111122  146.77699280    0.75000000    2.84999990
   16.30333328  131.47799683    0.75000000    2.84999990
   16.30666542  146.53300476    0.75000000    2.86999989
   16.30999947  142.66200256    0.75000000    2.86999989
   16.31305504  139.18499756    0.75000000    2.84999990
   16.31638718  136.88600159    0.75000000    2.86999989
   16.31972313  144.71899414    0.75000000    2.86999989
   16.32277870  145.11599731    0.75000000    2.84999990
   16.32611275  156.51400757    0.75000000    2.86999989
   16.32916832  132.72200012    0.73000002    2.84999990
   16.33555603  132.72200012    0.73000002    2.86999989
   16.33944511  130.34500122    0.69000000    2.89000010
   16.34277916  134.32800293    0.67000002    2.86999989
   16.34611130  140.48100281    0.67000002    2.86999989
   16.34916687  140.13499451    0.67000002    2.86999989
   16.35250092  139.50999451    0.67000002    2.89000010
   16.35555649  139.90299988    0.75000000    2.86999989
   16.35888863  137.09800720    0.75000000    2.86999989
   16.36222267  138.07200623    0.75000000    2.86999989
   16.36527824  142.71299744    0.73000002    2.86999989
   16.36777878  142.84300232    0.76999998    2.86999989
   16.36888885  138.90699768    0.80000001    2.86999989
   16.37222290  144.82600403    0.81999999    2.86999989
   16.37833405  144.82600403    0.81999999    2.84999990
   16.38249969  139.74800110    0.81999999    2.86999989
   16.38555527  138.01300049    0.81999999    2.84999990
   16.38888931  144.97599792    0.83999997    2.86999989
   16.39222145  137.17500305    0.83999997    2.86999989
   16.39527702  134.07899475    0.83999997    2.86999989
   16.39861107  134.97599792    0.81999999    2.84999990
   16.40111160  135.99099731    0.83999997    2.84999990
   16.40194321  134.30799866    0.83999997    2.84999990
   16.40527725  130.48300171    0.83999997    2.86999989
   16.40861130  140.10400391    0.83999997    2.84999990
   16.41166687  135.50000000    0.81999999    2.86999989
   16.41499901  143.37699890    0.76999998    2.86999989
   16.42111015  143.37699890    0.76999998    2.86999989
   16.42527771  148.07099915    0.76999998    2.84999990
   16.42860985  146.65100098    0.69000000    2.86999989
   16.43166542  141.41600037    0.67000002    2.86999989
   16.43444443  148.19400024    0.67000002    2.86999989
   16.43527603  142.82800293    0.67000002    2.86999989
   16.43861008  138.61999512    0.69000000    2.86999989
   16.44194412  141.24200439    0.67000002    2.86999989
   16.44499969  148.95500183    0.67000002    2.89000010
   16.44833183  147.47200012    0.67000002    2.86999989
   16.45166779  149.86099243    0.67000002    2.84999990
   16.45472336  132.93899536    0.69000000    2.86999989
   16.45805550  138.08900452    0.67000002    2.86999989
   16.46389008  138.08900452    0.69000000    2.84999990
   16.46805573  152.59399414    0.69000000    2.84999990
   16.47138977  137.65899658    0.69000000    2.86999989
   16.47444534  147.73399353    0.67000002    2.86999989
   16.47777748  142.25799561    0.67000002    2.86999989
   16.48111153  138.13299561    0.69000000    2.86999989
   16.48416710  140.96200562    0.56999999    2.86999989
   16.48750114  150.60000610    0.56999999    2.86999989
   16.49083328  145.87199402    0.56999999    2.86999989
   16.49388885  145.12699890    0.56999999    2.89000010
   16.49722290  151.17799377    0.56999999    2.86999989
   16.50055504  146.26300049    0.56999999    2.86999989
   16.50111198  145.69500732    0.56999999    2.86999989
   16.50694466  145.69500732    0.56999999    2.84999990
   16.51111031  149.08700562    0.56999999    2.84999990
   16.51444435  143.29400635    0.58999997    2.86999989
   16.51749992  157.23300171    0.58999997    2.86999989
   16.52083397  155.77499390    0.58999997    2.89000010
   16.52388954  141.41700745    0.58999997    2.86999989
   16.52722168  155.92399597    0.58999997    2.86999989
   16.53055573  152.56599426    0.58999997    2.86999989
   16.53361130  149.27400208    0.61000001    2.86999989
   16.53444481  142.49899292    0.58999997    2.86999989
   16.53750038  166.13200378    0.61000001    2.86999989
   16.54055595  154.60800171    0.58999997    2.86999989
   16.54388809  140.56100464    0.58999997    2.86999989
   16.54972076  140.56100464    0.56999999    2.86999989
   16.55388832  141.78399658    0.56999999    2.86999989
   16.55694389  130.09199524    0.56999999    2.86999989
   16.56027794  149.18400574    0.56999999    2.86999989
   16.56333351  136.89100647    0.56999999    2.84999990
   16.56666756  144.06900024    0.56999999    2.84999990
   16.56777954  135.12899780    0.56999999    2.86999989
   16.57055664  148.29899597    0.56999999    2.86999989
   16.57361221  139.61199951    0.55000001    2.89000010
   16.57694626  154.30900574    0.55000001    2.89000010
   16.58027840  142.75700378    0.55000001    2.86999989
   16.58333397  138.43200684    0.56999999    2.84999990
   16.58666801  151.72000122    0.56999999    2.84999990
   16.59250069  151.72000122    0.56999999    2.89000010
   16.59666824  147.47500610    0.56999999    2.86999989
   16.60000038  143.03300476    0.56999999    2.86999989
   16.60111237  140.46499634    0.56999999    2.86999989
   16.60361099  149.05499268    0.58999997    2.86999989
   16.60666656  138.81500244    0.58999997    2.86999989
   16.61000061  141.54200745    0.58999997    2.86999989
   16.61305618  151.00900269    0.56999999    2.84999990
   16.61638832  146.44299316    0.58999997    2.86999989
   16.61972237  148.01800537    0.56999999    2.86999989
   16.62277794  149.01899719    0.56999999    2.86999989
   16.62611198  142.38200378    0.58999997    2.89000010
   16.62916756  143.57899475    0.58999997    2.86999989
   16.63527679  143.57899475    0.58999997    2.89000010
   16.63944435  135.85099792    0.61000001    2.86999989
   16.64277840  147.25999451    0.63000000    2.86999989
   16.64583397  149.39199829    0.64999998    2.86999989
   16.64916611  146.56300354    0.64999998    2.86999989
   16.65250015  143.85699463    0.64999998    2.89000010
   16.65555573  144.73199463    0.63000000    2.89000010
   16.65888786  143.17799377    0.63000000    2.89000010
   16.66194344  148.78300476    0.63000000    2.86999989
   16.66527748  149.80000305    0.63000000    2.86999989
   16.66777802  149.83700562    0.61000001    2.86999989
   16.66916656  157.16600037    0.61000001    2.86999989
   16.67222214  143.91099548    0.58999997    2.86999989
   16.67833328  143.91099548    0.58999997    2.86999989
   16.68222237  142.69299316    0.61000001    2.86999989
   16.68555450  149.86199951    0.63000000    2.86999989
   16.68888855  138.18099976    0.61000001    2.86999989
   16.69194412  136.56100464    0.61000001    2.86999989
   16.69527626  144.40899658    0.63000000    2.86999989
   16.69861031  146.31500244    0.63000000    2.86999989
   16.70111275  145.43800354    0.61000001    2.86999989
   16.70222282  149.45799255    0.61000001    2.86999989
   16.70555687  147.11500549    0.61000001    2.86999989
   16.70888901  144.98100281    0.61000001    2.86999989
   16.71222305  143.98300171    0.63000000    2.86999989
   16.71527863  136.28799438    0.64999998    2.86999989
   16.72111130  136.28799438    0.64999998    2.86999989
   16.72527885  141.79200745    0.70999998    2.86999989
   16.72833443  136.97799683    0.70999998    2.86999989
   16.73166656  148.62600708    0.70999998    2.86999989
   16.73444557  143.79299927    0.70999998    2.86999989
   16.73527718  141.80000305    0.70999998    2.86999989
   16.73833275  151.89300537    0.69000000    2.86999989
   16.74166679  144.88999939    0.69000000    2.89000010
   16.74472237  149.66400146    0.69000000    2.86999989
   16.74805641  146.92100525    0.67000002    2.86999989
   16.75138855  152.71400452    0.67000002    2.86999989
   16.75444412  154.69799805    0.64999998    2.84999990
   16.75777817  151.32099915    0.64999998    2.86999989
   16.76388931  151.32099915    0.63000000    2.86999989
   16.76805496  144.43600464    0.63000000    2.86999989
   16.77138901  149.05099487    0.67000002    2.86999989
   16.77444458  146.61000061    0.67000002    2.86999989
   16.77777672  149.03100586    0.67000002    2.86999989
   16.78083229  142.39199829    0.69000000    2.86999989
   16.78416634  142.51800537    0.79000002    2.84999990
   16.78750038  142.13299561    0.80000001    2.86999989
   16.79055595  145.08200073    0.86000001    2.86999989
   16.79388809  140.41400146    0.83999997    2.86999989
   16.79694366  146.22700500    0.83999997    2.86999989
   16.80027771  148.47200012    0.81999999    2.86999989
   16.80111122  140.17900085    0.81999999    2.86999989
   16.82194519  140.17900085    1.25000000    2.84999990
   16.82583427  143.73800659    1.13000000    2.86999989
   16.82916832  150.40699768    1.01999998    2.86999989
   16.83250046  143.36799622    1.01999998    2.86999989
   16.83444595  140.66999817    1.01999998    2.86999989
   16.83611107  141.83700562    1.01999998    2.86999989
   16.83944511  144.19200134    1.01999998    2.86999989
   16.84250069  141.56100464    0.98000002    2.84999990
   16.84583473  153.31199646    0.89999998    2.84999990
   16.84889030  142.39599609    0.92000002    2.86999989
   16.85222244  145.09300232    0.89999998    2.86999989
   16.85555649  145.47900391    0.89999998    2.86999989
   16.85861206  139.31199646    0.89999998    2.86999989
   16.86444473  139.31199646    0.86000001    2.86999989
   16.86861038  148.49299622    0.86000001    2.86999989
   16.87194443  141.25199890    0.86000001    2.86999989
   16.87500000  141.56500244    0.83999997    2.86999989
   16.87833405  148.71200562    0.81999999    2.84999990
   16.88166618  146.40100098    0.83999997    2.86999989
   16.88472176  144.35400391    0.83999997    2.86999989
   16.88805580  146.76199341    0.83999997    2.86999989
   16.89111137  135.97200012    0.80000001    2.84999990
   16.89444351  150.65499878    0.79000002    2.86999989
   16.89777756  150.59199524    0.79000002    2.86999989
   16.90083313  141.19599915    0.79000002    2.89000010
   16.90138817  142.80499268    0.79000002    2.89000010
   16.90749931  142.80499268    0.76999998    2.84999990
   16.91138840  154.42199707    0.76999998    2.86999989
   16.91472244  151.10400391    0.76999998    2.86999989
   16.91805458  152.19999695    0.76999998    2.84999990
   16.92111015  155.40299988    0.76999998    2.86999989
   16.92444420  154.79100037    0.76999998    2.86999989
   16.92749977  155.22300720    0.75000000    2.84999990
   16.93083191  153.77299500    0.75000000    2.84999990
   16.93416595  151.11300659    0.75000000    2.86999989
   16.93472099  148.65600586    0.75000000    2.86999989
   16.93777657  144.42900085    0.75000000    2.86999989
   16.94083214  143.31300354    0.75000000    2.86999989
   16.94416618  138.66400146    0.75000000    2.86999989
   16.95027924  138.66400146    0.76999998    2.86999989
   16.95444489  145.56100464    0.76999998    2.86999989
   16.95750046  141.20300293    0.76999998    2.86999989
   16.96083450  142.65699768    0.76999998    2.86999989
   16.96389008  140.00300598    0.76999998    2.86999989
   16.96722221  136.18400574    0.76999998    2.86999989
   16.96805573  136.74099731    0.76999998    2.86999989
   16.97083473  142.02600098    0.76999998    2.86999989
   16.97389030  138.25799561    0.81999999    2.86999989
   16.97722244  141.75999451    0.83999997    2.86999989
   16.98055649  144.74400330    0.81999999    2.86999989
   16.98361206  147.91799927    0.81999999    2.86999989
   16.98694420  151.08200073    0.83999997    2.84999990
   16.99333382  151.08200073    0.81999999    2.86999989
   16.99722290  150.34100342    0.83999997    2.84999990
   17.00055504  139.51899719    0.83999997    2.84999990
   17.00138855  146.89900208    0.83999997    2.84999990
   17.00416756  141.90699768    0.81999999    2.86999989
   17.00722313  154.88200378    0.81999999    2.86999989
   17.01055527  146.15800476    0.81999999    2.86999989
   17.01388931  135.83099365    0.81999999    2.86999989
   17.01694489  132.61399841    0.81999999    2.84999990
   17.02027702  146.57200623    0.81999999    2.86999989
   17.02333260  141.52799988    0.81999999    2.86999989
   17.02666664  131.80799866    0.81999999    2.86999989
   17.03000069  156.31399536    0.81999999    2.86999989
   17.03583336  156.31399536    0.83999997    2.86999989
   17.03999901  134.22799683    0.83999997    2.86999989
   17.04333305  134.54299927    0.83999997    2.86999989
   17.04666710  140.59599304    0.83999997    2.86999989
   17.04972076  129.37600708    0.83999997    2.86999989
   17.05305481  131.96400452    0.83999997    2.86999989
   17.05611038  134.74499512    0.86000001    2.86999989
   17.05944443  139.77499390    0.86000001    2.86999989
   17.06277657  143.05599976    0.86000001    2.86999989
   17.06583214  141.71800232    0.86000001    2.86999989
   17.06805611  147.62100220    0.83999997    2.84999990
   17.06944466  150.59500122    0.83999997    2.84999990
   17.07250023  149.67599487    0.83999997    2.84999990
   17.07888985  149.67599487    0.86000001    2.86999989
   17.08305550  140.21200562    0.88000000    2.86999989
   17.08611107  135.25100708    0.88000000    2.86999989
   17.08944511  143.80400085    0.98000002    2.86999989
   17.09250069  132.66900635    0.98000002    2.84999990
   17.09583473  138.25199890    1.00000000    2.86999989
   17.09916687  135.66999817    1.01999998    2.84999990
   17.10138893  130.21000671    1.01999998    2.84999990
   17.10277748  128.31300354    1.01999998    2.84999990
   17.10583305  138.15100098    1.01999998    2.86999989
   17.10916710  140.42700195    1.00000000    2.86999989
   17.11250114  138.81599426    0.98000002    2.86999989
   17.11555672  136.06199646    0.98000002    2.86999989
   17.12166595  136.06199646    0.89999998    2.84999990
   17.12583351  139.63600159    0.88000000    2.84999990
   17.12888908  144.75300598    0.86000001    2.86999989
   17.13222313  143.83099365    0.86000001    2.86999989
   17.13472176  144.42399597    0.86000001    2.86999989
   17.13583374  132.09500122    0.86000001    2.86999989
   17.13888931  146.15499878    0.83999997    2.89000010
   17.14222145  147.99200439    0.83999997    2.86999989
   17.14555550  150.04200745    0.83999997    2.86999989
   17.14861107  144.90899658    0.83999997    2.86999989
   17.15194321  139.80900574    0.88000000    2.84999990
   17.15527725  143.52400208    0.88000000    2.84999990
   17.15833282  139.81799316    0.88000000    2.84999990
   17.16444397  139.81799316    0.88000000    2.86999989
   17.16860962  138.50199890    0.88000000    2.86999989
   17.17194366  151.74499512    0.92000002    2.84999990
   17.17499924  158.07499695    0.95999998    2.86999989
   17.17833328  145.78399658    0.95999998    2.86999989
   17.18138885  152.60099792    0.94000000    2.84999990
   17.18472099  147.29800415    0.92000002    2.86999989
   17.18805504  144.85200500    0.88000000    2.89000010
   17.19111061  158.47900391    0.88000000    2.89000010
   17.19444275  153.37199402    0.92000002    2.89000010
   17.19749832  152.36099243    0.89999998    2.84999990
   17.20083427  141.28700256    0.89999998    2.84999990
   17.20138931  153.75199890    0.89999998    2.84999990
   17.20750046  153.75199890    0.89999998    2.86999989
   17.21166801  153.97900391    0.86000001    2.89000010
   17.21472359  139.25999451    0.86000001    2.84999990
   17.21805573  139.27900696    0.86000001    2.84999990
   17.22138977  137.58599854    0.86000001    2.86999989
   17.22444534  148.37100220    0.83999997    2.86999989
   17.22777748  153.45599365    0.83999997    2.86999989
   17.23083305  146.86999512    0.83999997    2.86999989
   17.23416710  144.69799805    0.86000001    2.86999989
   17.23472214  152.23300171    0.86000001    2.86999989
   17.23777771  142.28300476    0.83999997    2.86999989
   17.24083328  138.78399658    0.83999997    2.86999989
   17.24416733  149.17999268    0.83999997    2.86999989
   17.25027847  149.17999268    0.86000001    2.84999990
   17.25416756  146.43800354    0.86000001    2.86999989
   17.25749969  159.78500366    0.86000001    2.86999989
   17.26083374  151.50700378    0.83999997    2.86999989
   17.26388931  153.11799622    0.86000001    2.84999990
   17.26722145  152.72799683    0.83999997    2.86999989
   17.26805496  151.23199463    0.83999997    2.86999989
   17.27083397  144.47999573    0.83999997    2.86999989
   17.27388954  146.70899963    0.81999999    2.86999989
   17.27722168  144.86999512    0.81999999    2.86999989
   17.28055573  149.62899780    0.80000001    2.86999989
   17.28361130  151.21499634    0.81999999    2.84999990
   17.28694344  150.43099976    0.81999999    2.86999989
   17.29305458  150.43099976    0.81999999    2.86999989
   17.29722214  151.24099731    0.81999999    2.86999989
   17.30027771  145.69299316    0.80000001    2.84999990
   17.30138779  143.25599670    0.80000001    2.84999990
   17.30388832  140.80099487    0.81999999    2.86999989
   17.30694389  148.96400452    0.81999999    2.86999989
   17.31027794  135.04600525    0.81999999    2.86999989
   17.31361008  147.06399536    0.81999999    2.84999990
   17.31666756  136.92500305    0.81999999    2.84999990
   17.32000160  149.67300415    0.81999999    2.86999989
   17.32333374  154.07000732    0.83999997    2.84999990
   17.32638931  148.35499573    0.95999998    2.86999989
   17.32972336  157.52999878    0.94000000    2.84999990
   17.33583450  157.52999878    0.92000002    2.86999989
   17.34000015  149.71699524    0.92000002    2.86999989
   17.34305573  159.71800232    0.92000002    2.84999990
   17.34638977  155.49499512    0.89999998    2.86999989
   17.34972191  155.11999512    0.89999998    2.84999990
   17.35277748  143.83799744    0.88000000    2.86999989
   17.35611153  151.45300293    0.88000000    2.84999990
   17.35944557  152.97399902    0.88000000    2.86999989
   17.36250114  139.04200745    0.88000000    2.86999989
   17.36583328  144.71000671    0.88000000    2.86999989
   17.36805534  144.81599426    0.88000000    2.84999990
   17.36944389  146.80799866    0.88000000    2.84999990
   17.37249947  144.89799500    0.88000000    2.84999990
   17.37861061  144.89799500    0.88000000    2.86999989
   17.38277817  151.15400696    0.88000000    2.86999989
   17.38611031  141.49000549    0.88000000    2.86999989
   17.38944435  150.80700684    0.88000000    2.86999989
   17.39249992  154.46099854    0.89999998    2.86999989
   17.39583397  156.42300415    0.89999998    2.86999989
   17.39888954  148.36300659    0.88000000    2.84999990
   17.40138817  156.18200684    0.89999998    2.84999990
   17.40277672  150.13800049    0.89999998    2.84999990
   17.40583229  143.53100586    0.89999998    2.84999990
   17.40916634  152.97399902    0.92000002    2.86999989
   17.41250038  159.01499939    0.89999998    2.84999990
   17.41555595  152.69500732    0.89999998    2.84999990
   17.42166519  152.69500732    0.89999998    2.84999990
   17.42555428  155.13900757    0.89999998    2.86999989
   17.42888832  159.57099915    0.92000002    2.86999989
   17.43222237  163.59599304    0.89999998    2.86999989
   17.43472099  151.87399292    0.89999998    2.86999989
   17.43583298  157.01800537    0.89999998    2.86999989
   17.43916512  155.32499695    0.89999998    2.86999989
   17.44222069  157.02799988    0.92000002    2.84999990
   17.44555473  147.12699890    0.94000000    2.84999990
   17.44861031  147.51800537    0.92000002    2.84999990
   17.45194435  143.12399292    0.92000002    2.84999990
   17.45527840  146.85299683    0.92000002    2.84999990
   17.45833397  149.00599670    0.92000002    2.86999989
   17.46444511  149.00599670    0.88000000    2.86999989
   17.46861076  157.48699951    0.89999998    2.84999990
   17.47166634  148.67199707    0.88000000    2.84999990
   17.47500038  140.20799255    0.88000000    2.84999990
   17.47805595  135.74299622    0.88000000    2.86999989
   17.48139000  141.12199402    0.88000000    2.86999989
   17.48472214  137.92100525    0.88000000    2.86999989
   17.48777771  139.57699585    0.86000001    2.84999990
   17.49111176  145.72500610    0.83999997    2.84999990
   17.49416733  143.61399841    0.83999997    2.86999989
   17.49749947  146.12300110    0.81999999    2.86999989
   17.50083351  144.11199951    0.83999997    2.86999989
   17.50138855  152.76100159    0.83999997    2.86999989
   17.50722313  152.76100159    0.81999999    2.84999990
   17.51138878  143.32000732    0.83999997    2.84999990
   17.51472282  138.74200439    0.83999997    2.84999990
   17.51777840  141.39399719    0.83999997    2.86999989
   17.52111053  146.69599915    0.94000000    2.84999990
   17.52444458  145.95199585    0.92000002    2.86999989
   17.52750015  154.28799438    0.89999998    2.86999989
   17.53083229  140.98800659    0.86000001    2.84999990
   17.53388786  144.77000427    0.92000002    2.86999989
   17.53472137  142.40400696    0.92000002    2.84999990
   17.53750038  138.44900513    1.00000000    2.84999990
   17.54083252  132.85400391    1.03999996    2.86999989
   17.54388809  140.68600464    1.09000003    2.86999989
   17.54999924  140.68600464    1.07000005    2.84999990
   17.55416679  141.03199768    1.39999998    2.86999989
   17.55749893  142.50100708    1.53999996    2.84999990
   17.56055450  149.41700745    1.03999996    2.86999989
   17.56388855  149.02200317    1.01999998    2.86999989
   17.56722260  139.72399902    1.00000000    2.86999989
   17.56833458  141.12500000    1.00000000    2.86999989
   17.57083511  144.73599243    0.94000000    2.86999989
   17.57416725  144.72799683    0.94000000    2.86999989
   17.57722282  138.05599976    0.92000002    2.86999989
   17.58055687  140.16000366    0.88000000    2.84999990
   17.58388901  142.44099426    0.83999997    2.84999990
   17.58694458  148.62100220    0.83999997    2.84999990
   17.59277916  148.62100220    0.83999997    2.84999990
   17.59694481  142.29800415    0.81999999    2.86999989
   17.60027885  150.32499695    0.80000001    2.86999989
   17.60138893  148.48300171    0.80000001    2.84999990
   17.60388947  141.63800049    0.80000001    2.84999990
   17.60722351  149.73800659    0.80000001    2.84999990
   17.61055565  137.24400330    0.80000001    2.84999990
   17.61361122  141.33999634    0.80000001    2.86999989
   17.61694527  153.35200500    0.80000001    2.86999989
   17.62000084  141.92999268    0.79000002    2.86999989
   17.62333298  141.88699341    0.80000001    2.86999989
   17.62666702  145.78999329    0.80000001    2.84999990
   17.62972260  141.55400085    0.80000001    2.84999990
   17.63583374  141.55400085    0.79000002    2.86999989
   17.63999939  141.03799438    0.79000002    2.86999989
   17.64305496  142.64100647    0.79000002    2.86999989
   17.64638901  138.62199402    0.76999998    2.84999990
   17.64944458  144.83900452    0.76999998    2.84999990
   17.65277672  141.51100159    0.76999998    2.84999990
   17.65611076  141.14900208    0.76999998    2.84999990
   17.65888786  144.84100342    0.79000002    2.86999989
   17.66222191  152.58599854    0.79000002    2.86999989
   17.66527748  143.34100342    0.79000002    2.84999990
   17.66805458  140.49000549    0.79000002    2.84999990
   17.66888809  139.77799988    0.79000002    2.86999989
   17.67222214  148.40199280    0.79000002    2.84999990
   17.67833328  148.40199280    0.79000002    2.84999990
   17.68249893  140.22200012    0.79000002    2.84999990
   17.68583298  135.73699951    0.79000002    2.84999990
   17.68888855  137.40299988    0.79000002    2.84999990
   17.69222069  142.10699463    0.79000002    2.84999990
   17.69555473  146.63900757    0.79000002    2.84999990
   17.69861031  139.34899902    0.80000001    2.84999990
   17.70138931  134.21299744    0.80000001    2.84999990
   17.70222282  140.75700378    0.80000001    2.84999990
   17.70555687  140.16200256    0.80000001    2.86999989
   17.70861244  137.03900146    0.80000001    2.86999989
   17.71194458  136.37500000    0.80000001    2.86999989
   17.71527863  133.35699463    0.80000001    2.84999990
   17.72111130  133.35699463    0.80000001    2.84999990
   17.72527885  134.99600220    0.81999999    2.84999990
   17.72861099  131.47900391    0.81999999    2.84999990
   17.73166656  139.28100586    0.81999999    2.86999989
   17.73472214  138.28100586    0.81999999    2.84999990
   17.73527718  138.55599976    0.81999999    2.86999989
   17.73861122  140.29200745    0.81999999    2.84999990
   17.74194527  136.31799316    0.81999999    2.84999990
   17.74527740  146.00000000    0.81999999    2.84999990
   17.74833298  142.88000488    0.81999999    2.84999990
   17.75166702  138.67599487    0.81999999    2.84999990
   17.75499916  142.99800110    0.81999999    2.84999990
   17.75805473  146.05700684    0.83999997    2.84999990
   17.76444435  146.05700684    0.81999999    2.84999990
   17.76833344  127.17299652    0.81999999    2.86999989
   17.77166557  136.21400452    0.81999999    2.84999990
   17.77499962  143.27699280    0.81999999    2.84999990
   17.77805519  143.71099854    0.81999999    2.86999989
   17.78138924  141.02299500    0.81999999    2.84999990
   17.78444481  134.75199890    0.81999999    2.84999990
   17.78777695  134.97700500    0.80000001    2.84999990
   17.79111099  132.02999878    0.81999999    2.84999990
   17.79416656  137.35699463    0.81999999    2.84999990
   17.79749870  146.57899475    0.80000001    2.84999990
   17.80055428  138.85299683    0.81999999    2.84999990
   17.80138779  143.17900085    0.81999999    2.84999990
   17.80722237  143.17900085    0.80000001    2.86999989
   17.81138802  145.41700745    0.80000001    2.84999990
   17.81444359  141.82400513    0.80000001    2.84999990
   17.81777954  140.47300720    0.80000001    2.84999990
   17.83527756  147.69400024    0.75000000    2.84999990
   17.83750153  152.96699524    0.75000000    2.84999990
   17.84055710  151.41799927    0.75000000    2.86999989
   17.84388924  141.43699646    0.75000000    2.84999990
   17.85027885  141.43699646    0.75000000    2.84999990
   17.85444450  137.20799255    0.75000000    2.84999990
   17.85750008  129.22200012    0.75000000    2.84999990
   17.86083412  132.14500427    0.75000000    2.84999990
   17.86388969  137.46299744    0.75000000    2.84999990
   17.86722183  142.83000183    0.75000000    2.86999989
   17.86861038  132.02299500    0.73000002    2.86999989
   17.87111092  131.42500305    0.73000002    2.86999989
   17.87416649  134.95599365    0.75000000    2.84999990
   17.87750053  141.13299561    0.75000000    2.84999990
   17.88055611  133.82499695    0.75000000    2.84999990
   17.88388824  139.87399292    0.73000002    2.84999990
   17.88722229  134.62100220    0.73000002    2.84999990
   17.89305496  134.62100220    0.73000002    2.84999990
   17.89722252  131.76400757    0.73000002    2.84999990
   17.90027809  128.38299561    0.73000002    2.84999990
   17.90194321  135.59500122    0.73000002    2.84999990
   17.90388870  139.39599609    0.73000002    2.86999989
   17.90722275  143.94500732    0.73000002    2.84999990
   17.91055489  137.60299683    0.73000002    2.84999990
   17.91361046  142.59899902    0.73000002    2.84999990
   17.91694450  152.14700317    0.73000002    2.86999989
   17.92000008  139.27799988    0.73000002    2.84999990
   17.92333221  138.19500732    0.73000002    2.84999990
   17.92666626  142.71699524    0.73000002    2.84999990
   17.92972183  142.45599365    0.73000002    2.84999990
   17.93583298  142.45599365    0.73000002    2.84999990
   17.93999863  133.10099792    0.73000002    2.86999989
   17.94333267  140.44299316    0.73000002    2.84999990
   17.94638824  140.89100647    0.73000002    2.84999990
   17.94972038  141.16700745    0.73000002    2.84999990
   17.95277786  149.25999451    0.73000002    2.84999990
   17.95611191  142.50599670    0.73000002    2.84999990
   17.95944595  148.90699768    0.73000002    2.84999990
   17.96250153  147.11000061    0.70999998    2.84999990
   17.96583366  149.79100037    0.70999998    2.84999990
   17.96861076  141.19400024    0.70999998    2.84999990
   17.96916771  143.50100708    0.70999998    2.84999990
   17.97249985  134.00500488    0.69000000    2.84999990
   17.97861099  134.00500488    0.69000000    2.86999989
   17.98277855  137.89900208    0.69000000    2.84999990
   17.98611069  142.78399658    0.69000000    2.84999990
   17.98944473  142.01199341    0.67000002    2.84999990
   17.99250031  130.77699280    0.67000002    2.84999990
   17.99583435  133.56700134    0.67000002    2.84999990
   17.99888992  140.76699829    0.67000002    2.84999990
   18.00194359  143.26100159    0.67000002    2.84999990
   18.00250053  138.73899841    0.67000002    2.84999990
   18.00583267  136.15899658    0.67000002    2.84999990
   18.00916672  143.38400269    0.69000000    2.86999989
   18.01222229  141.38499451    0.69000000    2.84999990
   18.01555634  138.57200623    0.69000000    2.84999990
   18.02166557  138.57200623    0.67000002    2.84999990
   18.02583313  146.58500671    0.69000000    2.84999990
   18.02888870  147.37399292    0.69000000    2.86999989
   18.03222275  153.94299316    0.67000002    2.84999990
   18.03527641  149.65600586    0.67000002    2.84999990
   18.03555489  149.28599548    0.67000002    2.84999990
   18.03888893  135.21600342    0.67000002    2.84999990
   18.04222107  148.33700562    0.67000002    2.84999990
   18.04527664  140.61199951    0.67000002    2.84999990
   18.04861069  145.72000122    0.67000002    2.84999990
   18.05194283  142.91700745    0.67000002    2.84999990
   18.05499840  145.48699951    0.69000000    2.84999990
   18.05833244  140.23699951    0.69000000    2.84999990
   18.06444359  140.23699951    0.69000000    2.84999990
   18.06861115  147.27900696    0.70999998    2.84999990
   18.07166672  141.72799683    0.70999998    2.84999990
   18.07500076  151.14900208    0.70999998    2.84999990
   18.07833481  142.08299255    0.70999998    2.84999990
   18.08139038  144.98199463    0.70999998    2.84999990
   18.08472252  144.65400696    0.70999998    2.84999990
   18.08805656  142.47300720    0.70999998    2.84999990
   18.09111214  140.38699341    0.73000002    2.84999990
   18.09444427  144.62300110    0.73000002    2.84999990
   18.09749985  139.53399658    0.73000002    2.84999990
   18.10083389  152.99200439    0.73000002    2.84999990
   18.10194397  153.22399902    0.73000002    2.84999990
   18.10722351  153.22399902    0.73000002    2.84999990
   18.11138916  149.86199951    0.73000002    2.84999990
   18.11472321  144.91499329    0.73000002    2.84999990
   18.11777878  143.90400696    0.73000002    2.84999990
   18.12111092  151.31300354    0.76999998    2.82999992
   18.12444496  138.01300049    0.76999998    2.84999990
   18.12750053  148.20899963    0.76999998    2.84999990
   18.13083267  153.96499634    0.76999998    2.84999990
   18.13416672  142.34300232    0.76999998    2.84999990
   18.13527679  148.06500244    0.76999998    2.84999990
   18.13777733  139.86599731    0.76999998    2.84999990
   18.14083290  151.47300720    0.79000002    2.86999989
   18.14416695  145.02299500    0.79000002    2.82999992
   18.14999962  145.02299500    0.79000002    2.84999990
   18.15416718  146.63800049    0.79000002    2.84999990
   18.15749931  145.52499390    0.76999998    2.84999990
   18.16083336  142.55799866    0.76999998    2.84999990
   18.16388893  142.62399292    0.79000002    2.84999990
   18.16722107  139.63000488    0.76999998    2.84999990
   18.16860962  140.23399353    0.76999998    2.84999990
   18.17083359  135.02099609    0.76999998    2.82999992
   18.17388916  145.61500549    0.76999998    2.82999992
   18.17722130  138.31700134    0.76999998    2.82999992
   18.18055534  134.24899292    0.79000002    2.82999992
   18.18361092  136.10600281    0.79000002    2.82999992
   18.18694305  141.14199829    0.80000001    2.82999992
   18.19305420  141.14199829    0.80000001    2.82999992
   18.19722176  134.77600098    0.81999999    2.84999990
   18.20027924  129.69700623    0.80000001    2.84999990
   18.20194435  137.66200256    0.80000001    2.84999990
   18.20416832  137.15600586    0.80000001    2.84999990
   18.20722389  146.97900391    0.80000001    2.84999990
   18.21055603  128.12800598    0.80000001    2.84999990
   18.21389008  139.67300415    0.80000001    2.84999990
   18.21694565  130.62199402    0.80000001    2.84999990
   18.22027779  134.90400696    0.80000001    2.84999990
   18.22333336  127.91400146    0.81999999    2.84999990
   18.22666740  144.69999695    0.81999999    2.84999990
   18.23000145  144.11900330    0.81999999    2.84999990
   18.23583412  144.11900330    0.81999999    2.84999990
   18.23999977  137.63499451    0.81999999    2.84999990
   18.24333382  142.82200623    0.81999999    2.82999992
   18.24638939  131.19099426    0.81999999    2.82999992
   18.24972153  144.98800659    0.81999999    2.82999992
   18.25277710  144.36199951    0.83999997    2.84999990
   18.25611115  146.47099304    0.83999997    2.84999990
   18.25916672  146.63600159    0.81999999    2.84999990
   18.26250076  136.82800293    0.81999999    2.84999990
   18.26583290  148.30299377    0.81999999    2.84999990
   18.26861000  134.69900513    0.80000001    2.82999992
   18.26944351  151.82600403    0.80000001    2.82999992
   18.27249908  153.69000244    0.79000002    2.84999990
   18.27861023  153.69000244    0.79000002    2.82999992
   18.28277779  128.00599670    0.79000002    2.84999990
   18.28610992  137.14399719    0.79000002    2.84999990
   18.28916550  130.82299805    0.80000001    2.84999990
   18.29249954  137.82699585    0.81999999    2.84999990
   18.29555511  133.69099426    0.81999999    2.84999990
   18.29888916  131.69599915    0.81999999    2.82999992
   18.30194283  127.08599854    0.81999999    2.82999992
   18.30277634  142.01300049    0.81999999    2.82999992
   18.30583191  144.41400146    0.83999997    2.84999990
   18.30916595  131.14399719    0.83999997    2.84999990
   18.31222153  132.40100098    0.83999997    2.84999990
   18.31555557  135.48800659    0.83999997    2.84999990
   18.32166672  135.48800659    0.81999999    2.82999992
   18.32555580  144.98599243    0.81999999    2.82999992
   18.32888985  137.58799744    0.81999999    2.84999990
   18.33222389  134.66900635    0.83999997    2.82999992
   18.33527756  135.68200684    0.86000001    2.84999990
   18.33583450  133.85899353    0.86000001    2.82999992
   18.33889008  131.42300415    0.88000000    2.82999992
   18.34222221  140.69599915    0.88000000    2.82999992
   18.34527779  129.51800537    0.88000000    2.82999992
   18.34861183  136.74699402    0.81999999    2.82999992
   18.35194397  132.90600586    0.81999999    2.82999992
   18.35499954  151.31700134    0.80000001    2.84999990
   18.35833359  142.97099304    0.80000001    2.84999990
   18.36444473  142.97099304    0.81999999    2.82999992
   18.36833382  156.95399475    0.81999999    2.82999992
   18.36888885  137.41900635    0.81999999    2.82999992
   18.37222290  164.38499451    0.81999999    2.82999992
   18.37555504  180.04400635    0.81999999    2.82999992
   18.37861061  150.29299927    0.81999999    2.82999992
   18.38194466  181.64399719    0.81999999    2.84999990
   18.38527679  140.24800110    0.81999999    2.82999992
   18.38833237  165.59100342    0.83999997    2.82999992
   18.39166641  158.01899719    0.83999997    2.84999990
   18.39472198  154.57099915    0.80000001    2.82999992
   18.39805603  148.21499634    0.79000002    2.82999992
   18.40138817  160.20500183    0.79000002    2.82999992
   18.40222168  150.22099304    0.80000001    2.82999992
   18.40722275  150.22099304    0.79000002    2.84999990
   18.41138840  166.57200623    0.76999998    2.82999992
   18.41444397  157.34700012    0.76999998    2.82999992
   18.41777802  140.47200012    0.76999998    2.84999990
   18.42111015  135.88099670    0.76999998    2.84999990
   18.42416573  162.34300232    0.76999998    2.84999990
   18.42749977  144.40499878    0.76999998    2.82999992
   18.43055534  141.30700684    0.79000002    2.82999992
   18.43388748  137.68400574    0.76999998    2.84999990
   18.43555450  150.68699646    0.76999998    2.84999990
   18.43750000  137.89799500    0.79000002    2.84999990
   18.44083214  134.26400757    0.79000002    2.84999990
   18.44388771  148.29100037    0.81999999    2.82999992
   18.45000076  148.29100037    0.81999999    2.80999994
   18.45416832  126.46600342    0.76999998    2.84999990
   18.45750046  140.90499878    0.76999998    2.84999990
   18.46055603  137.78199768    0.76999998    2.84999990
   18.46389008  145.92999268    0.76999998    2.82999992
   18.46694565  135.76400757    0.79000002    2.84999990
   18.46888924  137.23100281    0.79000002    2.82999992
   18.47055626  138.11700439    0.76999998    2.82999992
   18.47389030  137.77400208    0.76999998    2.84999990
   18.47694588  131.70599365    0.79000002    2.82999992
   18.48027802  135.22799683    0.79000002    2.82999992
   18.48333359  136.89599609    0.79000002    2.82999992
   18.48666763  135.71800232    0.76999998    2.82999992
   18.49277878  135.71800232    0.76999998    2.82999992
   18.49694443  145.47099304    0.79000002    2.84999990
   18.50027847  138.62500000    0.79000002    2.82999992
   18.50222206  133.62100220    0.79000002    2.82999992
   18.50388908  141.47900391    0.76999998    2.84999990
   18.50722313  135.56199646    0.76999998    2.84999990
   18.51027870  140.99699402    0.76999998    2.82999992
   18.51361084  131.79800415    0.76999998    2.82999992
   18.51694489  136.59100342    0.76999998    2.84999990
   18.52000046  146.47000122    0.76999998    2.84999990
   18.52333260  138.34800720    0.76999998    2.84999990
   18.52666664  137.27200317    0.79000002    2.82999992
   18.52972221  141.67799377    0.80000001    2.82999992
   18.53583336  141.67799377    0.80000001    2.82999992
   18.53972244  137.95300293    0.80000001    2.84999990
   18.54305458  136.95799255    0.80000001    2.82999992
   18.54638863  136.01199341    0.79000002    2.82999992
   18.54944420  132.94200134    0.79000002    2.82999992
   18.55277634  140.63000488    0.80000001    2.80999994
   18.55611038  136.30200195    0.80000001    2.80999994
   18.55916595  131.53500366    0.80000001    2.82999992
   18.56250000  138.18299866    0.80000001    2.82999992
   18.56555557  138.72599792    0.80000001    2.82999992
   18.56888962  134.16000366    0.81999999    2.82999992
   18.56944466  130.59100342    0.81999999    2.82999992
   18.57277870  135.06599426    0.81999999    2.82999992
   18.57861137  135.06599426    0.81999999    2.80999994
   18.58277893  146.87399292    0.81999999    2.84999990
   18.58583450  136.32400513    0.81999999    2.82999992
   18.58916664  134.90499878    0.86000001    2.82999992
   18.59250069  147.38299561    0.86000001    2.80999994
   18.59555626  140.60800171    0.83999997    2.80999994
   18.59889030  138.22500610    0.83999997    2.82999992
   18.60194397  138.50399780    0.83999997    2.82999992
   18.60277748  140.59500122    0.83999997    2.82999992
   18.60583305  139.22799683    0.83999997    2.82999992
   18.60888863  139.90100098    0.83999997    2.82999992
   18.61222267  142.84800720    0.86000001    2.82999992
   18.61555672  132.22999573    0.83999997    2.84999990
   18.62138939  132.22999573    0.83999997    2.82999992
   18.62555504  154.72999573    0.81999999    2.80999994
   18.62888908  145.86599731    0.81999999    2.80999994
   18.63194466  144.55000305    0.81999999    2.82999992
   18.63527679  140.30900574    0.81999999    2.80999994
   18.63611031  143.86700439    0.81999999    2.80999994
   18.63888931  140.76899719    0.81999999    2.80999994
   18.64194489  142.37600708    0.81999999    2.80999994
   18.64527702  150.16999817    0.83999997    2.80999994
   18.64861107  143.08599854    0.83999997    2.80999994
   18.65166664  137.02499390    0.81999999    2.82999992
   18.65499878  139.07800293    0.83999997    2.82999992
   18.65805435  148.19299316    0.83999997    2.82999992
   18.66472244  148.19299316    0.83999997    2.82999992
   18.66860962  147.46299744    0.81999999    2.82999992
   18.66944313  136.33299255    0.81999999    2.82999992
   18.67249870  143.53799438    0.81999999    2.82999992
   18.67555428  137.24699402    0.81999999    2.80999994
   18.67888832  137.14500427    0.83999997    2.82999992
   18.68222237  140.31199646    0.83999997    2.82999992
   18.68527603  141.96899414    0.83999997    2.82999992
   18.68861008  149.72799683    0.83999997    2.82999992
   18.69166565  140.13699341    0.83999997    2.82999992
   18.69499969  140.57400513    0.86000001    2.82999992
   18.69833183  141.47000122    0.86000001    2.82999992
   18.70138931  141.04200745    0.86000001    2.80999994
   18.70277786  145.81700134    0.86000001    2.80999994
   18.70722389  145.81700134    0.86000001    2.80999994
   18.71111107  146.38000488    0.88000000    2.80999994
   18.71444511  151.34700012    0.88000000    2.82999992
   18.71777916  149.35899353    0.88000000    2.82999992
   18.72083473  147.60299683    0.86000001    2.82999992
   18.72416687  145.83799744    0.86000001    2.80999994
   18.72750092  149.87899780    0.86000001    2.80999994
   18.73055649  144.32200623    0.86000001    2.80999994
   18.73388863  153.83299255    0.86000001    2.80999994
   18.73611069  138.90800476    0.86000001    2.80999994
   18.73750114  139.61599731    0.86000001    2.80999994
   18.74055672  137.62699890    0.83999997    2.80999994
   18.74388885  143.61300659    0.86000001    2.80999994
   18.75000000  143.61300659    0.86000001    2.80999994
   18.75416756  141.13099670    0.83999997    2.82999992
   18.75722313  150.85699463    0.86000001    2.82999992
   18.76055527  152.73500061    0.86000001    2.82999992
   18.76388931  143.51100159    0.83999997    2.82999992
   18.76694489  149.32400513    0.83999997    2.82999992
   18.76944351  150.59700012    0.81999999    2.80999994
   18.77055550  137.93499756    0.81999999    2.80999994
   18.77361107  146.62399292    0.83999997    2.80999994
   18.77694511  150.57400513    0.83999997    2.80999994
   18.78027725  145.36900330    0.83999997    2.82999992
   18.78333282  148.31100464    0.81999999    2.80999994
   18.78666687  146.06599426    0.81999999    2.80999994
   18.79277802  146.06599426    0.81999999    2.80999994
   18.79694366  161.54499817    0.81999999    2.80999994
   18.80027771  153.00599670    0.81999999    2.80999994
   18.80277634  148.02299500    0.83999997    2.80999994
   18.80388832  154.36500549    0.83999997    2.80999994
   18.80694389  145.48500061    0.83999997    2.80999994
   18.81027794  157.44900513    0.81999999    2.80999994
   18.81361008  141.39799500    0.83999997    2.80999994
   18.81666756  144.27200317    0.83999997    2.80999994
   18.82000160  153.83599854    0.81999999    2.80999994
   18.82333374  154.21899414    0.81999999    2.82999992
   18.82638931  156.61399841    0.81999999    2.80999994
   18.82972336  152.20199585    0.83999997    2.80999994
   18.83555603  152.20199585    0.83999997    2.80999994
   18.85416794  163.67900085    0.83999997    2.80999994
   18.85722351  142.42300415    0.81999999    2.80999994
   18.86055565  151.93200684    0.81999999    2.80999994
   18.86361122  144.46299744    0.83999997    2.80999994
   18.86694527  148.70599365    0.83999997    2.82999992
   18.87027740  150.83099365    0.83999997    2.80999994
   18.87333298  158.59500122    0.83999997    2.78999996
   18.87888908  158.59500122    0.83999997    2.80999994
   18.88277817  148.56799316    0.83999997    2.80999994
   18.88611031  134.58000183    0.83999997    2.78999996
   18.88722229  153.46000671    0.83999997    2.78999996
   18.88972282  148.85699463    0.83999997    2.80999994
   18.89305496  152.75700378    0.86000001    2.80999994
   18.89611053  150.14500427    0.83999997    2.80999994
   18.89944458  157.05700684    0.83999997    2.80999994
   18.90277672  163.56900024    0.86000001    2.80999994
   18.90583229  152.43299866    0.86000001    2.80999994
   18.90916634  148.55799866    0.86000001    2.80999994
   18.91250038  146.24699402    0.83999997    2.78999996
   18.91555595  144.50399780    0.83999997    2.80999994
   18.92166519  144.50399780    0.83999997    2.80999994
   18.92583275  142.72500610    0.83999997    2.80999994
   18.92916679  151.70399475    0.83999997    2.80999994
   18.93222237  148.41099548    0.83999997    2.80999994
   18.93555450  147.12100220    0.83999997    2.78999996
   18.93888855  156.98800659    0.81999999    2.80999994
   18.94194412  149.40400696    0.81999999    2.80999994
   18.94527626  143.58299255    0.81999999    2.80999994
   18.94833183  142.40199280    0.81999999    2.80999994
   18.95166779  151.70700073    0.81999999    2.80999994
   18.95388985  139.34899902    0.81999999    2.80999994
   18.95527840  147.35299683    0.81999999    2.80999994
   18.95861244  139.30799866    0.83999997    2.80999994
   18.96444511  139.30799866    0.86000001    2.80999994
   18.96861076  138.71200562    0.89999998    2.78999996
   18.97166634  148.57299805    0.89999998    2.78999996
   18.97527885  137.28100586    0.89999998    2.80999994
   18.97861099  143.47900391    0.89999998    2.80999994
   18.98194504  136.11300659    0.92000002    2.78999996
   18.98500061  150.96600342    0.92000002    2.80999994
   18.98722267  144.55400085    0.92000002    2.78999996
   18.98861122  146.58999634    0.92000002    2.78999996
   18.99194527  148.82899475    0.92000002    2.78999996
   18.99500084  138.00399780    0.92000002    2.80999994
   18.99833298  142.00100708    0.94000000    2.78999996
   19.00166702  133.44099426    0.94000000    2.78999996
   19.00722313  133.44099426    0.95999998    2.78999996
   19.01138878  136.80400085    1.01999998    2.80999994
   19.01472282  141.75500488    1.01999998    2.80999994
   19.01777840  149.53900146    1.03999996    2.78999996
   19.02055550  145.12899780    1.07000005    2.78999996
   19.02138901  144.98300171    1.07000005    2.78999996
   19.02472115  140.62500000    1.09000003    2.78999996
   19.02777672  145.42799377    1.16999996    2.78999996
   19.03111076  146.61900330    1.16999996    2.80999994
   19.03444481  152.91099548    1.16999996    2.80999994
   19.03750038  137.50799561    1.19000006    2.78999996
   19.04083252  141.05900574    1.19000006    2.78999996
   19.04416656  138.52999878    1.16999996    2.78999996
   19.05027771  138.52999878    1.16999996    2.78999996
   19.05416679  143.24499512    1.16999996    2.78999996
   19.05749893  143.39700317    1.19000006    2.78999996
   19.06083298  148.49899292    1.16999996    2.78999996
   19.06388855  145.50399780    1.16999996    2.78999996
   19.06722260  140.42599487    1.14999998    2.78999996
   19.07055664  147.38200378    1.13000000    2.78999996
   19.07361221  149.18800354    1.13000000    2.78999996
   19.07694626  142.90699768    1.07000005    2.78999996
   19.08027840  142.39999390    1.03999996    2.78999996
   19.08333397  139.64199829    1.01999998    2.80999994
   19.08666801  143.86399841    1.00000000    2.78999996
   19.08722305  144.43600464    1.00000000    2.78999996
   19.09305573  144.43600464    0.98000002    2.78999996
   19.09722328  143.99099731    0.98000002    2.76999998
   19.10027885  146.29100037    1.00000000    2.78999996
   19.10361099  144.75900269    1.00000000    2.78999996
   19.10694504  139.69400024    1.00000000    2.78999996
   19.11000061  141.94599915    1.00000000    2.78999996
   19.11333466  133.51300049    1.00000000    2.78999996
   19.11638832  138.12899780    0.98000002    2.78999996
   19.11972237  140.72300720    0.98000002    2.78999996
   19.12055588  154.68600464    0.98000002    2.78999996
   19.12333298  140.79100037    1.00000000    2.80999994
   19.12666702  142.16900635    0.98000002    2.78999996
   19.13000107  141.56700134    0.98000002    2.78999996
   19.13583374  141.56700134    0.98000002    2.78999996
   19.13999939  141.52799988    0.98000002    2.80999994
   19.14305496  138.41700745    0.98000002    2.78999996
   19.14638901  133.73199463    0.98000002    2.78999996
   19.14972115  140.18400574    1.00000000    2.78999996
   19.15277672  140.67599487    1.00000000    2.78999996
   19.15388870  138.65299988    0.98000002    2.78999996
   19.15666580  142.75799561    0.98000002    2.78999996
   19.15972137  152.06300354    1.03999996    2.78999996
   19.16305542  136.79899597    1.05999994    2.76999998
   19.16611099  140.42799377    1.05999994    2.78999996
   19.16944313  148.77200317    1.05999994    2.78999996
   19.17277718  144.70199585    1.05999994    2.78999996
   19.17860985  144.70199585    1.07000005    2.78999996
   19.18277740  144.14700317    1.09000003    2.78999996
   19.18610954  133.10400391    1.09000003    2.78999996
   19.18722153  131.84700012    1.09000003    2.78999996
   19.18944359  137.18099976    1.11000001    2.78999996
   19.19277763  141.26899719    1.11000001    2.76999998
   19.19610977  136.39100647    1.11000001    2.76999998
   19.19916534  134.41099548    1.09000003    2.76999998
   19.20250130  139.22999573    1.09000003    2.76999998
   19.20583344  136.97900391    1.07000005    2.76999998
   19.20888901  146.20799255    1.09000003    2.76999998
   19.21222305  126.59200287    1.07000005    2.76999998
   19.21527863  127.71199799    1.07000005    2.76999998
   19.22138977  127.71199799    1.07000005    2.78999996
   19.22555542  140.42900085    1.07000005    2.76999998
   19.22888947  152.93600464    1.09000003    2.76999998
   19.23194504  140.59500122    1.09000003    2.78999996
   19.23527718  140.67199707    1.11000001    2.78999996
   19.23861122  137.94799805    1.16999996    2.76999998
   19.24166679  139.45799255    1.23000002    2.78999996
   19.24500084  149.46600342    1.23000002    2.78999996
   19.24833298  136.94400024    1.25000000    2.76999998
   19.25138855  145.85699463    1.25000000    2.78999996
   19.25388908  138.90100098    1.23000002    2.76999998
   19.25527763  151.70100403    1.23000002    2.76999998
   19.25861168  151.67700195    1.25000000    2.76999998
   19.26444435  151.67700195    1.28999996    2.76999998
   19.26861000  143.74899292    1.28999996    2.76999998
   19.27166557  143.47700500    1.28999996    2.76999998
   19.27499962  145.25199890    1.38000000    2.76999998
   19.27805519  141.58999634    1.39999998    2.76999998
   19.28138924  142.86399841    1.38000000    2.76999998
   19.28472137  142.50000000    1.36000001    2.76999998
   19.28722191  141.64900208    1.36000001    2.78999996
   19.28805542  141.88400269    1.36000001    2.78999996
   19.29138756  138.57699585    1.36000001    2.76999998
   19.29472160  133.19999695    1.36000001    2.76999998
   19.29777718  133.26300049    1.34000003    2.76999998
   19.30111122  149.57099915    1.34000003    2.76999998
   19.30722237  149.57099915    1.36000001    2.76999998
   19.31138802  149.82099915    1.38000000    2.76999998
   19.31444359  141.53900146    1.38000000    2.78999996
   19.31777954  145.06500244    1.41999996    2.76999998
   19.32055664  139.95799255    1.48000002    2.76999998
   19.32139015  148.96499634    1.48000002    2.76999998
   19.32472229  141.93600464    1.50000000    2.76999998
   19.32805634  131.21499634    1.50000000    2.76999998
   19.33111191  134.10099792    1.50000000    2.76999998
   19.33444595  133.57899475    1.44000006    2.75000000
   19.33777809  139.97700500    1.36000001    2.76999998
   19.34083366  148.98599243    1.33000004    2.76999998
   19.34416771  140.30200195    1.30999994    2.76999998
   19.35000038  140.30200195    1.28999996    2.76999998
   19.35416794  147.53399658    1.26999998    2.76999998
   19.35750008  143.96400452    1.28999996    2.76999998
   19.36055565  134.86000061    1.26999998    2.76999998
   19.36388969  136.49200439    1.26999998    2.76999998
   19.36694527  145.38600159    1.26999998    2.76999998
   19.37027740  141.64399719    1.21000004    2.76999998
   19.37361145  143.27299500    1.21000004    2.78999996
   19.37666702  139.41299438    1.21000004    2.75000000
   19.38000107  148.01600647    1.23000002    2.76999998
   19.38333321  149.67399597    1.21000004    2.76999998
   19.38638878  157.86300659    1.21000004    2.76999998
   19.38722229  147.27600098    1.23000002    2.76999998
   19.39277840  147.27600098    1.21000004    2.75000000
   19.39694405  144.64399719    1.21000004    2.76999998
   19.40027809  150.77999878    1.21000004    2.76999998
   19.40333366  149.88900757    1.21000004    2.76999998
   19.40666580  144.69599915    1.21000004    2.76999998
   19.40999985  150.45799255    1.23000002    2.78999996
   19.41305542  152.01199341    1.23000002    2.76999998
   19.41638756  144.66900635    1.23000002    2.75000000
   19.41972160  147.54800415    1.21000004    2.76999998
   19.42055511  155.93800354    1.21000004    2.75000000
   19.42333221  141.86500549    1.21000004    2.76999998
   19.42638779  137.86900330    1.21000004    2.76999998
   19.42972183  150.74699402    1.21000004    2.76999998
   19.43583298  150.74699402    1.21000004    2.75000000
   19.43972206  143.30900574    1.21000004    2.75000000
   19.44305420  152.59700012    1.19000006    2.75000000
   19.44638824  146.92900085    1.19000006    2.75000000
   19.44944382  151.75700378    1.21000004    2.76999998
   19.45277786  136.77000427    1.21000004    2.76999998
   19.45388985  153.56700134    1.23000002    2.76999998
   19.45639038  143.53300476    1.23000002    2.76999998
   19.45944595  147.16700745    1.25000000    2.75000000
   19.46277809  146.17900085    1.25000000    2.76999998
   19.46583366  151.62399292    1.25000000    2.76999998
   19.46916771  154.51699829    1.25000000    2.76999998
   19.47249985  152.97599792    1.26999998    2.76999998
   19.47861099  152.97599792    1.28999996    2.76999998
   19.48277855  146.84800720    1.28999996    2.75000000
   19.48583412  149.19599915    1.26999998    2.75000000
   19.48722267  139.63099670    1.26999998    2.75000000
   19.48972321  151.27299500    1.26999998    2.75000000
   19.49277878  142.66299438    1.26999998    2.76999998
   19.49611092  143.28500366    1.26999998    2.75000000
   19.49916649  149.85000610    1.26999998    2.75000000
   19.50250053  146.50900269    1.26999998    2.75000000
   19.50583267  151.50799561    1.28999996    2.75000000
   19.50888824  148.01400757    1.28999996    2.75000000
   19.51222229  139.24200439    1.28999996    2.75000000
   19.51555634  157.19299316    1.33000004    2.75000000
   19.52138901  157.19299316    1.36000001    2.75000000
   19.52555466  149.87300110    1.36000001    2.75000000
   19.52888870  149.94799805    1.30999994    2.75000000
   19.53194427  147.89599609    1.30999994    2.75000000
   19.53527641  161.40400696    1.30999994    2.73000002
   19.53861046  165.91999817    1.30999994    2.75000000
   19.54166603  155.72599792    1.28999996    2.75000000
   19.54500008  145.06100464    1.28999996    2.75000000
   19.54805565  154.19299316    1.28999996    2.76999998
   19.55138779  135.63600159    1.23000002    2.75000000
   19.55388832  148.78599548    1.25000000    2.75000000
   19.55527687  145.41499329    1.25000000    2.75000000
   19.55833244  156.42599487    1.23000002    2.75000000
   19.56416512  156.42599487    1.23000002    2.75000000
   19.56833458  148.30700684    1.23000002    2.75000000
   19.57166672  155.00300598    1.23000002    2.75000000
   19.57472229  142.65499878    1.21000004    2.75000000
   19.57805634  145.02600098    1.21000004    2.75000000
   19.58139038  153.62399292    1.21000004    2.75000000
   19.58444595  157.95500183    1.21000004    2.75000000
   19.58722305  151.65100098    1.21000004    2.75000000
   19.58833313  162.77299500    1.21000004    2.75000000
   19.59138870  135.95599365    1.21000004    2.75000000
   19.59472275  156.00599670    1.25000000    2.75000000
   19.59777832  150.33000183    1.26999998    2.75000000
   19.60111237  165.08099365    1.26999998    2.73000002
   19.60722351  165.08099365    1.28999996    2.75000000
   19.61111069  152.63000488    1.28999996    2.73000002
   19.61444473  139.27000427    1.28999996    2.75000000
   19.61777878  154.41900635    1.30999994    2.75000000
   19.62055588  152.24899292    1.30999994    2.75000000
   19.62111092  146.72000122    1.30999994    2.75000000
   19.62444496  137.54200745    1.28999996    2.75000000
   19.62777710  156.82899475    1.28999996    2.75000000
   19.63083267  156.41099548    1.28999996    2.75000000
   19.63416672  152.85800171    1.30999994    2.73000002
   19.63750076  152.25199890    1.28999996    2.73000002
   19.64055634  141.75700378    1.28999996    2.75000000
   19.64388847  144.54200745    1.28999996    2.75000000
   19.64999962  144.54200745    1.26999998    2.75000000
   19.65416718  150.79400635    1.26999998    2.75000000
   19.65722275  146.02799988    1.26999998    2.75000000
   19.66055489  150.61700439    1.25000000    2.75000000
   19.66361046  162.90199280    1.25000000    2.75000000
   19.66694450  160.40299988    1.25000000    2.75000000
   19.67027664  145.24800110    1.23000002    2.73000002
   19.67333221  140.89199829    1.23000002    2.73000002
   19.67666626  143.84399414    1.23000002    2.75000000
   19.68000031  153.27999878    1.21000004    2.75000000
   19.68305397  158.16499329    1.21000004    2.73000002
   19.68638802  157.15400696    1.21000004    2.73000002
   19.68722153  140.55700684    1.21000004    2.73000002
   19.69277763  140.55700684    1.19000006    2.73000002
   19.69694328  153.92900085    1.19000006    2.75000000
   19.70000076  151.01400757    1.19000006    2.75000000
   19.70333481  142.74000549    1.19000006    2.75000000
   19.70666695  148.46600342    1.21000004    2.73000002
   19.70972252  143.05200195    1.21000004    2.73000002
   19.71305656  144.51800537    1.21000004    2.75000000
   19.71638870  155.38200378    1.21000004    2.75000000
   19.71944427  146.49099731    1.21000004    2.73000002
   19.72055626  146.75700378    1.21000004    2.73000002
   19.72333336  143.49000549    1.14999998    2.75000000
   19.72638893  138.50399780    1.14999998    2.75000000
   19.72972298  143.69000244    1.13000000    2.73000002
   19.73555565  143.69000244    1.11000001    2.73000002
   19.73972321  147.84599304    1.11000001    2.75000000
   19.74305534  153.76499939    1.11000001    2.73000002
   19.74611092  149.50500488    1.07000005    2.73000002
   19.74944496  149.44999695    1.07000005    2.75000000
   19.75277710  148.56100464    1.09000003    2.75000000
   19.75388908  152.39100647    1.09000003    2.75000000
   19.75638962  147.26400757    1.09000003    2.75000000
   19.75944519  167.96099854    1.05999994    2.73000002
   19.76277733  155.85800171    1.03999996    2.75000000
   19.76583290  157.74800110    1.03999996    2.73000002
   19.76916695  164.97500610    1.03999996    2.73000002
   19.77249908  149.00000000    1.01999998    2.73000002
   19.77861023  149.00000000    1.01999998    2.75000000
   19.78249931  145.74299622    1.00000000    2.75000000
   19.78583336  141.51899719    1.00000000    2.75000000
   19.78722191  151.67100525    1.00000000    2.73000002
   19.78944397  138.09300232    1.00000000    2.73000002
   19.79249954  136.29400635    1.00000000    2.73000002
   19.79583359  148.88499451    1.00000000    2.71000004
   19.79916573  152.52000427    0.98000002    2.73000002
   19.80222130  159.22799683    1.00000000    2.75000000
   19.80555534  152.52099609    0.98000002    2.73000002
   19.80861092  160.44299316    0.98000002    2.73000002
   19.81194305  158.96099854    0.95999998    2.73000002
   19.81527710  160.03599548    0.95999998    2.73000002
   19.82139015  160.03599548    0.94000000    2.73000002
   19.82555580  152.87399292    0.94000000    2.73000002
   19.82861137  155.11399841    0.94000000    2.73000002
   19.83194542  151.06900024    0.94000000    2.73000002
   19.83500099  155.91900635    0.94000000    2.73000002
   19.83833313  158.54299927    0.94000000    2.73000002
   19.84166718  150.65400696    0.94000000    2.73000002
   19.84472275  148.51800537    0.94000000    2.73000002
   19.84805679  144.40199280    0.94000000    2.73000002
   19.85138893  150.51100159    0.94000000    2.73000002
   19.85388947  145.53900146    0.92000002    2.73000002
   19.87444496  145.53900146    0.92000002    2.71000004
   19.87861061  149.73300171    0.94000000    2.73000002
   19.88194466  148.35400391    0.94000000    2.73000002
   19.88500023  152.62300110    0.94000000    2.71000004
   19.88722229  135.04100037    0.94000000    2.71000004
   19.88888931  145.16400146    0.98000002    2.71000004
   19.89194489  143.17799377    0.94000000    2.71000004
   19.89527702  158.35000610    0.94000000    2.73000002
   19.89833260  150.03100586    0.89999998    2.73000002
   19.90166664  139.36099243    0.89999998    2.71000004
   19.90499878  154.59399414    0.88000000    2.73000002
   19.90805435  142.37800598    0.88000000    2.73000002
   19.91138840  154.61900330    0.88000000    2.73000002
   19.91722107  154.61900330    0.88000000    2.73000002
   19.92138863  151.48500061    0.88000000    2.73000002
   19.92472076  139.76199341    0.89999998    2.71000004
   19.92777634  159.53799438    0.92000002    2.71000004
   19.93111038  154.73100281    0.92000002    2.71000004
   19.93444443  145.53199768    0.92000002    2.73000002
   19.93750000  144.50700378    0.92000002    2.71000004
   19.94083214  146.64799500    0.92000002    2.71000004
   19.94388771  143.41700745    0.92000002    2.71000004
   19.94749832  141.33599854    0.94000000    2.71000004
   19.95055580  147.46499634    0.95999998    2.71000004
   19.95388985  149.38800049    0.95999998    2.71000004
   19.95444489  146.68499756    0.95999998    2.71000004
   19.96000099  146.68499756    0.95999998    2.71000004
   19.96416664  148.09800720    1.03999996    2.71000004
   19.96750069  150.05700684    1.05999994    2.71000004
   19.97083473  153.70700073    1.05999994    2.71000004
   19.97389030  158.67100525    1.05999994    2.71000004
   19.97722244  155.87300110    1.05999994    2.71000004
   19.98055649  157.00799561    1.05999994    2.71000004
   19.98361206  165.59300232    1.05999994    2.71000004
   19.98694420  152.26800537    1.05999994    2.71000004
   19.98777771  150.19700623    1.05999994    2.71000004
   19.99027824  154.08799744    1.05999994    2.71000004
   19.99361229  157.25100708    1.05999994    2.71000004
   19.99694443  151.64300537    1.01999998    2.71000004
   20.00305557  151.64300537    1.01999998    2.71000004
   20.00694466  163.51600647    1.00000000    2.71000004
   20.01027870  155.78999329    1.00000000    2.71000004
   20.01361084  162.31199646    1.00000000    2.71000004
   20.01666641  148.64700317    1.00000000    2.71000004
   20.02000046  165.82899475    0.95999998    2.71000004
   20.02111053  148.36700439    0.95999998    2.71000004
   20.02361107  154.90600586    0.94000000    2.71000004
   20.02694511  149.15600586    0.94000000    2.69000006
   20.03027725  156.94400024    0.94000000    2.71000004
   20.03333282  155.06399536    0.94000000    2.69000006
   20.03666687  145.76400757    0.94000000    2.69000006
   20.03972244  157.99200439    0.92000002    2.71000004
   20.04583359  157.99200439    0.92000002    2.71000004
   20.04999924  154.96099854    0.89999998    2.71000004
   20.05333328  153.33799744    0.89999998    2.69000006
   20.05444336  150.23699951    0.89999998    2.69000006
   20.05694389  145.00399780    0.89999998    2.69000006
   20.06027794  142.49699402    0.89999998    2.69000006
   20.06361008  151.52900696    0.89999998    2.71000004
   20.06666756  159.73800659    0.88000000    2.71000004
   20.07000160  158.64799500    0.88000000    2.71000004
   20.07333374  155.13200378    0.88000000    2.71000004
   20.07638931  141.55900574    0.88000000    2.71000004
   20.07972336  162.91200256    0.86000001    2.69000006
   20.08277893  156.94299316    0.86000001    2.71000004
   20.08861160  156.94299316    0.86000001    2.69000006
   20.09277916  160.91099548    0.86000001    2.69000006
   20.09611130  151.40400696    0.83999997    2.69000006
   20.09916687  164.78500366    0.86000001    2.69000006
   20.10250092  151.94200134    0.83999997    2.71000004
   20.10583305  146.92500305    0.83999997    2.69000006
   20.10888863  167.96000671    0.83999997    2.69000006
   20.11222267  156.24400330    0.83999997    2.69000006
   20.11527824  154.07099915    0.83999997    2.69000006
   20.11861038  166.50300598    0.83999997    2.69000006
   20.12111092  157.18699646    0.83999997    2.69000006
   20.12222290  155.75199890    0.83999997    2.69000006
   20.12555504  160.85099792    0.86000001    2.69000006
   20.13138962  160.85099792    0.86000001    2.69000006
   20.13555527  152.39199829    0.83999997    2.69000006
   20.13888931  159.17199707    0.86000001    2.69000006
   20.14194489  153.83000183    0.86000001    2.69000006
   20.14527702  156.14100647    0.86000001    2.69000006
   20.14861107  156.52499390    0.86000001    2.69000006
   20.15166664  155.57099915    0.86000001    2.69000006
   20.15444374  147.30900574    0.86000001    2.69000006
   20.15527725  149.12500000    0.86000001    2.69000006
   20.15861130  148.59100342    0.86000001    2.67000008
   20.16194344  147.78300476    0.86000001    2.69000006
   20.16499901  151.16900635    0.86000001    2.69000006
   20.16833305  144.24400330    0.83999997    2.69000006
   20.17444420  144.24400330    0.83999997    2.69000006
   20.17833328  153.17799377    0.83999997    2.69000006
   20.18166542  151.14100647    0.83999997    2.67000008
   20.18499947  155.80499268    0.81999999    2.67000008
   20.18777657  164.34399414    0.81999999    2.69000006
   20.18833160  144.39599609    0.81999999    2.69000006
   20.19166565  166.13000488    0.81999999    2.67000008
   20.19499969  164.07400513    0.81999999    2.69000006
   20.19805527  156.66799927    0.81999999    2.69000006
   20.20138931  159.74000549    0.83999997    2.69000006
   20.20472336  157.11599731    0.83999997    2.69000006
   20.20777893  148.35299683    0.81999999    2.69000006
   20.21111107  168.45500183    0.81999999    2.69000006
   20.21722221  168.45500183    0.81999999    2.69000006
   20.22138977  154.96600342    0.81999999    2.69000006
   20.22444534  151.58599854    0.81999999    2.69000006
   20.22777748  156.56700134    0.81999999    2.67000008
   20.23111153  154.74899292    0.81999999    2.67000008
   20.23416710  155.99400330    0.83999997    2.67000008
   20.23750114  164.45399475    0.81999999    2.67000008
   20.24055672  155.63299561    0.81999999    2.67000008
   20.24388885  150.16600037    0.81999999    2.67000008
   20.24722290  157.83000183    0.81999999    2.67000008
   20.25027847  154.85800171    0.81999999    2.67000008
   20.25361061  167.94000244    0.81999999    2.67000008
   20.25444412  159.98699951    0.81999999    2.67000008
   20.26000023  159.98699951    0.83999997    2.67000008
   20.26416588  168.20700073    0.83999997    2.67000008
   20.26749992  159.67100525    0.83999997    2.67000008
   20.27055550  145.55900574    0.83999997    2.67000008
   20.27388954  168.19700623    0.86000001    2.67000008
   20.27694511  155.55299377    0.86000001    2.67000008
   20.28027725  161.39999390    0.86000001    2.67000008
   20.28361130  161.73300171    0.86000001    2.66000009
   20.28666687  162.81199646    0.86000001    2.66000009
   20.28777695  164.31300354    0.86000001    2.66000009
   20.29055595  158.83599854    0.86000001    2.67000008
   20.29388809  159.38699341    0.86000001    2.67000008
   20.29694366  150.46299744    0.86000001    2.67000008
   20.30277634  150.46299744    0.86000001    2.66000009
   20.30694389  165.55200195    0.86000001    2.66000009
   20.31027794  151.49099731    0.86000001    2.66000009
   20.31333351  160.76800537    0.88000000    2.66000009
   20.31666756  152.46400452    0.89999998    2.66000009
   20.32000160  150.55000305    0.89999998    2.66000009
   20.32111168  157.43600464    0.89999998    2.67000008
   20.32333374  165.88400269    0.89999998    2.67000008
   20.32666779  156.12300110    0.89999998    2.67000008
   20.33000183  160.61599731    0.89999998    2.67000008
   20.33305550  148.89100647    0.89999998    2.66000009
   20.33638954  158.81100464    0.89999998    2.66000009
   20.33972359  152.69200134    0.89999998    2.66000009
   20.34583473  152.69200134    0.89999998    2.66000009
   20.34972191  156.61399841    0.92000002    2.66000009
   20.35305595  170.34899902    0.89999998    2.66000009
   20.35444450  169.10699463    0.89999998    2.66000009
   20.35694504  154.13800049    0.89999998    2.66000009
   20.36000061  161.32299805    0.89999998    2.66000009
   20.36333466  158.99899292    0.89999998    2.67000008
   20.36666679  149.59399414    0.92000002    2.67000008
   20.36972237  169.15299988    0.92000002    2.66000009
   20.37305641  149.07000732    0.89999998    2.66000009
   20.37638855  171.37100220    0.89999998    2.66000009
   20.37944412  167.12199402    0.92000002    2.66000009
   20.38277817  153.93400574    0.94000000    2.66000009
   20.38861084  153.93400574    0.92000002    2.66000009
   20.39277840  244.32800293    0.94000000    2.66000009
   20.39583397  304.35400391    0.95999998    2.64000010
   20.39916611  157.69700623    0.95999998    2.66000009
   20.40250015  125.90100098    0.95999998    2.64000010
   20.40555573   -1.00000000    0.95999998    2.64000010
   20.40888786   -1.00000000    0.95999998    2.66000009
   20.41194344   -1.00000000    0.98000002    2.64000010
   20.41527748   -1.00000000    0.98000002    2.64000010
   20.41860962   -1.00000000    0.98000002    2.66000009
   20.42194366   -1.00000000    0.98000002    2.64000010
   20.42527771   -1.00000000    0.98000002    2.64000010
   20.43555450   -1.00000000    1.00000000    2.64000010
   20.43861008   -1.00000000    1.00000000    2.61999989
   20.44194412   -1.00000000    1.00000000    2.64000010
   20.44499969   -1.00000000    1.01999998    2.64000010
   20.44833183   -1.00000000    1.01999998    2.64000010
